Jaz Data File
++++++++++++++++++++++++++++++++++++
Date: Thu Sep 26 04:29:41 2019
User: jaz
Dark Spectrum Present: Yes
Reference Spectrum Present: Yes
Processed Spectrum Present: Yes
Spectrometers: JAZA3541
Integration Time (usec): 100000 (JAZA3541)
Spectra Averaged: 1 (JAZA3541)
Boxcar Smoothing: 10 (JAZA3541)
Correct for Electrical Dark: No (JAZA3541)
Strobe/Lamp Enabled: Yes (JAZA3541)
Correct for Detector Non-linearity: No (JAZA3541)
Correct for Stray Light: No (JAZA3541)
Number of Pixels in Processed Spectrum: 2048
>>>>>Begin Processed Spectral Data<<<<<
W	D	R	S	P
190.543274	0.000000	0.000000	0.000000	0.000000
190.921555	0.000000	0.000000	0.000000	0.000000
191.299805	1296.805664	1336.172974	1181.019409	-294.117767
191.678024	1229.649658	1322.278564	1162.493652	-72.500053
192.056229	1345.435913	1313.015747	1178.703735	514.285400
192.434387	1331.541504	1278.279907	1264.385498	126.087105
192.812531	1303.752808	1324.594360	1252.806885	-244.443985
193.190659	1310.699951	1296.805664	1215.755249	683.336243
193.568741	1319.962891	1359.330200	1185.650879	-341.176514
193.946793	0.000000	0.000000	0.000000	0.000000
194.324829	1207.815674	1211.785522	1090.265137	-2961.083496
194.702835	1271.994385	1273.317627	1147.165771	-9433.541992
195.080811	1337.606445	1335.070313	1205.610352	5204.620605
195.458755	1337.827148	1332.203125	1202.853516	2399.947998
195.836685	1338.268188	1331.541626	1204.728027	1985.265991
196.214569	1339.811890	1336.172974	1207.154053	3645.531738
196.592422	1341.907104	1340.032471	1205.610229	7270.586914
196.970261	1342.679077	1342.127686	1202.632935	25398.671875
197.348068	1343.781860	1343.120117	1203.404907	21213.207031
197.725861	1344.222900	1342.127563	1204.728027	6657.395996
198.103622	1343.561279	1338.157837	1209.580078	2479.552734
198.481323	1340.253052	1337.496216	1206.492432	4851.961426
198.859039	1337.937378	1335.290771	1208.587646	4887.380859
199.236694	1335.070313	1335.621460	1205.500000	-23509.191406
199.614334	1333.416138	1335.511230	1206.271973	-6068.665039
199.991959	1329.115479	1337.937134	1205.941162	-1396.272217
200.369553	1324.373657	1337.826904	1206.602661	-875.409424
200.747101	1322.499023	1341.355835	1205.169067	-622.215271
201.124619	1320.514038	1341.576294	1205.169067	-547.638245
201.502136	1316.323608	1346.538452	1200.537720	-383.208618
201.879623	1313.677246	1349.736450	1204.948608	-301.528107
202.257065	1311.030640	1351.500854	1206.271729	-258.854340
202.634476	1309.927979	1352.934570	1208.918335	-234.870148
203.011871	1305.186279	1354.809082	1210.462280	-190.888046
203.389221	1303.091064	1361.866455	1214.873047	-150.093460
203.766571	1304.745117	1367.931519	1217.188843	-138.568222
204.143875	1300.334229	1365.064331	1215.645142	-130.834167
204.521164	1296.254272	1365.284912	1214.211548	-118.849724
204.898392	1297.798096	1363.300049	1215.093628	-126.262596
205.275620	1298.459717	1368.703369	1215.424438	-118.210365
205.652817	1293.718018	1368.482910	1212.777954	-108.259453
206.029984	1293.607666	1372.673218	1213.439575	-101.394463
206.407135	1291.953613	1374.988892	1212.667725	-95.484581
206.784225	1292.394775	1374.437378	1213.990845	-95.564903
207.161301	1293.607910	1372.893555	1214.321655	-100.000771
207.538376	1298.570190	1373.555176	1216.747803	-109.118362
207.915405	1302.209229	1370.798462	1218.622314	-121.865936
208.292404	1303.422119	1370.798584	1220.497070	-123.077171
208.669373	1305.406860	1366.718506	1223.694824	-133.273270
209.046310	1302.319336	1363.961670	1224.687500	-125.939156
209.423218	1303.863159	1361.645874	1228.326416	-130.725494
209.800095	1305.737793	1357.124756	1231.855103	-143.777115
210.176956	1308.715210	1353.265137	1232.957886	-170.050385
210.553787	1308.163818	1355.911743	1233.068115	-157.275330
210.930603	1309.597412	1356.242554	1232.516846	-165.248871
211.307358	1315.221313	1353.485718	1232.957886	-214.986832
211.684113	1317.316406	1349.846680	1235.604492	-251.187302
212.060837	1316.985596	1348.413086	1239.133057	-247.721146
212.437531	1316.765015	1350.839233	1241.669312	-220.388626
212.814178	1314.008179	1354.037109	1243.874756	-175.206833
213.190826	1312.574585	1351.280273	1242.882202	-180.057205
213.567413	1313.125977	1352.383057	1246.080078	-170.786774
213.943985	1310.258789	1357.345337	1246.741699	-134.894348
214.320541	1309.266479	1357.124756	1250.601318	-122.581017
214.697052	1307.612305	1361.315186	1249.388428	-108.418533
215.073563	1309.266357	1363.300049	1249.167847	-111.224144
215.449997	1303.863159	1360.874023	1252.145264	-90.715858
215.826431	1301.326904	1362.086914	1247.513794	-88.566658
216.202850	1300.334351	1364.954102	1243.543945	-87.883972
216.579224	1298.459717	1369.695923	1241.889893	-79.411621
216.955582	1300.885742	1374.989014	1241.669312	-79.910683
217.331894	1300.554932	1374.217041	1243.654175	-77.245628
217.708191	1300.003418	1376.863647	1237.920044	-80.774384
218.084442	1300.113770	1383.480103	1236.596802	-76.190193
218.460678	1296.915771	1384.141602	1235.052979	-70.922562
218.836899	1295.041260	1385.685303	1234.281006	-67.031715
219.213074	1292.615234	1387.339478	1235.824829	-59.953400
219.589233	1294.269287	1392.191650	1235.163208	-60.360142
219.965347	1296.805542	1398.697510	1233.729736	-61.904591
220.341431	1295.592529	1399.359131	1235.383789	-58.023235
220.717499	1296.254150	1400.241455	1234.391357	-59.490715
221.093552	1295.041260	1402.336548	1233.950317	-56.937210
221.469543	1299.011108	1407.078247	1235.494141	-58.775471
221.845535	1302.980835	1407.409058	1237.037964	-63.146599
222.221466	1305.296631	1411.709595	1236.376343	-64.766815
222.597397	1305.186279	1417.884766	1240.456421	-57.436317
222.973297	1302.760376	1426.706543	1241.779541	-49.199451
223.349167	1300.554932	1437.403076	1238.140625	-45.608440
223.725006	1297.467285	1446.996826	1245.308350	-34.882027
224.100800	1295.041260	1454.385010	1248.837036	-28.996571
224.476578	1295.372070	1465.081543	1248.947388	-27.355387
224.852325	1297.577515	1475.778076	1254.461060	-24.195465
225.228058	1298.680298	1495.847778	1257.328003	-20.973183
225.603760	1297.577637	1523.195313	1267.583374	-13.294288
225.979416	1295.261963	1552.086792	1273.538086	-8.458635
226.355057	1295.372192	1590.351318	1281.588013	-4.672934
226.730652	1296.805664	1642.069214	1290.409790	-1.852461
227.106232	1296.915894	1691.912231	1298.680298	0.446689
227.481796	1294.159180	1736.903687	1308.053345	3.138190
227.857315	1292.946167	1778.145630	1317.867798	5.136368
228.232788	1296.033813	1815.638184	1324.373779	5.454143
228.608246	1296.695435	1848.058350	1332.644287	6.519998
228.983704	1297.026245	1883.345459	1340.473755	7.410214
229.359100	1297.577637	1916.206665	1347.090088	8.003577
229.734482	1293.166748	1945.870117	1350.508423	8.785258
230.109833	1290.189453	1973.768921	1356.132446	9.646719
230.485153	1290.189331	1989.979126	1361.866577	10.242682
230.860443	1289.527710	2012.585205	1365.726074	10.538355
231.235703	1293.166748	2031.331421	1373.996582	10.950109
231.610931	1293.607788	2055.481445	1373.004028	10.421182
231.986145	1293.056396	2079.300049	1377.966309	10.799440
232.361313	1290.189209	2098.708252	1385.685303	11.811236
232.736465	1287.983765	2121.313965	1390.206421	12.266765
233.111572	1285.888550	2134.656982	1394.286865	12.771247
233.486664	1288.865845	2141.052734	1397.043579	12.694133
233.861725	1290.409668	2141.604248	1402.667358	13.188252
234.236755	1292.284302	2138.957520	1404.541992	13.258679
234.611771	1296.474731	2120.873047	1407.298828	13.443028
234.986740	1298.900635	2101.023926	1409.835083	13.830099
235.361679	1299.782959	2083.710938	1407.850220	13.785356
235.736588	1298.570068	2073.235107	1408.181152	14.149481
236.111496	1297.908447	2069.375488	1413.033081	14.922819
236.486343	1298.459717	2071.139893	1417.885010	15.455980
236.861160	1301.106323	2071.250000	1430.676758	16.824190
237.235962	1300.334351	2079.961426	1440.711548	18.005686
237.610733	1302.760376	2089.996338	1453.282471	19.120327
237.985474	1301.437134	2106.978271	1467.507568	20.616009
238.360199	1300.665283	2140.501221	1482.394409	21.638645
238.734879	1301.767944	2177.662842	1505.992798	23.316137
239.109543	1300.334473	2227.616455	1530.142334	24.782953
239.484177	1304.635132	2281.650146	1566.752930	26.828430
239.858749	1310.810303	2350.680908	1605.789429	28.366907
240.233322	1311.361694	2434.047119	1645.928589	29.800591
240.607864	1313.126099	2511.899414	1689.375977	31.386240
240.982391	1314.559570	2592.618896	1734.367188	32.847271
241.356857	1316.213745	2651.063232	1773.513916	34.258556
241.731308	1315.000610	2704.435059	1804.831421	35.253971
242.105728	1317.977905	2744.684814	1834.053589	36.172508
242.480118	1312.354126	2785.926758	1857.982666	37.027596
242.854492	1310.479492	2835.880127	1885.881836	37.721390
243.228836	1309.045898	2893.442383	1917.971191	38.432632
243.603134	1312.905518	2957.290283	1961.969849	39.471561
243.977402	1312.023193	3046.721436	2011.041260	40.296234
244.351654	1310.920532	3168.241699	2070.257324	40.883442
244.725861	1310.810303	3315.235107	2138.737061	41.304955
245.100067	1311.912964	3466.970215	2217.912598	42.040630
245.474213	1311.361694	3603.377197	2295.434082	42.934803
245.848343	1316.985474	3710.341553	2358.179199	43.503506
246.222443	1318.198486	3794.700195	2411.771729	44.157986
246.596512	1318.419067	3855.019287	2456.101074	44.850666
246.970566	1321.286133	3892.181641	2485.323486	45.277504
247.344574	1320.845093	3904.862793	2493.704346	45.388981
247.718567	1317.206055	3891.740234	2494.476074	45.727497
248.092529	1318.749756	3859.430420	2490.837158	46.132813
248.466431	1315.441650	3833.075195	2481.464111	46.314224
248.840332	1313.236206	3807.051025	2471.870117	46.460300
249.214203	1311.030640	3809.476563	2476.391357	46.643425
249.588043	1313.787598	3825.797363	2483.338623	46.558380
249.961838	1310.038330	3853.696045	2496.791992	46.655399
250.335617	1313.677124	3886.888428	2518.185059	46.809521
250.709381	1313.456665	3901.664795	2530.976318	47.041027
251.083084	1318.198608	3899.569824	2535.387207	47.152794
251.456787	1314.780029	3882.367188	2518.846436	46.894859
251.830460	1316.434204	3829.656738	2494.696777	46.882538
252.204071	1313.456787	3746.069824	2460.071289	47.135098
252.577667	1310.038452	3638.995117	2413.977295	47.400578
252.951248	1310.369263	3513.615234	2354.430176	47.387394
253.324799	1308.604858	3406.099365	2296.978027	47.121605
253.698303	1305.737671	3326.152100	2249.119873	46.692509
254.071793	1305.296631	3267.817627	2211.186035	46.159477
254.445236	1304.083618	3233.853760	2180.640625	45.422871
254.818665	1300.113770	3219.959473	2166.084717	45.106277
255.192062	1300.003418	3219.077393	2167.848877	45.222095
255.565430	1300.444458	3243.888672	2178.435303	45.177055
255.938782	1301.878052	3283.365967	2195.747803	45.111038
256.312103	1304.745117	3340.266846	2218.684570	44.899517
256.685364	1306.730225	3419.442383	2248.678955	44.584812
257.058594	1304.965820	3518.357178	2281.539795	44.121162
257.431793	1302.098633	3646.714600	2336.676270	44.125675
257.804993	1302.760254	3790.178955	2396.223633	43.959763
258.178162	1299.672729	3928.240234	2453.675293	43.902340
258.551270	1298.128906	4052.517578	2504.069824	43.782524
258.924377	1294.379639	4145.587402	2547.186279	43.939507
259.297485	1293.938599	4222.999023	2586.112793	44.115654
259.670502	1293.056396	4286.625977	2607.505615	43.909092
260.043518	1295.151489	4346.063477	2628.898438	43.716335
260.416473	1298.569946	4394.473145	2648.085449	43.590363
260.789459	1297.026123	4449.830078	2673.668701	43.664070
261.162354	1297.246704	4497.467773	2693.076904	43.616680
261.535278	1298.349365	4541.796875	2714.469971	43.660969
261.908142	1298.790527	4576.092285	2730.790039	43.694466
262.280975	1301.216553	4595.279297	2740.384033	43.689739
262.653717	1302.870605	4609.834961	2745.125732	43.612659
263.026520	1300.113892	4627.809570	2752.072754	43.632561
263.399261	1297.357056	4643.688477	2753.285889	43.508205
263.771973	1296.915894	4654.495605	2752.072998	43.339466
264.144653	1298.239258	4653.502930	2748.213623	43.214916
264.517334	1301.106323	4633.103027	2740.494873	43.198982
264.889954	1302.208862	4586.678223	2725.387451	43.330551
265.262543	1305.627563	4506.179199	2686.130371	43.133274
265.635071	1308.053589	4405.610840	2638.712891	42.958347
266.007599	1311.802856	4310.224609	2586.002686	42.495682
266.380127	1312.133545	4240.201660	2546.415039	42.153442
266.752594	1315.882935	4205.575684	2523.367676	41.785919
267.125031	1315.000732	4197.084473	2508.150146	41.398846
267.497437	1313.236328	4212.963867	2508.921875	41.234409
267.869843	1316.544556	4239.098633	2517.854004	41.104778
268.242218	1313.567261	4277.473633	2527.116699	40.944260
268.614532	1311.913208	4335.697754	2545.091309	40.782604
268.986816	1312.354126	4430.973633	2576.518799	40.536034
269.359100	1311.471924	4539.150879	2609.931396	40.228893
269.731354	1310.038452	4652.510742	2647.865234	40.025070
270.103516	1311.030762	4749.219727	2686.460938	40.004498
270.475708	1311.361572	4830.049805	2715.241943	39.897835
270.847839	1314.890381	4902.499023	2738.509277	39.681557
271.219971	1318.419067	4961.053711	2755.491455	39.451454
271.592041	1320.403809	5006.596191	2765.746582	39.209641
271.964081	1321.065552	5036.369629	2776.773926	39.181404
272.336151	1316.434204	5064.048340	2779.420654	39.037807
272.708130	1316.654785	5090.182129	2778.097168	38.728813
273.080109	1313.015869	5107.385254	2778.538330	38.623611
273.452026	1311.582275	5141.238770	2785.264893	38.480804
273.823914	1310.369263	5176.085449	2794.748535	38.398556
274.195770	1310.369263	5215.893555	2809.194336	38.377052
274.567627	1309.376831	5261.987793	2816.582520	38.131901
274.939423	1310.700073	5304.332031	2836.652100	38.209633
275.311249	1312.243896	5345.464355	2848.892578	38.099792
275.682983	1310.479492	5376.120117	2855.398682	37.999405
276.054688	1309.707520	5401.151855	2859.368652	37.875648
276.426422	1307.943115	5403.577148	2850.546875	37.664589
276.798065	1312.243896	5370.495117	2832.352051	37.457222
277.169708	1313.236206	5325.172852	2815.369873	37.441612
277.541321	1317.757446	5277.536133	2796.623535	37.347191
277.912903	1316.985352	5267.832031	2786.368164	37.191593
278.284424	1316.764893	5279.741211	2786.257813	37.080536
278.655945	1315.882813	5301.685547	2786.478271	36.895840
279.027435	1312.574707	5332.010254	2805.003906	37.130318
279.398865	1310.920532	5391.226563	2831.248779	37.260151
279.770294	1307.502075	5467.424805	2849.112793	37.058636
280.141663	1310.810303	5539.763672	2880.541016	37.118660
280.513031	1313.015869	5615.631348	2908.219238	37.075203
280.884369	1315.993164	5680.912598	2943.506104	37.286209
281.255676	1314.559570	5725.462402	2963.575684	37.385002
281.626953	1313.787720	5763.727051	2987.504883	37.612133
281.998199	1316.654907	5805.189453	3004.817627	37.610554
282.369385	1313.346680	5856.245605	3031.503418	37.820713
282.740540	1313.236328	5915.572754	3047.382813	37.679699
283.111694	1311.802856	5983.280273	3080.685303	37.865589
283.482819	1310.479492	6070.064941	3113.546387	37.882854
283.853912	1314.559570	6165.339844	3156.001465	37.961765
284.224945	1315.441772	6257.858398	3201.102783	38.152611
284.595978	1313.346436	6348.502930	3242.344482	38.310589
284.966980	1311.030762	6425.914551	3286.674561	38.625389
285.337952	1309.817749	6500.238281	3321.740967	38.762241
285.708893	1306.730103	6535.746094	3349.529785	39.066616
286.079803	1305.406860	6558.352051	3374.561768	39.390373
286.450684	1304.745239	6574.893066	3399.483154	39.747231
286.821533	1307.391846	6588.677246	3413.488037	39.878479
287.192322	1306.399414	6596.506836	3436.534912	40.266396
287.563110	1307.391968	6602.571289	3474.358643	40.923389
287.933868	1303.642700	6627.272461	3503.581055	41.324032
288.304596	1299.672852	6668.735352	3548.240967	41.880089
288.675262	1300.885742	6725.304199	3591.247314	42.223171
289.045929	1301.326782	6777.683594	3645.612061	42.807384
289.416565	1300.113770	6826.645020	3688.177490	43.210896
289.787170	1296.805664	6843.957520	3723.023926	43.738091
290.157745	1293.718018	6845.170898	3752.246338	44.286213
290.528259	1293.497437	6840.870605	3787.092285	44.950912
290.898773	1294.820801	6830.614746	3807.712891	45.393528
291.269226	1294.269287	6813.852539	3834.508545	46.022305
291.639679	1290.630371	6797.202148	3860.863525	46.675739
292.010101	1294.820801	6810.876465	3898.687012	47.205219
292.380463	1293.828369	6840.539551	3953.823242	47.956257
292.750824	1298.680298	6882.332031	3998.373047	48.349949
293.121155	1300.775391	6928.756836	4048.988525	48.831242
293.491455	1307.502197	6990.068359	4105.337891	49.235424
293.861725	1310.920532	7072.000977	4164.223145	49.527214
294.231964	1313.125977	7184.479004	4239.539551	49.842236
294.602142	1314.669678	7298.721680	4321.250977	50.243237
294.972321	1314.669800	7398.077148	4394.803223	50.631714
295.342468	1316.213623	7496.991699	4449.719238	50.697590
295.712555	1317.095825	7559.295410	4496.474609	50.933632
296.082672	1318.419067	7583.776855	4528.233398	51.231144
296.452728	1315.882813	7585.761719	4542.458496	51.461533
296.822693	1319.080688	7589.400879	4546.869629	51.477261
297.192657	1321.065552	7589.180664	4560.764160	51.685371
297.562622	1322.388916	7606.824219	4575.871094	51.770477
297.932556	1326.027954	7627.886230	4590.537598	51.802334
298.302460	1328.233398	7634.833496	4605.755371	51.969711
298.672333	1327.792358	7640.347656	4621.744629	52.180965
299.042145	1329.005127	7636.597656	4628.030273	52.302444
299.411957	1330.218140	7623.033691	4624.280762	52.346401
299.781677	1326.027954	7584.768555	4613.584473	52.527447
300.151428	1326.579224	7523.125977	4578.186523	52.474506
300.521149	1326.248291	7458.727051	4544.112305	52.472488
300.890839	1322.829956	7386.829590	4509.486816	52.550411
301.260468	1317.095825	7310.961914	4463.944336	52.501148
301.630096	1318.418945	7223.515625	4424.135254	52.593826
301.999695	1319.080688	7102.436523	4365.139648	52.669403
302.369232	1316.323975	6976.063965	4293.462402	52.602032
302.738739	1314.449219	6859.727051	4218.256836	52.365414
303.108246	1310.699951	6722.106445	4147.461914	52.421902
303.477692	1311.251343	6610.841309	4082.732178	52.296139
303.847137	1311.361816	6522.182129	4029.911377	52.171238
304.216553	1311.361572	6456.680176	3993.852295	52.134590
304.585876	1310.369141	6397.794434	3968.489502	52.248833
304.955231	1309.597046	6350.267090	3933.312988	52.050934
305.324493	1306.619751	6311.010254	3911.809814	52.058086
305.693787	1306.178711	6280.244629	3891.188721	51.969757
306.063049	1306.509521	6274.399414	3872.883545	51.659241
306.432251	1307.391846	6272.414551	3863.730713	51.486954
306.801422	1305.627319	6267.783691	3860.973633	51.496689
307.170593	1304.524658	6268.334961	3857.776123	51.437328
307.539673	1303.642456	6275.171875	3853.254395	51.284256
307.908783	1304.304077	6290.831055	3860.422607	51.260502
308.277832	1302.650146	6307.150879	3870.457520	51.309959
308.646851	1300.444702	6338.357910	3889.424072	51.389919
309.015839	1303.973389	6378.717773	3910.045410	51.353764
309.384796	1298.239258	6410.586914	3924.490967	51.370758
309.753723	1295.151733	6446.205566	3937.062012	51.288731
310.122620	1294.600220	6472.339844	3950.956543	51.303398
310.491486	1296.144165	6484.690430	3962.865967	51.396317
310.860352	1299.342041	6501.231445	3972.790527	51.393795
311.229126	1299.452148	6515.456055	3980.289063	51.396374
311.597931	1298.680298	6523.726074	3977.201660	51.263119
311.966675	1300.224121	6544.016602	3987.787842	51.252289
312.335388	1300.665161	6579.523926	3998.594971	51.108200
312.704071	1298.680298	6617.236816	4024.288330	51.247135
313.072723	1301.326904	6632.564941	4026.493408	51.116951
313.441345	1301.988525	6630.139160	4031.896484	51.235565
313.809875	1302.650146	6611.061523	4022.633545	51.239124
314.178436	1298.459839	6573.018066	4007.195313	51.354736
314.546967	1304.193970	6535.194824	3978.414063	51.122532
314.915466	1304.635132	6494.283691	3955.477295	51.079418
315.283936	1308.604858	6440.911621	3937.833740	51.228992
315.652374	1309.266602	6398.125977	3909.714600	51.100803
316.020752	1307.943237	6345.084961	3878.727783	51.036579
316.389130	1313.236328	6299.542480	3844.433105	50.762962
316.757416	1313.346680	6259.072266	3819.070801	50.664440
317.125732	1312.574585	6233.378418	3795.692627	50.461639
317.494019	1313.126099	6201.399414	3780.144287	50.468086
317.862274	1315.441895	6169.530762	3764.485840	50.453217
318.230469	1314.338989	6137.441406	3741.328857	50.320095
318.598663	1315.441772	6109.211914	3725.559570	50.276039
318.966797	1315.221069	6076.571289	3709.900635	50.294132
319.334930	1314.449341	6049.113281	3696.447510	50.309757
319.703003	1310.148682	6018.347656	3670.753662	50.138172
320.071045	1307.612305	5975.341309	3642.854492	50.029514
320.439056	1306.178711	5939.722656	3617.491699	49.882187
320.807037	1306.399292	5937.627441	3613.742920	49.821423
321.175049	1305.296631	5958.910156	3609.772949	49.520149
321.542969	1301.878052	5990.778809	3621.682373	49.474369
321.910828	1306.178711	6035.219238	3636.238770	49.271305
322.278717	1304.965820	6093.112305	3658.072510	49.144417
322.646515	1308.053345	6142.183594	3679.906250	49.064732
323.014313	1307.501953	6192.908691	3689.610596	48.759678
323.382111	1304.855469	6229.739746	3700.086426	48.635273
323.749817	1304.745117	6278.259766	3713.760010	48.436871
324.117523	1303.752808	6305.828125	3731.514160	48.535080
324.485199	1301.326782	6320.052734	3733.499268	48.461948
324.852814	1304.193970	6319.501465	3735.924805	48.486179
325.220428	1306.399292	6317.957520	3733.167725	48.423435
325.588013	1305.075928	6324.794434	3731.623779	48.340317
325.955536	1308.384155	6334.498535	3738.461426	48.349022
326.323059	1308.825317	6352.804199	3744.305908	48.284904
326.690552	1309.597168	6376.622070	3753.678955	48.235046
327.058014	1311.030640	6396.030273	3763.382813	48.227184
327.425415	1314.338989	6409.152344	3767.573242	48.151604
327.792816	1317.977905	6423.708984	3773.087158	48.085365
328.160187	1320.955322	6430.545410	3769.447998	47.919556
328.527496	1321.837646	6416.541504	3758.531250	47.827972
328.894775	1322.940430	6410.255859	3746.842285	47.645992
329.262054	1325.697144	6391.839844	3732.396484	47.505558
329.629303	1323.712280	6378.275879	3719.825195	47.404942
329.996490	1321.837646	6364.161621	3716.406738	47.489391
330.363647	1317.977905	6370.558105	3716.517578	47.471581
330.730774	1316.985718	6381.474609	3724.456787	47.536312
331.097839	1316.544434	6412.020020	3739.123047	47.543720
331.464935	1316.103394	6438.044434	3757.097412	47.657600
331.831970	1312.353882	6459.437500	3763.162109	47.615471
332.198975	1311.802490	6487.336426	3769.999268	47.496483
332.565948	1311.582153	6516.007324	3784.665527	47.518860
332.932892	1304.965698	6553.610352	3795.472168	47.450466
333.299744	1305.406860	6581.950195	3806.499512	47.400211
333.666656	1301.878174	6619.553711	3818.188232	47.319733
334.033478	1300.444702	6650.540039	3827.120605	47.226746
334.400299	1300.665283	6674.027344	3842.779053	47.309555
334.767090	1298.570068	6710.527344	3857.004883	47.273746
335.133850	1299.562622	6735.669434	3867.479980	47.238171
335.500549	1296.805786	6758.166016	3883.359375	47.360977
335.867218	1291.622803	6781.985352	3898.245850	47.476341
336.233917	1292.725586	6818.154785	3916.440918	47.484371
336.600525	1292.505005	6834.694824	3930.556152	47.599438
336.967102	1293.938599	6855.757324	3943.237305	47.633678
337.333649	1296.915894	6867.004395	3950.625488	47.642143
337.700195	1294.269287	6866.563965	3947.317383	47.611408
338.066681	1296.254150	6856.970215	3936.730957	47.484478
338.433136	1295.813110	6847.266602	3916.440918	47.206158
338.799591	1296.254272	6825.983398	3903.428955	47.148327
339.165985	1296.584961	6811.758789	3887.880615	46.984840
339.532318	1300.775391	6816.390625	3886.446777	46.879112
339.898651	1300.995972	6828.851074	3900.671875	47.028652
340.264954	1300.444580	6846.163574	3901.002930	46.893082
340.631226	1305.627319	6861.712891	3914.125488	46.948486
340.997467	1305.406860	6901.410645	3923.829346	46.790932
341.363678	1306.840454	6942.652344	3940.260010	46.726532
341.729828	1308.274048	6995.914551	3967.608154	46.756363
342.095947	1305.627563	7056.674316	3982.053955	46.538071
342.462067	1306.178833	7114.677734	4006.865234	46.495430
342.828156	1305.076050	7183.377441	4042.041992	46.560490
343.194183	1304.414551	7254.171875	4073.580078	46.542496
343.560211	1309.597290	7313.718750	4089.899902	46.306568
343.926178	1311.582275	7371.282227	4113.829102	46.243984
344.292114	1310.259155	7404.143066	4132.575684	46.313919
344.658020	1307.502197	7440.643066	4145.146484	46.267395
345.023926	1307.943237	7478.025391	4155.732910	46.154808
345.389771	1309.817871	7515.187500	4168.303711	46.064716
345.755585	1307.061157	7535.036621	4182.859863	46.175499
346.121368	1309.376953	7556.099121	4194.438477	46.185207
346.487122	1309.707642	7582.233398	4208.332520	46.211449
346.852844	1309.597412	7608.037109	4224.101074	46.273426
347.218536	1308.163818	7628.216309	4233.253906	46.282684
347.584167	1309.487061	7650.822266	4240.752441	46.224735
347.949768	1309.487061	7669.127930	4253.985352	46.299759
348.315369	1310.259033	7693.718750	4258.506836	46.185734
348.680939	1312.684937	7708.384766	4276.371094	46.338730
349.046448	1312.464478	7717.426270	4274.717285	46.249344
349.411957	1310.810303	7721.727051	4275.599121	46.245941
349.777435	1313.677490	7716.654785	4279.348633	46.317062
350.142792	1315.772705	7705.848145	4267.990234	46.200043
350.508209	1317.757568	7707.170898	4259.610352	46.042614
350.873566	1320.734985	7710.369629	4252.111328	45.877060
351.238892	1324.153320	7723.822754	4271.849609	46.060135
351.604187	1317.647217	7751.722656	4281.884277	46.070911
351.969482	1319.521973	7817.224609	4306.254883	45.965984
352.334717	1317.647339	7876.330566	4339.005371	46.066532
352.699890	1318.308838	7959.255371	4378.041992	46.073753
353.065063	1317.647217	8043.062500	4426.562012	46.226364
353.430237	1317.095825	8157.305176	4473.538086	46.145405
353.795319	1313.456787	8287.425781	4529.335938	46.112614
354.160370	1313.897827	8413.466797	4592.081055	46.174397
354.525421	1315.441650	8548.000977	4659.457520	46.235580
354.890442	1315.993164	8704.146484	4735.215332	46.279793
355.255402	1310.589600	8870.106445	4817.588867	46.391846
355.620331	1311.912964	9055.035156	4907.240234	46.432526
355.985260	1311.913086	9232.242188	4991.599609	46.458759
356.350098	1310.699951	9388.499023	5057.432617	46.383091
356.714935	1313.015869	9533.837891	5132.528320	46.461441
357.079742	1313.456909	9660.432617	5195.052246	46.503014
357.444519	1311.361694	9805.770508	5264.303711	46.535809
357.809296	1311.030762	9967.540039	5352.962402	46.692394
358.173981	1309.266479	10156.877930	5439.636719	46.683449
358.538605	1307.171265	10367.388672	5543.182617	46.753967
358.903259	1303.091187	10606.127930	5651.580566	46.742683
359.267914	1305.958008	10871.113281	5782.583984	46.801395
359.632477	1302.208740	11147.125000	5920.314941	46.908543
359.997009	1303.091064	11412.661133	6041.834961	46.873844
360.361542	1299.893188	11615.783203	6138.654297	46.905903
360.726013	1303.201416	11769.945313	6214.301758	46.920998
361.090485	1304.304321	11863.676758	6262.491211	46.955322
361.454895	1310.259033	11911.866211	6299.542480	47.061573
361.819244	1311.251343	11933.588867	6307.702148	47.037205
362.183594	1308.935791	11933.038086	6300.755371	46.985798
362.547913	1305.958374	11891.907227	6272.856445	46.919724
362.912201	1310.148682	11832.580078	6236.025391	46.813107
363.276489	1311.692383	11753.514648	6185.410156	46.674973
363.640686	1309.045898	11666.289063	6141.191406	46.654747
364.004883	1308.053467	11603.984375	6107.557617	46.615543
364.369049	1307.502075	11540.247070	6080.430664	46.643677
364.733154	1305.627319	11501.651367	6049.223633	46.523979
365.097198	1305.296631	11440.780273	6020.000977	46.516815
365.461273	1304.855469	11349.916992	5975.230957	46.494244
365.825287	1303.863037	11219.022461	5920.204102	46.558414
366.189270	1305.517212	11049.423828	5843.013672	46.567532
366.553223	1306.509644	10853.798828	5751.818359	46.560951
366.917114	1304.083740	10603.810547	5632.503906	46.543518
367.281006	1309.156250	10322.946289	5499.956055	46.493206
367.644867	1308.715088	10066.894531	5379.097656	46.475212
368.008698	1311.251465	9856.163086	5278.528809	46.428532
368.372498	1305.958374	9704.648438	5200.235352	46.367668
368.736237	1305.075928	9600.442383	5143.886230	46.276562
369.099976	1302.429565	9538.358398	5107.606445	46.202156
369.463654	1301.988525	9494.360352	5087.536621	46.208206
369.827332	1302.208862	9463.153320	5074.634277	46.225353
370.190948	1304.193848	9440.435547	5065.150879	46.224747
370.554535	1302.650146	9416.837891	5056.218750	46.259327
370.918091	1301.106445	9393.791016	5044.529785	46.256878
371.281647	1303.091309	9380.999023	5040.670410	46.269150
371.645111	1305.848267	9366.443359	5048.168945	46.427349
372.008575	1305.186523	9363.686523	5044.971191	46.407951
372.371979	1305.406982	9347.367188	5049.381836	46.555504
372.735382	1308.604858	9362.143555	5057.431641	46.548813
373.098724	1308.384155	9392.909180	5059.747559	46.401779
373.462067	1307.501953	9422.242188	5084.227539	46.541546
373.825348	1305.847900	9491.492188	5111.906250	46.496746
374.188599	1304.855347	9567.139648	5147.303711	46.505882
374.551819	1305.517090	9684.690430	5192.074219	46.383537
374.915009	1303.091187	9826.390625	5247.320801	46.275852
375.278168	1303.532227	9977.463867	5309.074219	46.179081
375.641266	1299.672729	10109.459961	5374.354980	46.251766
376.004395	1302.319214	10216.204102	5420.338867	46.197811
376.367462	1305.296631	10289.535156	5462.242676	46.269325
376.730469	1302.980957	10335.959961	5483.966309	46.285789
377.093475	1300.995972	10366.173828	5491.685059	46.228424
377.456421	1299.672852	10399.367188	5505.579102	46.220303
377.819336	1303.201538	10434.763672	5518.481445	46.161648
378.182281	1304.304199	10477.661133	5534.360352	46.112411
378.545135	1306.619873	10523.974609	5559.723633	46.142345
378.907928	1304.965820	10570.621094	5570.309570	46.033913
379.270752	1303.752808	10610.319336	5577.697266	45.923965
379.633484	1304.304077	10644.283203	5589.276367	45.877747
379.996246	1308.604858	10675.931641	5599.862305	45.810905
380.358948	1305.737671	10694.016602	5608.684082	45.833172
380.721558	1306.509521	10717.394531	5625.556152	45.894165
381.084198	1307.281494	10758.856445	5629.084961	45.725750
381.446747	1309.156006	10778.814453	5633.385254	45.664051
381.809326	1310.589722	10797.670898	5637.245117	45.605759
382.171875	1312.574707	10791.716797	5639.450684	45.646278
382.534363	1312.354126	10755.877930	5626.439941	45.683010
382.896790	1311.361572	10704.710938	5613.537109	45.800232
383.259247	1315.441772	10669.204102	5602.730957	45.834915
383.621613	1316.544556	10660.161133	5602.178711	45.866978
383.983948	1316.765015	10687.950195	5609.677246	45.809700
384.346283	1317.647217	10738.124023	5632.834473	45.806469
384.708588	1315.772705	10823.144531	5667.900879	45.776352
385.070831	1320.073242	10899.012695	5702.526855	45.750927
385.433075	1315.662354	10992.963867	5747.848633	45.799816
385.795258	1316.765015	11075.448242	5787.877930	45.816761
386.157440	1312.133667	11151.536133	5824.598633	45.861168
386.519531	1312.795288	11244.496094	5866.170898	45.846882
386.881622	1310.810303	11316.504883	5904.104980	45.906807
387.243683	1310.700073	11391.710938	5934.099121	45.862453
387.605713	1307.391724	11473.091797	5961.226074	45.779774
387.967682	1309.817749	11555.907227	5990.778809	45.685341
388.329651	1307.832886	11652.283203	6030.035645	45.649624
388.691559	1308.053345	11748.441406	6079.769043	45.704391
389.053467	1303.752686	11868.749023	6126.855469	45.651722
389.415314	1301.326782	11987.513672	6177.139160	45.627243
389.777130	1303.752808	12107.820313	6236.355469	45.655052
390.138885	1299.782959	12230.442383	6292.925781	45.680161
390.500641	1300.665039	12323.181641	6325.235352	45.584602
390.862366	1296.584961	12410.408203	6359.640625	45.556381
391.224060	1296.364502	12484.620117	6383.680664	45.470146
391.585693	1297.246704	12571.514648	6417.865234	45.418636
391.947296	1298.569946	12659.623047	6460.208984	45.432755
392.308868	1304.524658	12724.023438	6499.466309	45.491852
392.670441	1304.304077	12789.525391	6525.932129	45.463886
393.031952	1307.171265	12819.077148	6536.849121	45.428425
393.393433	1306.399414	12846.205078	6553.058594	45.465752
393.754883	1308.494507	12861.644531	6557.801270	45.436150
394.116302	1307.502075	12850.395508	6561.109375	45.513783
394.477692	1311.141113	12853.373047	6556.257324	45.442822
394.839020	1310.589722	12852.491211	6552.619141	45.417381
395.200348	1310.589722	12851.718750	6559.785645	45.482517
395.561646	1308.825317	12834.958008	6557.469727	45.536907
395.922882	1312.574585	12799.230469	6540.157227	45.510044
396.284088	1313.787476	12739.682617	6510.052734	45.477970
396.645264	1316.103271	12662.161133	6487.005371	45.574440
397.006409	1316.985474	12567.545898	6446.755859	45.595688
397.367523	1312.905396	12464.992188	6391.729980	45.541473
397.728577	1317.426514	12368.834961	6344.643555	45.489376
398.089600	1319.080688	12297.267578	6313.877930	45.497471
398.450592	1319.631958	12241.248047	6288.735352	45.497875
398.811584	1319.631958	12182.804688	6268.113770	45.552822
399.172546	1317.536865	12098.225586	6229.077148	45.558685
399.533447	1316.323853	12017.835938	6187.614746	45.519653
399.894318	1310.479492	11962.148438	6153.650879	45.468662
400.255127	1308.935791	11911.533203	6128.950195	45.460697
400.615936	1307.502197	11882.752930	6123.436523	45.539673
400.976685	1307.171387	11886.833008	6119.797852	45.489414
401.337433	1305.517212	11916.826172	6132.147949	45.485725
401.698151	1304.745483	11971.852539	6167.104492	45.582729
402.058807	1301.657715	12056.542969	6211.985352	45.656719
402.419434	1299.672729	12151.487305	6269.437500	45.796623
402.780060	1297.467285	12260.105469	6320.272949	45.817490
403.140594	1296.364624	12359.020508	6368.683105	45.850819
403.501129	1292.394775	12453.856445	6414.997559	45.895443
403.861633	1291.181763	12540.641602	6462.965820	45.973621
404.222076	1289.196777	12626.102539	6497.922852	45.944862
404.582550	1287.983765	12698.000000	6534.091309	45.978088
404.942932	1289.307007	12768.574219	6574.671875	46.042702
405.303284	1293.607666	12843.891602	6616.134766	46.081352
405.663605	1292.174316	12899.579102	6637.417480	46.050289
406.023895	1293.056396	12936.077148	6654.178711	46.045799
406.384125	1290.409912	12989.669922	6673.477051	46.012035
406.744354	1290.850952	13056.826172	6712.402344	46.078213
407.104553	1291.291992	13123.429688	6742.065430	46.067528
407.464691	1296.364624	13183.198242	6778.456055	46.119019
407.824829	1296.916016	13253.110352	6809.000977	46.102337
408.184906	1296.805664	13333.279297	6842.082520	46.070610
408.544922	1298.129028	13397.016602	6877.591309	46.115498
408.904938	1299.562500	13444.985352	6897.110352	46.087715
409.264923	1300.224121	13466.709961	6896.448730	45.997047
409.624847	1298.239258	13452.485352	6886.744141	45.979855
409.984802	1301.437256	13428.113281	6869.541504	45.916164
410.344666	1303.091187	13393.708008	6851.788086	45.892586
410.704529	1305.076050	13355.223633	6826.535645	45.820679
411.064331	1307.612305	13323.023438	6821.903809	45.893490
411.424133	1306.399414	13317.508789	6811.097656	45.830055
411.783875	1306.509644	13312.107422	6811.869629	45.856609
412.143555	1310.369263	13321.479492	6814.515625	45.825459
412.503235	1308.274048	13338.792969	6818.925781	45.805607
412.862885	1304.635010	13348.716797	6827.416504	45.854729
413.222473	1305.406860	13404.625000	6854.213379	45.860870
413.582062	1303.642578	13483.800781	6884.538086	45.819565
413.941559	1302.870605	13553.383789	6919.494141	45.848064
414.301086	1304.855591	13638.513672	6943.202148	45.715118
414.660522	1306.399414	13709.198242	6981.577148	45.757233
415.019958	1303.863037	13795.209961	7013.116211	45.705666
415.379364	1302.429688	13906.364258	7061.415039	45.691963
415.738708	1300.555054	14027.223633	7110.156250	45.649033
416.098053	1300.996216	14169.366211	7156.250000	45.501129
416.457336	1300.996094	14353.409180	7237.741699	45.483894
416.816559	1302.870728	14553.443359	7331.143066	45.494431
417.175812	1306.840454	14794.830078	7437.997070	45.456417
417.535004	1302.319336	15084.958008	7571.096191	45.483139
417.894135	1306.289063	15413.351563	7725.366699	45.502583
418.253265	1303.091187	15806.914063	7911.286621	45.561749
418.612335	1300.775513	16211.945313	8090.811035	45.536572
418.971405	1302.870728	16630.541016	8291.176758	45.592751
419.330414	1304.304077	17066.005859	8490.548828	45.593075
419.689423	1303.642334	17500.701172	8692.568359	45.618935
420.048370	1306.178711	17901.873047	8894.036133	45.721840
420.407257	1306.619751	18312.748047	9070.471680	45.653259
420.766144	1307.281372	18696.716797	9256.170898	45.711029
421.125000	1310.479370	19089.509766	9429.519531	45.666382
421.483795	1311.692383	19479.652344	9617.644531	45.717579
421.842560	1309.817749	19892.181641	9814.039063	45.765018
422.201324	1305.627563	20295.669922	10007.347656	45.822536
422.560028	1306.730225	20666.406250	10180.695313	45.837364
422.918671	1310.259033	21005.935547	10341.363281	45.853233
423.277283	1307.281494	21295.291016	10469.388672	45.838017
423.635925	1306.950806	21519.697266	10590.357422	45.928474
423.994476	1306.178833	21684.664063	10674.164063	45.969982
424.353027	1301.437134	21815.447266	10731.837891	45.970535
424.711487	1299.562500	21918.664063	10779.695313	45.977428
425.069946	1303.422119	21966.853516	10795.685547	45.937500
425.428375	1300.003662	21932.335938	10775.725586	45.926567
425.786743	1302.980957	21839.044922	10729.853516	45.903992
426.145081	1302.650146	21688.634766	10653.324219	45.868149
426.503418	1303.201538	21511.423828	10554.850586	45.781609
426.861725	1303.642578	21295.402344	10450.974609	45.755512
427.219971	1305.958252	21063.716797	10338.827148	45.718090
427.578186	1305.737671	20870.742188	10236.164063	45.644901
427.936371	1306.509521	20683.941406	10144.636719	45.610416
428.294495	1304.524658	20465.931641	10038.334961	45.580215
428.652618	1305.406982	20213.738281	9942.397461	45.678223
429.010712	1308.604858	19949.083984	9824.185547	45.683273
429.368744	1307.502197	19655.095703	9694.835938	45.713535
429.726746	1309.266479	19377.318359	9550.047852	45.609680
430.084717	1308.163818	19099.431641	9427.204102	45.634972
430.442688	1307.060913	18835.882813	9300.501953	45.601700
430.800568	1309.376709	18608.390625	9200.924805	45.618484
431.158417	1306.840454	18434.820313	9119.653320	45.614326
431.516235	1306.068604	18281.431641	9037.279297	45.543713
431.874023	1311.692505	18144.582031	8980.599609	45.559067
432.231812	1313.567261	18015.671875	8929.101563	45.596252
432.589508	1312.574707	17917.308594	8889.404297	45.630539
432.947205	1313.015869	17823.136719	8844.302734	45.616184
433.304840	1313.015747	17743.410156	8802.620117	45.583839
433.662476	1316.213623	17696.322266	8786.080078	45.603275
434.020050	1314.890381	17657.066406	8774.942383	45.649075
434.377594	1312.795166	17623.541016	8758.182617	45.647133
434.735138	1308.825195	17599.613281	8745.389648	45.648891
435.092621	1308.935669	17586.931641	8731.605469	45.599407
435.450043	1307.612305	17582.742188	8728.408203	45.595924
435.807465	1309.707520	17606.451172	8738.001953	45.581463
436.164856	1308.053345	17642.402344	8743.845703	45.522430
436.522156	1303.973267	17711.433594	8769.208008	45.499027
436.879486	1305.737671	17791.822266	8809.789063	45.517487
437.236755	1306.840454	17887.759766	8855.772461	45.527824
437.593994	1306.730225	17994.613281	8901.424805	45.510231
437.951172	1304.635010	18134.107422	8969.242188	45.542767
438.308380	1308.053467	18255.406250	9024.598633	45.532448
438.665497	1306.840454	18378.800781	9080.837891	45.536640
439.022583	1309.266602	18541.562500	9157.036133	45.541054
439.379608	1306.399414	18692.748047	9223.420898	45.535851
439.736633	1303.973389	18803.460938	9262.789063	45.480274
440.093628	1303.311646	18901.603516	9303.147461	45.458027
440.450562	1302.098633	18996.988281	9343.286133	45.443554
440.807495	1300.003540	19074.402344	9386.404297	45.494652
441.164368	1297.687866	19164.937500	9428.748047	45.508179
441.521210	1294.820679	19226.908203	9457.749023	45.521347
441.878021	1295.813232	19294.947266	9494.800781	45.552120
442.234833	1294.820801	19409.521484	9545.525391	45.547012
442.591522	1293.056274	19506.119141	9584.121094	45.522625
442.948242	1294.379517	19605.806641	9641.352539	45.583408
443.304901	1289.748169	19723.906250	9694.835938	45.595181
443.661530	1290.961060	19876.414063	9761.661133	45.577045
444.018127	1295.372070	20038.294922	9822.862305	45.497124
444.374664	1293.717773	20193.007813	9888.915039	45.478947
444.731201	1294.710327	20324.121094	9951.549805	45.491898
445.087738	1294.159058	20459.091797	10010.435547	45.480335
445.444183	1294.048950	20529.777344	10042.304688	45.479202
445.800598	1288.535278	20607.960938	10089.389648	45.554432
446.156982	1294.710449	20632.111328	10111.885742	45.596489
446.513336	1294.379639	20623.511719	10108.466797	45.600014
446.869598	1296.143921	20639.279297	10110.231445	45.567009
447.225891	1296.254272	20655.710938	10112.657227	45.540550
447.582153	1298.569946	20644.904297	10107.584961	45.533249
447.938354	1298.900757	20658.910156	10124.236328	45.585388
448.294495	1300.113892	20673.464844	10123.575195	45.544319
448.650665	1300.775269	20647.441406	10109.019531	45.528484
449.006775	1304.304199	20650.308594	10101.520508	45.473045
449.362823	1304.634888	20653.947266	10106.152344	45.487495
449.718842	1306.068604	20646.886719	10105.931641	45.498920
450.074860	1303.201416	20633.435547	10108.468750	45.551788
450.430817	1299.121338	20615.460938	10089.612305	45.508057
450.786713	1303.091187	20522.720703	10050.354492	45.512135
451.142578	1302.429443	20414.103516	9996.432617	45.490536
451.498444	1299.672852	20259.611328	9930.598633	45.521912
451.854248	1298.790649	20091.447266	9851.091797	45.508739
452.210022	1296.364624	19887.664063	9754.933594	45.497463
452.565765	1297.687866	19641.093750	9653.704102	45.553246
452.921478	1298.790527	19413.382813	9556.995117	45.588692
453.277191	1300.665039	19194.601563	9449.919922	45.541988
453.632813	1293.717896	19016.619141	9356.409180	45.493069
453.988434	1291.953491	18836.214844	9268.301758	45.464142
454.343964	1291.512451	18654.484375	9190.557617	45.493622
454.699524	1291.512451	18502.417969	9124.284180	45.510513
455.054993	1289.858398	18362.921875	9057.679688	45.497528
455.410400	1292.946045	18256.728516	9001.000000	45.438293
455.765839	1292.505005	18209.533203	8972.217773	45.396351
456.121216	1291.843384	18214.494141	8975.635742	45.405373
456.476593	1290.850952	18258.162109	8996.037109	45.411945
456.831909	1292.505005	18381.447266	9036.066406	45.313290
457.187195	1290.299438	18541.011719	9098.590820	45.263588
457.542450	1292.725586	18748.433594	9177.104492	45.167915
457.897644	1294.049072	18936.558594	9269.623047	45.206573
458.252808	1294.710571	19188.201172	9375.486328	45.160423
458.607971	1291.733398	19381.619141	9465.247070	45.182781
458.963013	1290.079224	19505.677734	9515.862305	45.157909
459.318085	1288.755859	19596.982422	9552.033203	45.134232
459.673096	1285.116821	19666.013672	9583.129883	45.144768
460.028076	1286.440063	19745.630859	9606.395508	45.072155
460.383057	1284.786133	19806.941406	9626.797852	45.038017
460.737976	1287.983887	19834.839844	9633.193359	44.995277
461.092865	1292.725586	19855.791016	9633.303711	44.931038
461.447723	1296.916016	19856.453125	9637.604492	44.940174
461.802551	1298.239258	19856.453125	9628.010742	44.884552
462.157288	1297.467407	19858.546875	9629.885742	44.891880
462.512054	1300.224121	19875.419922	9635.289063	44.872017
462.866760	1298.349487	19855.460938	9624.260742	44.866417
463.221405	1300.224121	19807.162109	9607.720703	44.888550
463.576019	1303.091187	19712.216797	9564.492188	44.876663
463.930603	1302.539917	19614.736328	9522.148438	44.885975
464.285156	1299.121338	19475.904297	9459.513672	44.894592
464.639709	1298.128906	19264.953125	9363.907227	44.892620
464.994171	1297.908203	19023.126953	9249.554688	44.860638
465.348633	1296.584961	18747.886719	9119.653320	44.827995
465.703033	1295.923462	18464.816406	8995.487305	44.846012
466.057434	1298.790649	18214.716797	8881.134766	44.823704
466.411774	1299.562622	18037.949219	8799.091797	44.804375
466.766083	1301.106445	17885.222656	8731.494141	44.804241
467.120331	1305.737793	17779.470703	8681.208984	44.771099
467.474548	1301.106445	17689.046875	8633.460938	44.742378
467.828735	1303.752930	17619.908203	8598.284180	44.707417
468.182922	1304.083740	17569.181641	8574.354492	44.698597
468.537048	1303.752808	17523.308594	8554.726563	44.705132
468.891144	1301.878296	17492.320313	8547.228516	44.750786
469.245178	1301.878174	17462.218750	8538.516602	44.780235
469.599213	1302.539917	17443.248047	8527.378906	44.761597
469.953186	1298.680298	17429.464844	8521.644531	44.777515
470.307129	1296.805664	17448.871094	8518.226563	44.708961
470.661041	1296.364624	17470.375000	8526.276367	44.700798
471.014923	1294.159180	17540.398438	8544.912109	44.630348
471.368713	1291.402344	17554.513672	8533.114258	44.528454
471.722504	1291.733154	17527.056641	8524.512695	44.549648
472.076294	1294.159180	17506.875000	8519.661133	44.566883
472.429993	1294.820679	17450.636719	8501.686523	44.608490
472.783722	1298.680298	17445.673828	8494.740234	44.565945
473.137329	1298.900757	17468.169922	8490.329102	44.475899
473.490967	1297.136353	17501.912109	8490.107422	44.387974
473.844543	1299.893188	17586.824219	8514.809570	44.298809
474.198090	1304.304077	17671.072266	8544.141602	44.234985
474.551605	1302.319214	17800.201172	8591.007813	44.179539
474.905060	1308.384155	17940.027344	8655.516602	44.175625
475.258484	1308.935547	18086.910156	8720.246094	44.172855
475.611877	1306.178711	18251.660156	8793.467773	44.184578
475.965240	1308.273926	18447.281250	8872.422852	44.134113
476.318573	1309.266235	18634.302734	8953.914063	44.124859
476.671844	1309.597168	18851.650391	9041.470703	44.076218
477.025116	1311.912964	19080.025391	9142.260742	44.069664
477.378326	1311.582275	19312.589844	9241.173828	44.050823
477.731506	1315.882690	19547.250000	9343.728516	44.033154
478.084656	1316.323975	19827.232422	9452.016602	43.950802
478.437744	1317.867554	20118.792969	9570.559570	43.895138
478.790833	1320.844971	20460.417969	9724.940430	43.909527
479.143890	1321.506836	20876.585938	9892.995117	43.832542
479.496826	1319.191040	21361.125000	10101.630859	43.820320
479.849823	1318.308838	22011.734375	10390.766602	43.842224
480.202728	1315.441650	22825.765625	10722.685547	43.733624
480.555603	1315.110840	23823.623047	11162.673828	43.750393
480.908478	1315.441772	25161.562500	11743.700195	43.731468
481.261292	1316.985596	26807.597656	12504.029297	43.886917
481.614075	1312.574707	28644.851563	13420.064453	44.297409
481.966797	1312.464355	30482.433594	14356.608398	44.717720
482.319489	1309.045898	32214.595703	15206.369141	44.967079
482.672150	1305.296631	33764.917969	15946.079102	45.104599
483.024780	1306.730103	35107.265625	16544.197266	45.080547
483.377350	1302.870605	36224.988281	17043.402344	45.073246
483.729919	1298.018677	37244.351563	17480.964844	45.019745
484.082428	1299.011108	38192.691406	17891.398438	44.973522
484.434937	1295.702881	39178.636719	18318.707031	44.935814
484.787384	1295.151489	40234.167969	18793.650391	44.938213
485.139771	1292.725586	41388.390625	19312.041016	44.940811
485.492157	1292.835815	42569.632813	19832.306641	44.914993
485.844482	1293.387207	43648.093750	20326.990234	44.938580
486.196777	1294.710449	44636.695313	20768.302734	44.930088
486.549072	1296.033813	45404.960938	21132.751953	44.972118
486.901276	1296.695313	45975.839844	21376.673828	44.942619
487.253448	1298.239258	46288.355469	21501.394531	44.905766
487.605591	1302.208984	46303.132813	21522.785156	44.933693
487.957703	1299.672607	46083.031250	21427.287109	44.944408
488.309784	1299.562378	45554.933594	21213.689453	44.998215
488.661835	1296.033691	44797.800781	20845.490234	44.939457
489.013855	1298.349365	44004.054688	20377.822266	44.676636
489.365814	1299.231567	43266.445313	19919.089844	44.367626
489.717743	1303.532349	42634.578125	19536.773438	44.115120
490.069611	1305.186401	42050.355469	19221.505859	43.971645
490.421509	1304.965820	41502.742188	18977.250000	43.963341
490.773315	1302.981079	41014.894531	18745.125000	43.921692
491.125092	1306.619995	40491.542969	18512.009766	43.908192
491.476807	1304.524780	39882.945313	18252.978516	43.932468
491.828522	1307.612305	39140.375000	17918.302734	43.905575
492.180176	1309.707520	38236.800781	17508.859375	43.867931
492.531830	1309.156128	37205.195313	17041.083984	43.826363
492.883423	1306.178711	36045.132813	16527.214844	43.815472
493.234985	1304.745239	34956.851563	16029.334961	43.755329
493.586487	1304.965698	33935.281250	15573.797852	43.728756
493.937988	1305.296509	33071.078125	15175.382813	43.663609
494.289429	1307.391846	32372.283203	14870.148438	43.659439
494.640869	1306.950562	31790.261719	14612.772461	43.649532
494.992218	1303.752808	31337.705078	14416.377930	43.659336
495.343567	1308.053345	30892.642578	14217.776367	43.636646
495.694855	1309.266479	30385.390625	13987.304688	43.602917
496.046112	1310.589722	29761.578125	13717.579102	43.608288
496.397339	1310.479492	28948.871094	13359.747070	43.596127
496.748535	1314.008179	28032.728516	12953.281250	43.562241
497.099670	1311.030884	27087.691406	12555.858398	43.624065
497.450806	1309.817871	26246.529297	12175.859375	43.574474
497.801880	1306.840576	25569.789063	11846.254883	43.438305
498.152924	1311.582275	24976.521484	11590.864258	43.436756
498.503937	1313.897827	24514.037109	11392.262695	43.440971
498.854889	1314.449219	24176.052734	11235.123047	43.394478
499.205841	1312.243774	23892.431641	11119.336914	43.432293
499.556702	1311.140991	23686.552734	11025.715820	43.416298
499.907562	1307.943115	23485.634766	10941.908203	43.439892
500.258362	1310.148560	23315.595703	10874.310547	43.462704
500.609161	1309.707520	23158.457031	10805.169922	43.459984
500.959900	1308.494507	22990.400391	10731.619141	43.460777
501.310608	1307.171265	22819.037109	10646.928711	43.416775
501.661255	1307.171265	22611.285156	10552.867188	43.398643
502.011902	1309.266602	22391.291016	10468.618164	43.446262
502.362488	1311.913086	22170.857422	10371.798828	43.434055
502.713043	1309.487061	21960.457031	10283.029297	43.453365
503.063568	1309.817871	21776.964844	10192.826172	43.401302
503.414063	1310.369263	21571.416016	10094.683594	43.355679
503.764496	1309.487061	21409.425781	10026.536133	43.368534
504.114899	1307.722656	21250.632813	9962.026367	43.395390
504.465271	1306.950684	21128.449219	9888.364258	43.293468
504.815613	1310.699951	21029.423828	9839.624023	43.252918
505.165894	1314.559570	20931.613281	9812.497070	43.319130
505.516174	1314.890381	20892.464844	9792.536133	43.302841
505.866394	1313.125977	20881.437500	9781.068359	43.273750
506.216583	1311.802856	20873.714844	9766.953125	43.222515
506.566711	1311.802734	20907.458984	9770.702148	43.167217
506.916840	1310.810303	20949.033203	9780.075195	43.126431
507.266907	1311.251343	21002.847656	9802.349609	43.120419
507.616882	1312.464355	21083.457031	9823.632813	43.048763
507.966858	1310.589966	21133.298828	9842.489258	43.041035
508.316803	1311.251587	21188.214844	9862.227539	43.019527
508.666748	1311.030884	21251.291016	9889.245117	43.019569
509.016632	1309.707642	21313.376953	9914.607422	43.016605
509.366486	1309.046021	21402.917969	9953.313477	43.019424
509.716309	1306.840454	21490.474609	9982.426758	42.983269
510.066040	1308.715088	21588.066406	10013.964844	42.926670
510.415771	1308.935669	21689.849609	10070.754883	42.990314
510.765503	1303.863037	21797.253906	10118.723633	43.013187
511.115173	1302.870483	21897.271484	10153.459961	42.975712
511.464752	1302.650024	21996.625000	10187.534180	42.934643
511.814270	1304.965820	22078.666016	10227.341797	42.950348
512.163818	1302.980835	22163.134766	10252.153320	42.900799
512.513306	1300.444580	22225.990234	10273.435547	42.880562
512.862793	1297.797974	22280.796875	10281.926758	42.816231
513.212219	1294.931030	22320.494141	10299.680664	42.827629
513.561646	1295.482178	22372.982422	10321.513672	42.823063
513.911011	1294.710449	22402.203125	10343.238281	42.868793
514.260315	1298.128906	22437.380859	10369.812500	42.913929
514.609558	1299.893188	22506.414063	10397.049805	42.897919
514.958801	1300.665283	22600.585938	10442.703125	42.920528
515.308044	1304.193970	22745.705078	10506.440430	42.917896
515.657227	1303.311890	22949.488281	10582.859375	42.869225
516.006348	1307.171387	23197.712891	10674.386719	42.791153
516.355408	1308.935669	23468.322266	10778.814453	42.735294
516.704529	1306.950684	23702.210938	10862.070313	42.665810
517.053467	1310.810181	23927.384766	10941.466797	42.582294
517.402466	1309.817627	24100.404297	11008.623047	42.556194
517.751404	1310.589600	24227.660156	11043.689453	42.470959
518.100281	1315.882813	24354.253906	11097.171875	42.456512
518.449219	1316.764893	24445.224609	11140.838867	42.476131
518.798035	1314.228638	24541.933594	11182.632813	42.485489
519.146851	1311.471924	24637.761719	11212.626953	42.446339
519.495544	1311.582275	24703.267578	11259.272461	42.526608
519.844299	1311.582031	24792.478516	11307.350586	42.569790
520.192932	1310.589600	24892.824219	11355.981445	42.597286
520.541626	1311.912964	24987.878906	11387.849609	42.557655
520.890198	1313.236084	25089.660156	11435.488281	42.572643
521.238770	1315.993042	25211.404297	11473.752930	42.509247
521.587280	1313.897827	25350.234375	11518.302734	42.454079
521.935791	1315.000488	25468.556641	11566.823242	42.444359
522.284180	1312.905273	25587.652344	11608.617188	42.413261
522.632629	1310.810181	25735.308594	11661.106445	42.376698
522.981018	1313.346436	25881.085938	11727.268555	42.388603
523.329346	1309.376709	26049.583984	11813.283203	42.456825
523.677551	1312.795288	26239.253906	11897.751953	42.464745
524.025818	1310.810303	26502.146484	11999.753906	42.431030
524.374023	1305.848267	26813.333984	12139.579102	42.472748
524.722229	1304.304443	27208.441406	12305.759766	42.469879
525.070374	1302.760376	27733.115234	12526.303711	42.464592
525.418457	1301.878174	28432.574219	12821.172852	42.458530
525.766541	1303.532227	29419.845703	13248.369141	42.483654
526.114563	1305.406860	30673.535156	13796.091797	42.531429
526.462585	1304.414429	32059.880859	14424.537109	42.659481
526.810547	1302.319214	33429.792969	15045.923828	42.778355
527.158447	1303.311523	34649.191406	15586.369141	42.833054
527.506348	1306.509521	35670.535156	16053.483398	42.913986
527.854065	1305.406860	36507.835938	16418.154297	42.930977
528.201904	1305.296631	37179.289063	16711.039063	42.944042
528.549622	1304.965820	37700.105469	16939.523438	42.957817
528.897339	1304.965820	38087.820313	17094.789063	42.927128
529.245056	1305.848022	38392.945313	17217.191406	42.902637
529.592712	1304.965942	38621.097656	17327.683594	42.937778
529.940369	1302.209106	38808.785156	17409.177734	42.944389
530.287903	1298.239258	39002.093750	17496.843750	42.962727
530.635437	1300.003662	39242.042969	17593.000000	42.941803
530.982910	1296.254272	39534.929688	17720.144531	42.950993
531.330383	1298.349487	39778.742188	17830.636719	42.962883
531.677795	1296.364624	39893.535156	17878.054688	42.960892
532.025208	1296.805664	39896.734375	17885.220703	42.975243
532.372498	1296.144043	39700.453125	17810.455078	43.001194
532.719788	1294.379639	39259.023438	17632.697266	43.035614
533.067078	1295.261841	38522.738281	17306.951172	43.010406
533.414307	1297.577637	37499.183594	16863.765625	42.998611
533.761536	1299.782959	36364.812500	16339.750000	42.891640
534.108643	1298.790649	35301.566406	15826.210938	42.724216
534.455811	1298.349487	34402.292969	15402.875000	42.606781
534.802856	1298.459717	33658.390625	15052.539063	42.503426
535.149902	1300.996094	33076.042969	14790.420898	42.452888
535.496887	1300.665161	32572.203125	14571.307617	42.436810
535.843811	1298.790527	32153.277344	14373.039063	42.373898
536.190796	1300.113892	31807.683594	14231.117188	42.386211
536.537659	1300.885742	31473.228516	14090.300781	42.387875
536.884460	1301.216553	31187.402344	13946.064453	42.310009
537.231323	1303.973267	30885.589844	13807.120117	42.266609
537.578064	1306.950806	30573.738281	13650.312500	42.175320
537.924805	1308.274048	30209.177734	13492.843750	42.159821
538.271423	1307.502197	29892.691406	13334.604492	42.074593
538.618164	1308.935547	29722.433594	13247.818359	42.018349
538.964783	1312.795288	29751.984375	13270.754883	42.047470
539.311279	1312.354126	29938.345703	13332.949219	41.991890
539.657776	1313.787720	30217.447266	13441.898438	41.960464
540.004333	1312.023193	30474.714844	13540.702148	41.932613
540.350769	1311.030762	30722.937500	13636.198242	41.905369
540.697144	1310.920410	30910.619141	13706.551758	41.877556
541.043518	1307.501953	31016.039063	13746.801758	41.871128
541.389893	1307.832764	30991.449219	13743.934570	41.895504
541.736145	1312.243652	30870.919922	13701.039063	41.912552
542.082458	1311.030762	30728.115234	13642.261719	41.918602
542.428711	1313.677490	30558.958984	13576.429688	41.930702
542.774902	1311.030884	30414.613281	13497.804688	41.873791
543.121033	1314.559570	30309.851563	13451.821289	41.859421
543.467102	1315.772705	30228.580078	13414.880859	41.846882
543.813171	1314.449341	30173.115234	13391.613281	41.849350
544.159180	1314.118530	30124.265625	13376.727539	41.869308
544.505127	1316.103394	30064.390625	13367.354492	41.919891
544.851135	1315.882813	29946.505859	13336.257813	41.984329
545.197021	1314.228760	29733.347656	13244.620117	41.980160
545.542908	1312.574585	29327.765625	13089.906250	42.039093
545.888733	1313.125977	28734.279297	12849.843750	42.072330
546.234558	1312.574585	27955.421875	12518.474609	42.059696
546.580322	1314.449219	27086.472656	12162.955078	42.094116
546.926025	1314.449219	26190.398438	11775.458008	42.052704
547.271667	1315.331421	25366.664063	11421.373047	42.018639
547.617371	1312.464233	24569.062500	11089.563477	42.040112
547.962952	1309.376709	23836.634766	10778.923828	42.035950
548.308533	1316.875244	23176.984375	10503.352539	42.023933
548.654053	1318.749878	22597.058594	10255.681641	42.000198
548.999573	1316.985596	22105.242188	10041.421875	41.968102
549.344971	1317.426514	21676.394531	9848.885742	41.905163
549.690430	1313.456787	21303.451172	9691.858398	41.912975
550.035767	1313.897827	20995.458984	9564.933594	41.922672
550.381104	1314.338867	20720.439453	9454.771484	41.947800
550.726440	1308.715088	20440.898438	9329.060547	41.920704
551.071655	1308.053345	20193.007813	9212.723633	41.856972
551.416931	1305.737671	19905.525391	9087.784180	41.839439
551.762085	1305.958130	19601.064453	8940.460938	41.729755
552.107178	1303.752686	19293.402344	8801.517578	41.678211
552.452332	1302.539795	18985.742188	8666.543945	41.644062
552.797424	1304.304077	18713.041016	8546.456055	41.600674
553.142395	1299.011108	18451.914063	8436.625977	41.611702
553.487366	1300.113770	18255.408203	8348.738281	41.571819
553.832336	1301.106323	18065.296875	8262.284180	41.524090
554.177185	1299.782959	17916.652344	8201.745117	41.535873
554.522095	1301.326782	17807.810547	8143.520020	41.451550
554.866943	1304.745361	17704.042969	8099.961914	41.436024
555.211731	1306.068604	17624.757813	8055.411621	41.359589
555.556396	1300.885742	17547.566406	8023.652344	41.379322
555.901123	1302.760376	17476.771484	7998.069824	41.395481
556.245789	1303.201538	17389.656250	7966.311523	41.420624
556.590454	1305.406860	17291.294922	7931.907227	41.452190
556.934998	1303.642700	17206.494141	7888.128906	41.404438
557.279541	1307.722656	17093.353516	7841.704102	41.391956
557.624023	1306.620117	16953.750000	7785.685059	41.407372
557.968567	1311.361694	16822.525391	7733.085449	41.400654
558.312988	1313.567017	16687.994141	7683.462891	41.431763
558.657349	1316.213745	16581.359375	7638.913574	41.419189
559.001770	1315.000732	16496.228516	7614.984375	41.498512
559.346069	1317.757568	16420.470703	7582.563965	41.481335
559.690308	1318.970459	16366.767578	7556.980469	41.454639
560.034485	1318.529541	16310.417969	7527.207031	41.413578
560.378723	1321.727173	16279.982422	7504.822266	41.335670
560.722900	1318.970459	16237.306641	7483.759766	41.323570
561.067017	1315.662354	16214.701172	7477.032715	41.354145
561.411072	1315.110962	16186.361328	7467.880371	41.373589
561.755127	1317.206055	16158.242188	7461.042969	41.397629
562.099182	1316.213745	16149.860352	7464.352051	41.447247
562.443115	1316.103394	16154.382813	7474.828125	41.505653
562.787048	1318.198486	16166.845703	7486.295898	41.539795
563.130920	1317.536865	16204.117188	7494.676270	41.494686
563.474792	1314.559570	16275.242188	7519.045898	41.471947
563.818604	1309.817749	16366.658203	7560.399414	41.513233
564.162354	1314.890259	16455.423828	7603.957031	41.537949
564.506042	1312.133545	16567.021484	7637.920898	41.467281
564.849731	1311.582153	16664.722656	7664.276855	41.377167
565.193420	1309.376709	16735.189453	7701.217285	41.436008
565.537048	1304.304077	16789.001953	7717.647461	41.417297
565.880615	1304.965820	16818.666016	7732.974609	41.434402
566.224121	1303.201416	16827.597656	7735.071289	41.430725
566.567627	1303.642578	16828.146484	7741.797852	41.470924
566.911072	1306.509766	16823.736328	7758.448730	41.579201
567.254517	1305.848022	16856.265625	7783.149414	41.653549
567.597839	1307.612305	16881.408203	7797.043945	41.668915
567.941223	1305.847900	16914.271484	7813.585449	41.693752
568.284485	1305.186401	16938.753906	7831.229004	41.743782
568.627808	1306.289063	17000.615234	7858.135254	41.746590
568.970947	1304.855591	17070.197266	7883.387695	41.727814
569.314148	1310.589600	17146.837891	7906.213379	41.648907
569.657288	1314.449341	17232.078125	7936.317871	41.600849
570.000366	1315.772461	17313.900391	7970.171875	41.594864
570.343445	1316.213745	17378.958984	7994.321289	41.575130
570.686462	1319.301392	17399.359375	8009.648926	41.606491
571.029419	1319.521851	17410.937500	8004.467285	41.543549
571.372314	1314.559570	17389.546875	7985.058594	41.496140
571.715210	1314.780029	17336.173828	7976.898926	41.582645
572.058105	1315.441650	17284.566406	7965.319824	41.642094
572.400879	1318.308716	17266.921875	7959.585449	41.641720
572.743713	1316.985474	17250.712891	7961.239746	41.699310
573.086426	1315.882813	17256.779297	7966.092285	41.717915
573.429077	1315.993042	17280.599609	7965.099609	41.649048
573.771790	1313.456787	17288.978516	7964.548340	41.633018
574.114441	1308.825317	17280.158203	7948.889648	41.574890
574.457031	1309.376709	17246.634766	7919.666504	41.476959
574.799561	1306.399414	17192.378906	7907.757324	41.554615
575.142029	1312.684937	17144.080078	7881.732910	41.493801
575.484436	1316.103271	17057.294922	7832.441406	41.396725
575.826904	1311.471802	16940.076172	7773.887695	41.349922
576.169250	1314.890381	16794.847656	7714.450195	41.340939
576.511597	1309.266357	16627.013672	7645.528809	41.365501
576.853943	1303.863037	16422.126953	7557.421875	41.364265
577.196167	1302.980835	16207.315430	7462.145996	41.324654
577.538391	1300.885742	15981.145508	7374.038574	41.369518
577.880554	1295.923462	15774.605469	7282.511719	41.347607
578.222717	1297.798096	15546.340820	7183.376465	41.306526
578.564819	1298.459717	15335.276367	7099.128906	41.324677
578.906860	1297.798096	15149.357422	7016.204590	41.283482
579.248901	1294.489990	14957.482422	6935.815430	41.289089
579.590942	1292.505005	14756.014648	6840.869629	41.210388
579.932861	1296.474854	14573.073242	6754.857910	41.112812
580.274780	1295.813232	14376.127930	6669.617676	41.083145
580.616638	1297.577515	14177.304688	6592.537109	41.110802
580.958496	1300.665161	13971.095703	6507.295410	41.092766
581.300232	1301.988525	13802.267578	6431.207520	41.032833
581.641968	1302.760376	13638.404297	6367.580566	41.058418
581.983704	1300.885620	13495.599609	6300.645020	40.999397
582.325317	1296.915771	13360.736328	6236.135254	40.942417
582.666992	1296.474731	13243.408203	6192.577148	40.982086
583.008606	1298.018555	13132.584961	6153.871094	41.031097
583.350098	1295.482300	13037.419922	6120.238281	41.089947
583.691589	1294.710449	12956.919922	6093.552734	41.148655
584.033081	1295.813232	12896.602539	6070.064941	41.154545
584.374512	1293.276978	12835.179688	6040.952148	41.134254
584.715881	1293.607666	12787.429688	6016.141113	41.087578
585.057190	1291.512451	12741.335938	5989.455078	41.030697
585.398499	1289.086548	12694.800781	5976.332520	41.095596
585.739807	1291.071655	12657.087891	5960.233398	41.080017
586.081055	1291.622803	12628.416992	5949.867676	41.089615
586.422180	1291.622803	12602.281250	5953.065430	41.212830
586.763367	1289.637939	12593.017578	5948.985840	41.220837
587.104431	1289.196777	12593.017578	5940.495117	41.148022
587.445496	1290.189331	12597.098633	5941.817871	41.139698
587.786499	1287.211914	12592.797852	5938.289551	41.139641
588.127502	1283.021484	12621.468750	5947.662598	41.140034
588.468445	1284.234619	12627.754883	5954.388672	41.170238
588.809326	1284.124390	12634.040039	5962.549316	41.219906
589.150208	1287.322266	12639.332031	5954.719727	41.115166
589.491028	1290.740723	12626.099609	5964.203613	41.229065
589.831848	1290.299683	12624.998047	5961.446289	41.211037
590.172546	1291.291992	12613.971680	5960.343262	41.236275
590.513245	1289.307251	12605.810547	5955.491699	41.233452
590.853943	1289.307251	12610.994141	5945.236816	41.123993
591.194458	1290.189331	12623.235352	5940.604980	41.034119
591.535095	1288.645508	12624.227539	5940.163574	41.034664
591.875610	1289.527588	12644.406250	5945.457031	41.003780
592.216125	1291.622803	12648.376953	5953.947266	41.053318
592.556580	1291.071411	12667.343750	5968.614258	41.116657
592.897034	1287.763184	12700.867188	5980.522949	41.117298
593.237366	1287.652954	12718.510742	5995.630371	41.186565
593.577698	1288.535156	12771.110352	6000.482910	41.035637
593.918030	1289.307007	12819.409180	6029.374023	41.110363
594.258301	1292.284302	12873.332031	6063.007813	41.194233
594.598511	1292.063843	12952.838867	6100.390625	41.235050
594.938721	1294.379639	13037.417969	6137.442383	41.241989
595.278809	1299.231567	13118.026367	6172.508789	41.233284
595.618958	1298.790527	13172.391602	6196.327148	41.247272
595.958984	1299.011108	13228.298828	6205.700195	41.131447
596.299011	1302.098633	13252.007813	6223.454590	41.183208
596.638977	1299.011108	13278.141602	6222.461914	41.100231
596.978943	1297.908447	13289.832031	6227.313477	41.106041
597.318848	1300.665161	13285.533203	6228.857422	41.120121
597.658630	1300.113770	13271.526367	6217.168945	41.073311
597.998474	1298.128662	13238.885742	6196.326660	41.020836
598.338257	1297.356934	13184.189453	6183.755371	41.107658
598.677979	1298.680298	13151.439453	6175.154297	41.142101
599.017700	1297.026245	13096.192383	6149.681641	41.127106
599.357361	1300.444580	13052.415039	6126.745117	41.068012
599.696960	1305.737671	13013.156250	6100.169434	40.952080
600.036560	1307.171265	12965.298828	6076.460938	40.909565
600.376038	1303.973389	12926.591797	6048.121094	40.818233
600.715576	1303.422119	12884.029297	6031.359375	40.826336
601.055054	1302.870850	12840.801758	6015.259766	40.842583
601.394409	1301.878174	12806.395508	5997.836914	40.818390
601.733826	1303.752930	12760.414063	5976.664551	40.787727
602.073120	1301.878296	12756.113281	5973.246094	40.782887
602.412415	1297.577515	12743.873047	5975.341309	40.867050
602.751587	1296.915894	12771.220703	5987.802246	40.881660
603.090820	1298.459839	12801.544922	6010.738281	40.965343
603.429993	1293.166748	12848.080078	6027.389648	40.971512
603.769104	1292.063965	12883.807617	6044.812012	41.001148
604.108154	1293.828369	12909.392578	6058.816895	41.022442
604.447205	1296.144165	12946.553711	6067.969727	40.958439
604.786194	1298.349487	12976.877930	6077.342773	40.921192
605.125183	1302.319336	13007.534180	6096.640137	40.958843
605.464111	1300.665039	13028.486328	6113.512207	41.037861
605.802979	1299.562378	13050.870117	6111.196289	40.945518
606.141846	1300.113770	13074.911133	6128.950684	41.009937
606.480652	1297.908325	13114.829102	6144.057129	41.010250
606.819336	1295.702881	13167.648438	6164.899414	41.014309
607.158020	1295.261719	13228.960938	6186.402344	40.985954
607.496765	1300.003296	13292.807617	6204.266602	40.893379
607.835388	1301.216431	13331.182617	6224.115723	40.921974
608.173950	1305.076050	13348.386719	6229.408691	40.888531
608.512512	1303.201416	13325.559570	6225.328613	40.941444
608.851013	1301.216431	13280.789063	6204.045898	40.926582
609.189514	1304.965820	13184.080078	6166.883789	40.928288
609.527893	1305.186279	13073.698242	6119.577148	40.909088
609.866333	1304.414673	12945.449219	6057.273438	40.828495
610.204712	1303.091309	12806.505859	5991.881836	40.759991
610.542969	1304.304321	12678.920898	5940.164063	40.756187
610.881226	1305.627563	12564.238281	5891.423340	40.731457
611.219482	1303.532349	12470.395508	5846.322266	40.680984
611.557678	1301.547363	12383.722656	5808.057617	40.664490
611.895813	1299.011108	12310.279297	5779.606934	40.691002
612.233948	1298.018555	12237.611328	5746.415039	40.663273
612.571960	1302.098633	12167.256836	5713.333496	40.599823
612.910034	1306.619873	12098.998047	5683.229004	40.552780
613.247986	1306.730103	12027.210938	5651.911621	40.531593
613.585938	1308.935547	11942.411133	5612.323730	40.470192
613.923828	1305.737671	11822.654297	5567.663574	40.524479
614.261658	1308.715088	11693.414063	5524.877441	40.599751
614.599487	1306.730103	11548.295898	5473.380371	40.683727
614.937317	1307.943115	11424.239258	5415.597656	40.604332
615.275024	1307.612305	11309.556641	5366.194824	40.577934
615.612732	1306.399414	11213.178711	5317.013672	40.483532
615.950378	1305.627441	11119.227539	5283.600586	40.535313
616.288025	1302.429443	11032.443359	5247.982422	40.550335
616.625549	1303.421997	10971.901367	5213.908691	40.445728
616.963074	1304.414307	10919.523438	5199.352539	40.508518
617.300537	1305.517212	10871.445313	5184.686035	40.551937
617.638000	1305.296631	10823.035156	5172.225098	40.628651
617.975464	1309.266357	10790.614258	5158.441406	40.597340
618.312744	1310.369141	10753.563477	5148.736816	40.646919
618.650024	1309.486938	10720.259766	5132.196289	40.620571
618.987305	1308.274048	10683.428711	5121.499512	40.673737
619.324585	1305.958374	10658.507813	5117.750977	40.756718
619.661743	1302.429565	10644.723633	5112.678223	40.784935
619.998901	1299.783081	10616.824219	5107.605957	40.869442
620.336060	1298.018799	10589.255859	5093.600586	40.851200
620.673096	1295.151611	10567.752930	5087.977539	40.903580
621.010193	1298.459717	10548.125000	5081.030273	40.894135
621.347168	1296.254272	10527.833984	5073.752441	40.919300
621.684082	1297.908447	10493.208984	5068.790039	41.008789
622.020996	1297.356934	10457.591797	5064.930664	41.129665
622.357849	1298.128906	10433.993164	5045.853027	41.022110
622.694641	1299.562500	10412.929688	5040.119141	41.044727
623.031433	1303.863037	10391.095703	5025.231934	40.951618
623.368164	1305.296631	10386.905273	5023.577148	40.942974
623.704895	1306.619873	10376.759766	5028.871094	41.038521
624.041504	1307.832886	10383.927734	5020.380371	40.904678
624.378174	1305.737671	10402.343750	5036.369629	41.011250
624.714783	1311.692505	10445.901367	5040.339844	40.820694
625.051331	1308.715210	10478.101563	5051.145996	40.814404
625.387756	1309.156250	10514.711914	5057.101074	40.713943
625.724304	1309.486938	10534.119141	5067.356934	40.737347
626.060669	1310.589600	10552.314453	5073.863281	40.720470
626.397034	1310.369141	10560.364258	5073.643066	40.684063
626.733337	1310.369141	10564.333984	5075.737793	40.689247
627.069641	1307.502075	10570.950195	5082.133789	40.747589
627.405884	1309.486938	10560.474609	5081.141113	40.770290
627.742126	1308.935669	10550.439453	5079.155762	40.796608
628.078308	1308.053467	10538.639648	5073.421387	40.792297
628.414429	1304.524780	10513.057617	5055.446777	40.733109
628.750488	1304.414551	10493.319336	5041.772949	40.672516
629.086548	1301.767944	10460.126953	5028.430176	40.691372
629.422546	1299.121338	10419.546875	5018.946289	40.785648
629.758545	1297.798096	10365.293945	4997.332520	40.799957
630.094421	1294.710571	10318.648438	4973.514160	40.767166
630.430298	1293.497437	10264.283203	4947.599609	40.733353
630.766113	1293.276855	10200.986328	4910.548340	40.608326
631.101929	1292.615479	10124.567383	4884.633789	40.670719
631.437622	1293.166626	10043.185547	4846.259277	40.606689
631.773376	1288.865967	9950.115234	4815.493164	40.717304
632.109070	1292.725586	9856.714844	4784.065430	40.767681
632.444641	1292.946167	9763.423828	4755.835938	40.881870
632.780273	1293.387329	9687.446289	4728.488281	40.923004
633.115784	1294.489990	9618.195313	4699.927246	40.912518
633.451294	1297.246826	9549.165039	4673.352051	40.912975
633.786682	1299.121338	9481.458008	4646.996582	40.915882
634.122131	1302.650146	9403.604492	4617.443848	40.918560
634.457458	1301.106323	9351.556641	4589.875977	40.851994
634.792847	1303.311768	9290.575195	4562.528320	40.805172
635.128113	1303.201538	9227.279297	4540.915039	40.859184
635.463318	1304.414429	9176.002930	4520.735352	40.859871
635.798584	1300.775513	9127.813477	4498.018555	40.848698
636.133728	1301.657715	9074.221680	4476.957031	40.852661
636.468872	1304.965820	9012.358398	4462.180176	40.963455
636.803955	1305.737793	8963.067383	4441.449219	40.950455
637.139038	1303.201416	8913.554688	4429.429199	41.078613
637.473999	1305.406860	8849.266602	4412.336914	41.184887
637.808899	1305.958374	8783.101563	4394.252441	41.303127
638.143799	1307.391846	8715.173828	4374.182617	41.399582
638.478638	1309.156128	8654.302734	4345.952637	41.344257
638.813538	1309.156006	8589.573242	4317.833496	41.325619
639.148315	1305.516968	8517.233398	4289.713867	41.379841
639.483032	1306.509521	8454.048828	4255.750000	41.262321
639.817749	1303.421875	8386.782227	4225.645020	41.254757
640.152405	1302.098633	8323.044922	4202.929199	41.316803
640.487000	1301.547363	8252.250000	4176.243164	41.358349
640.821594	1301.326782	8187.410156	4146.027832	41.310871
641.156128	1299.121338	8138.338379	4119.893555	41.244083
641.490662	1297.687744	8078.791504	4101.809082	41.351990
641.825134	1298.569946	8018.140625	4079.644287	41.387676
642.159546	1298.459717	7977.560059	4058.251465	41.319813
642.493896	1302.760376	7925.291016	4034.762939	41.253147
642.828186	1301.216553	7883.938477	4016.679199	41.251366
643.162537	1299.562622	7849.974609	3993.963623	41.133305
643.496765	1293.718140	7814.246094	3970.916016	41.057991
643.830994	1292.505005	7780.061523	3963.307373	41.168076
644.165100	1293.387329	7751.059570	3944.781738	41.058052
644.499268	1292.615479	7734.409180	3928.681885	40.921310
644.833313	1291.071655	7720.955566	3913.243408	40.781013
645.167358	1288.535278	7705.075684	3904.531982	40.769581
645.501343	1287.652954	7682.139648	3899.790283	40.849834
645.835327	1287.873535	7662.069824	3890.747803	40.834549
646.169189	1289.638062	7648.727539	3879.720215	40.730392
646.503052	1289.417358	7636.818359	3872.001221	40.687267
646.836914	1293.387207	7626.342285	3868.362305	40.659931
647.170654	1295.041260	7611.676270	3860.533203	40.614853
647.504395	1296.584961	7607.376465	3857.997070	40.587811
647.838074	1296.695435	7601.641602	3855.460938	40.583466
648.171753	1299.562500	7598.995605	3854.358154	40.555962
648.505371	1300.665283	7600.097656	3849.505859	40.461430
648.838928	1301.988525	7603.184570	3850.608643	40.446606
649.172424	1304.635010	7610.131836	3848.623779	40.345570
649.505920	1302.870728	7606.382324	3851.711426	40.435253
649.839294	1308.274048	7598.001465	3851.601074	40.436207
650.172729	1310.920532	7596.127441	3858.768555	40.537220
650.506104	1314.890381	7600.207520	3861.415283	40.515453
650.839355	1317.536987	7584.989746	3853.806641	40.467312
651.172668	1318.308838	7565.913086	3856.122314	40.620586
651.505859	1316.875244	7542.977051	3851.821777	40.714828
651.839111	1319.080688	7527.979980	3850.057373	40.763691
652.172241	1321.175903	7515.959961	3840.353516	40.666111
652.505371	1319.521729	7502.616211	3830.208252	40.605663
652.838379	1320.845093	7475.930176	3821.937988	40.634579
653.171387	1319.632202	7461.924805	3816.644775	40.652782
653.504333	1318.088379	7438.988281	3814.328613	40.782242
653.837280	1318.970459	7418.918945	3806.609375	40.781311
654.170227	1319.080811	7399.731934	3796.464355	40.742077
654.503052	1315.662354	7379.772461	3789.627686	40.796841
654.835876	1315.441895	7365.657715	3780.695801	40.746544
655.168579	1312.243896	7348.234375	3779.372314	40.873631
655.501343	1312.574707	7332.906250	3782.570313	41.027569
655.833984	1310.920532	7323.863770	3778.380127	41.035801
656.166626	1312.464233	7319.673340	3778.270508	41.047451
656.499268	1313.456787	7342.720215	3790.290283	41.080200
656.831787	1312.684937	7376.904785	3802.199463	41.052513
657.164307	1311.912964	7422.889160	3810.138672	40.880959
657.496765	1311.140991	7469.424316	3823.922363	40.803276
657.829224	1311.361572	7518.275391	3840.242920	40.742973
658.161621	1315.110718	7566.463379	3856.122070	40.647385
658.493958	1317.095703	7605.831055	3869.354492	40.584610
658.826233	1310.920410	7635.494629	3882.697266	40.663242
659.158508	1310.479370	7661.739746	3895.709473	40.704205
659.490723	1311.140991	7680.155273	3903.979492	40.710201
659.822876	1310.479492	7699.012695	3908.280518	40.663498
660.154968	1306.399414	7700.555664	3912.802490	40.762268
660.487061	1307.943115	7699.343750	3919.859375	40.866104
660.819153	1303.642700	7693.719727	3919.859375	40.941864
661.151123	1305.406982	7679.934570	3918.316162	40.989849
661.483093	1308.935791	7668.576660	3915.338623	40.983494
661.815002	1310.479614	7652.807129	3909.162842	40.973648
662.146851	1312.354126	7623.915039	3892.070801	40.872879
662.478760	1314.008057	7595.354980	3874.868408	40.769287
662.810486	1311.802612	7558.523926	3861.635498	40.818741
663.142212	1309.597168	7505.482910	3845.755859	40.932949
663.473938	1306.730103	7453.654785	3815.210205	40.808697
663.805603	1306.840332	7388.263184	3787.642090	40.793114
664.137207	1307.060913	7295.854980	3756.104980	40.893776
664.468689	1306.730103	7208.187500	3728.205811	41.031822
664.800293	1304.965820	7131.107910	3696.998779	41.056892
665.131775	1304.083496	7048.623535	3663.145020	41.066151
665.463196	1302.539795	6980.255859	3633.261230	41.050335
665.794617	1304.965820	6923.795410	3604.811035	40.931038
666.125916	1309.156250	6865.902344	3578.014893	40.830708
666.457275	1308.715210	6822.564941	3558.275635	40.798367
666.788574	1305.627563	6776.801270	3547.469238	40.975517
667.119812	1306.730225	6747.910645	3532.031250	40.897392
667.450928	1307.612305	6727.731445	3514.497803	40.716549
667.782104	1311.582153	6713.063965	3507.108887	40.646751
668.113159	1308.384155	6691.230469	3492.994385	40.584671
668.444214	1304.414307	6669.286621	3479.099609	40.535641
668.775208	1303.311523	6650.980469	3476.674072	40.641308
669.106201	1304.414307	6636.645996	3474.247803	40.692787
669.437134	1303.311646	6629.367676	3465.315918	40.592972
669.768005	1302.870605	6622.200195	3463.000000	40.609055
670.098877	1300.444702	6610.951660	3456.935303	40.608002
670.429688	1303.201416	6591.874023	3450.539795	40.602592
670.760437	1299.893311	6567.504395	3446.128418	40.743992
671.091187	1298.349487	6559.564941	3440.173828	40.709686
671.421814	1296.033813	6542.692871	3426.941162	40.614555
671.752441	1295.261963	6521.189941	3415.583008	40.573105
672.083008	1292.946167	6507.185059	3404.776367	40.501217
672.413574	1293.607788	6493.731934	3402.681641	40.558144
672.744080	1296.033813	6466.936035	3392.315918	40.539970
673.074524	1293.828369	6440.581055	3387.905029	40.687336
673.404968	1297.467407	6416.541504	3376.105713	40.605743
673.735352	1301.437256	6396.582520	3368.386475	40.567032
674.065613	1303.752930	6375.410156	3356.587402	40.476601
674.395935	1302.429688	6351.700684	3344.126465	40.435478
674.726196	1301.657837	6320.494141	3333.209717	40.478542
675.056335	1304.414551	6304.504395	3333.319824	40.577377
675.386536	1304.745361	6292.815430	3328.578125	40.573460
675.716614	1306.840454	6281.346680	3321.851563	40.506756
676.046692	1308.274048	6279.913086	3316.448242	40.392597
676.376770	1310.259033	6268.334961	3323.505127	40.605389
676.706726	1312.023315	6257.638184	3318.102295	40.562782
677.036621	1310.038452	6262.820801	3316.558350	40.512985
677.366516	1310.258911	6260.616211	3326.482910	40.728859
677.696411	1314.338989	6274.068359	3333.099365	40.703033
678.026184	1313.787720	6291.381836	3341.149170	40.729744
678.355957	1312.464355	6305.166016	3346.773438	40.745655
678.685669	1312.464355	6330.639160	3361.880615	40.839874
679.015320	1309.817749	6346.187500	3370.371582	40.913471
679.344971	1306.730103	6362.838379	3377.980225	40.965302
679.674561	1305.406860	6371.991211	3394.852051	41.239719
680.004150	1301.547241	6394.928711	3402.460449	41.247906
680.333618	1299.231689	6410.145996	3410.730957	41.313534
680.663086	1299.672729	6424.701660	3409.076660	41.158867
680.992493	1298.680298	6430.987305	3414.921387	41.233723
681.321899	1298.569824	6429.002930	3421.206787	41.373447
681.651184	1298.128784	6429.994629	3420.324707	41.353298
681.980530	1296.585083	6419.849609	3418.119141	41.409809
682.309753	1295.372070	6412.682129	3410.841064	41.339474
682.638977	1290.850952	6387.650391	3398.490967	41.352230
682.968079	1288.314697	6361.735840	3395.072266	41.525387
683.297241	1288.976318	6340.563965	3383.604248	41.464745
683.626343	1288.865845	6318.619629	3369.158203	41.359726
683.955383	1293.056396	6279.803711	3358.682373	41.422314
684.284363	1294.048950	6252.235352	3343.905518	41.342865
684.613281	1292.284546	6209.890137	3323.174561	41.298351
684.942139	1296.144043	6166.111816	3305.972168	41.269844
685.271057	1299.231567	6128.619629	3291.526123	41.253559
685.599792	1301.657593	6088.370117	3273.441162	41.192856
685.928589	1305.737671	6056.721191	3261.862793	41.173058
686.257324	1310.810181	6019.118164	3239.257080	40.958385
686.585999	1310.699951	5994.527344	3218.636230	40.734558
686.914612	1310.810303	5948.323242	3192.832520	40.582577
687.243164	1310.369141	5912.043457	3177.835449	40.582321
687.571777	1307.281494	5879.072754	3161.625488	40.560558
687.900269	1308.825317	5843.344727	3148.392822	40.568081
688.228699	1309.707520	5811.365234	3129.867188	40.433098
688.557129	1305.186401	5783.466309	3116.524170	40.447178
688.885498	1306.950806	5757.552246	3097.006104	40.220524
689.213867	1310.920532	5727.668457	3085.868408	40.186760
689.542114	1311.140991	5706.827148	3077.708008	40.188652
689.870361	1310.369141	5686.095703	3066.570557	40.135082
690.198608	1305.737671	5651.470215	3053.227295	40.211624
690.526794	1305.296631	5620.042969	3040.766602	40.221832
690.854858	1302.870605	5598.098633	3030.621338	40.224888
691.182922	1300.775513	5560.605957	3015.183105	40.245911
691.510986	1300.224121	5533.919922	3005.479248	40.278168
691.838928	1297.908447	5499.404785	2987.946045	40.224663
692.166931	1297.687866	5463.015137	2969.199951	40.129192
692.494812	1296.695557	5415.708496	2950.784424	40.157410
692.822632	1295.702881	5372.591309	2930.714600	40.104401
693.150452	1293.056396	5328.923828	2920.459229	40.323494
693.478149	1296.144043	5291.430664	2907.557373	40.332859
693.805908	1294.379639	5266.067871	2898.404785	40.386482
694.133606	1294.710449	5228.244141	2887.818359	40.500679
694.461243	1296.585083	5198.580078	2879.878662	40.576515
694.788818	1295.261841	5180.605957	2867.969238	40.477943
695.116333	1293.938477	5170.019531	2860.911621	40.426739
695.443848	1295.261719	5164.505371	2857.272705	40.369930
695.771301	1292.284302	5178.620605	2870.946533	40.620834
696.098755	1289.748047	5203.322266	2885.612793	40.777679
696.426147	1293.166626	5236.514160	2901.382080	40.783001
696.753418	1293.717896	5275.661133	2922.444092	40.902798
697.080688	1297.687744	5332.451660	2938.213135	40.659763
697.407898	1298.569946	5386.485352	2959.716309	40.635536
697.735107	1301.768066	5424.308594	2978.462646	40.671391
698.062317	1303.201660	5465.219727	2991.144043	40.555862
698.389404	1306.289307	5499.735352	3003.825439	40.480694
698.716492	1305.407104	5531.273438	3015.293701	40.462395
699.043457	1303.863281	5551.122559	3026.872314	40.567551
699.370483	1305.406982	5568.545410	3036.135254	40.597511
699.697388	1309.597412	5572.294434	3035.473389	40.487885
700.024292	1313.677490	5568.766113	3035.804199	40.472168
700.351135	1314.008423	5560.936523	3033.378418	40.485027
700.677917	1318.860352	5549.137695	3036.245605	40.597462
701.004639	1319.191162	5533.699219	3029.739502	40.587143
701.331299	1319.963013	5514.731934	3016.065674	40.433754
701.658020	1321.286133	5491.244629	3003.715332	40.346424
701.984619	1319.963013	5453.972168	2998.642578	40.606575
702.311218	1319.742432	5411.186523	2983.094238	40.654392
702.637756	1319.191040	5359.027344	2957.069824	40.543194
702.964233	1319.411621	5287.901855	2925.973145	40.482941
703.290649	1316.213867	5216.665527	2891.457764	40.386192
703.617065	1319.080933	5132.086914	2847.679688	40.089073
703.943481	1320.624756	5047.287109	2812.502686	40.032551
704.269775	1320.735107	4959.289551	2778.759277	40.071522
704.596008	1319.522095	4881.105957	2747.993164	40.107746
704.922241	1317.095947	4814.500977	2720.865967	40.137474
705.248474	1316.323975	4747.565430	2692.194824	40.098339
705.574585	1315.882935	4687.687500	2671.905029	40.216507
705.900696	1316.103271	4637.072266	2651.725098	40.217834
706.226746	1314.559570	4597.925781	2631.986328	40.124271
706.552734	1311.692505	4570.799316	2621.289551	40.182697
706.878723	1306.068604	4551.612305	2603.756592	39.983685
707.204651	1302.649902	4529.888672	2593.721680	40.005463
707.530518	1301.547363	4516.986328	2579.055176	39.730434
707.856323	1302.098633	4510.700684	2576.849609	39.729172
708.182068	1301.988403	4514.008789	2581.370850	39.831081
708.507813	1299.341797	4509.597656	2585.561279	40.065948
708.833496	1301.106201	4522.278809	2581.701904	39.755577
709.159180	1301.878052	4538.268066	2582.143066	39.558426
709.484802	1303.091187	4550.949219	2582.804688	39.401772
709.810303	1303.752563	4569.696289	2589.200439	39.359154
710.135864	1306.178711	4579.620117	2596.037354	39.403748
710.461304	1306.288818	4591.309570	2601.771484	39.436058
710.786743	1305.627319	4600.352051	2604.418213	39.420319
711.112122	1305.847900	4608.181152	2610.924072	39.519821
711.437500	1305.406860	4615.128418	2605.300049	39.275002
711.762817	1308.825195	4614.136230	2604.087158	39.187294
712.088013	1307.171143	4618.546875	2605.189697	39.198769
712.413269	1309.266357	4613.364258	2609.821289	39.361877
712.738403	1312.133423	4616.562012	2612.467773	39.351261
713.063538	1313.125977	4610.276855	2609.821533	39.327759
713.388611	1312.243652	4604.983398	2611.365234	39.454124
713.713623	1309.817749	4597.154297	2612.247559	39.619610
714.038574	1312.243652	4596.713379	2612.468262	39.587048
714.363525	1310.258789	4590.096680	2612.137451	39.693386
714.688477	1305.847900	4579.951660	2604.749268	39.671967
715.013306	1306.730103	4555.581543	2595.155518	39.657871
715.338135	1307.391724	4534.299316	2589.200928	39.722523
715.662842	1306.068604	4507.282227	2582.253418	39.865658
715.987549	1306.950684	4475.633789	2574.975342	40.017403
716.312195	1308.274048	4442.441406	2560.419189	39.951443
716.636841	1303.863037	4403.735840	2544.650635	40.027050
716.961426	1300.003540	4372.087891	2527.999268	39.972721
717.285950	1297.687744	4341.210938	2512.230225	39.905807
717.610474	1293.497437	4300.630371	2496.240723	39.996346
717.934937	1293.056396	4265.012695	2479.589600	39.924316
718.259277	1292.615234	4230.827637	2471.539551	40.123863
718.583679	1291.291992	4202.046875	2459.520020	40.134880
718.908020	1288.535156	4169.406738	2446.838623	40.206703
719.232239	1286.881104	4142.720703	2426.548584	39.906567
719.556519	1287.542725	4115.262695	2408.684082	39.648247
719.880737	1287.322144	4084.717285	2396.774658	39.660202
720.204834	1284.344727	4055.274902	2378.579834	39.489811
720.528931	1288.755615	4025.060303	2367.993408	39.441433
720.852966	1286.440063	3988.890625	2348.806152	39.311211
721.176941	1288.424805	3950.295410	2331.162598	39.173122
721.500916	1289.307129	3919.970703	2317.819580	39.097073
721.824829	1284.675537	3898.798096	2308.226074	39.154652
722.148743	1284.785767	3867.370117	2293.669922	39.064903
722.472534	1288.535034	3844.874268	2280.106445	38.788723
722.796326	1289.417236	3823.701660	2266.542725	38.556267
723.119995	1288.424805	3799.882813	2262.683105	38.792538
723.443665	1293.056396	3787.201172	2258.823730	38.721382
723.767334	1294.820801	3769.006348	2254.522705	38.788597
724.090942	1294.600220	3758.751221	2253.861328	38.928669
724.414551	1299.231689	3752.686035	2253.640869	38.900631
724.737976	1300.223999	3747.503418	2252.979248	38.931202
725.061462	1302.539795	3747.393555	2246.252441	38.599964
725.384888	1302.870728	3747.834717	2246.252686	38.584698
725.708252	1303.311768	3747.503662	2247.575928	38.632980
726.031616	1303.863159	3752.465820	2252.868896	38.757034
726.354858	1302.981079	3753.017090	2257.059326	38.941395
726.678162	1301.878296	3762.721436	2259.595703	38.918262
727.001404	1305.517334	3766.580811	2264.447754	38.964066
727.324463	1307.281860	3771.102051	2268.307373	39.005505
727.647583	1309.928345	3778.269775	2275.585205	39.121693
727.970642	1306.179077	3790.069092	2281.098633	39.249706
728.293701	1308.715210	3792.384766	2286.171387	39.355324
728.616699	1309.707642	3797.126221	2292.677246	39.517662
728.939575	1309.928223	3815.431152	2298.411377	39.452484
729.262512	1305.958252	3825.686768	2303.925049	39.606125
729.585266	1305.627441	3834.950195	2312.636475	39.813385
729.908142	1304.193848	3854.909180	2318.260498	39.756168
730.230896	1302.098633	3868.252197	2317.157959	39.555672
730.553467	1304.193848	3887.329346	2322.230469	39.410889
730.876160	1301.106201	3901.333740	2323.333008	39.312977
731.198792	1296.695313	3912.360840	2326.972412	39.388718
731.521362	1294.159058	3927.357910	2332.265137	39.423763
731.843872	1293.056152	3925.152832	2337.007324	39.662342
732.166321	1289.968506	3925.152832	2338.881836	39.804173
732.488770	1291.732910	3926.476074	2337.558350	39.693638
732.811157	1289.196655	3919.639404	2333.809082	39.712418
733.133484	1288.755615	3912.250732	2329.618652	39.674671
733.455811	1290.299438	3894.386475	2327.743896	39.839088
733.778015	1290.961182	3877.845947	2321.237793	39.826923
734.100281	1289.527710	3869.685547	2316.826904	39.815365
734.422424	1286.660522	3857.666016	2308.115234	39.729778
734.744507	1290.189331	3842.668945	2305.799561	39.789162
735.066589	1288.645508	3832.192627	2295.764893	39.595074
735.388611	1291.512695	3820.062988	2279.554688	39.075432
735.710571	1290.630493	3804.293945	2270.623047	38.986622
736.032532	1292.505005	3794.038574	2262.242676	38.765724
736.354431	1292.284424	3781.467529	2259.154785	38.842876
736.676270	1293.276733	3765.367920	2253.530762	38.843792
736.998108	1298.900879	3751.914551	2253.420410	38.912117
737.319824	1297.687866	3736.807373	2248.788818	38.993618
737.641541	1301.547485	3717.729980	2242.503418	38.943909
737.963135	1302.209106	3696.888672	2235.997314	38.994286
738.284790	1303.311890	3671.305176	2226.183105	38.972713
738.606323	1303.532227	3660.498047	2217.912842	38.794819
738.927856	1305.517334	3650.022217	2210.965576	38.620018
739.249390	1307.391968	3639.436279	2201.592529	38.344063
739.570740	1311.913086	3628.740234	2195.416992	38.134216
739.892212	1310.810303	3617.933350	2189.241699	38.074753
740.213562	1308.604858	3610.214355	2182.735596	37.979111
740.534790	1310.479614	3603.818359	2179.979004	37.914127
740.856079	1306.730347	3588.931641	2175.788574	38.079826
741.177246	1304.304443	3578.455322	2172.590576	38.180676
741.498413	1306.399536	3569.964600	2170.936523	38.193604
741.819580	1307.943237	3562.245605	2172.149658	38.335873
742.140625	1309.707642	3551.989990	2175.457520	38.610210
742.461670	1307.722534	3536.992920	2172.700684	38.800949
742.782654	1306.950562	3515.489990	2170.274658	39.090271
743.103577	1309.155884	3498.728760	2158.144775	38.774181
743.424438	1309.707275	3477.335938	2149.322998	38.734299
743.745300	1305.847900	3448.003418	2136.531250	38.777920
744.066101	1304.745117	3421.758545	2123.739502	38.686310
744.386902	1303.421875	3399.924561	2117.233398	38.817577
744.707581	1302.649902	3381.399170	2112.050781	38.936916
745.028198	1302.429443	3367.504395	2107.309082	38.975807
745.348816	1299.562378	3355.815430	2101.244141	38.987507
745.669373	1297.357056	3337.620605	2098.156494	39.249805
745.989929	1295.261963	3316.558350	2095.730469	39.601738
746.310364	1293.497437	3301.892090	2090.768311	39.696922
746.630798	1294.159180	3289.431641	2087.019043	39.736923
746.951172	1290.409912	3286.343750	2079.961670	39.558014
747.271545	1286.109375	3276.529297	2076.212402	39.695293
747.591858	1290.299683	3275.537109	2069.375488	39.243458
747.912109	1295.261841	3266.936035	2069.926758	39.289703
748.232300	1291.512695	3258.555176	2067.831543	39.466297
748.552429	1294.159180	3245.542725	2060.443359	39.268764
748.872559	1289.637817	3235.066895	2055.811768	39.383289
749.192627	1293.387329	3235.287598	2052.283203	39.080063
749.512695	1293.166626	3236.941162	2047.431152	38.804115
749.832642	1293.938477	3234.956543	2044.343506	38.660385
750.152588	1295.592651	3234.625732	2042.248535	38.506607
750.472473	1295.592651	3243.116455	2045.446289	38.502926
750.792358	1297.246704	3246.204346	2041.476563	38.186047
751.112122	1298.570068	3241.242188	2039.160767	38.122269
751.431824	1300.775391	3249.181641	2033.536865	37.608250
751.751587	1300.334351	3246.093750	2027.582031	37.376034
752.071228	1299.452148	3243.447510	2025.817749	37.364574
752.390869	1300.665161	3240.911133	2022.068481	37.181023
752.710327	1303.752808	3238.595215	2023.943115	37.222168
753.029846	1303.201416	3238.595215	2025.155884	37.302715
753.349304	1304.524780	3236.610596	2022.399048	37.155403
753.668762	1305.186279	3230.545654	2018.098389	37.027481
753.988098	1304.965820	3223.157471	2016.665039	37.102612
754.307434	1304.193848	3213.674072	2016.665039	37.312309
754.626770	1303.862915	3210.917480	2012.143921	37.140049
754.946045	1302.760376	3209.262939	2006.189331	36.896301
755.265259	1299.011108	3208.050293	2003.653076	36.910816
755.584351	1300.885742	3207.277832	1999.242188	36.632362
755.903442	1299.562500	3202.756592	1997.367554	36.664944
756.222534	1298.459839	3192.391357	2001.557617	37.123718
756.541565	1296.033813	3191.288330	2000.675537	37.179268
756.860535	1295.813354	3191.178223	2003.211914	37.322552
757.179443	1294.820923	3185.995605	2002.440308	37.416924
757.498291	1297.467529	3183.789795	2006.079102	37.565773
757.817139	1300.665405	3188.752197	2004.534912	37.279510
758.135925	1302.540039	3184.892822	2007.622559	37.457512
758.454651	1301.657837	3183.569092	2009.827881	37.630363
758.773376	1305.958374	3179.820313	2005.637695	37.338894
759.092041	1306.178955	3185.002930	2004.534790	37.169838
759.410645	1302.540039	3189.193359	2004.093994	37.185101
759.729187	1301.547485	3180.482178	2001.116577	37.232220
760.047607	1301.768188	3185.223633	2005.196777	37.347771
760.366089	1305.406982	3187.319092	2010.600220	37.472168
760.684509	1305.186523	3201.543945	2014.569946	37.407684
761.002869	1305.627563	3227.237305	2020.414429	37.197296
761.321228	1304.193970	3265.833008	2036.845093	37.348927
761.639465	1306.840576	3313.470703	2057.355713	37.401768
761.957642	1306.730225	3365.739990	2082.277344	37.666023
762.275879	1304.965820	3409.297607	2105.765381	38.054813
762.593994	1303.752930	3447.561768	2125.614258	38.336502
762.912109	1302.539673	3483.180176	2134.105225	38.134003
763.230103	1305.296387	3503.359863	2147.668701	38.323383
763.548157	1302.649780	3515.710449	2151.087158	38.337738
763.866150	1302.980713	3529.274170	2154.946777	38.268364
764.184021	1301.326660	3539.860596	2159.468018	38.334972
764.501892	1298.018555	3546.587158	2167.958984	38.688633
764.819702	1295.923340	3544.491699	2168.179443	38.791622
765.137451	1296.474731	3548.792725	2167.958984	38.692772
765.455200	1292.504883	3554.416748	2171.598145	38.865055
765.772888	1293.607666	3544.161377	2169.172119	38.904400
766.090515	1293.828247	3534.347168	2165.753418	38.916214
766.408081	1295.371948	3534.897949	2163.658203	38.770985
766.725586	1293.938477	3525.415283	2160.791016	38.846584
767.043091	1294.269287	3515.600342	2159.357422	38.944584
767.360535	1294.820679	3500.824463	2155.939209	39.035221
767.677917	1293.497437	3468.404053	2147.448242	39.263790
767.995239	1291.512573	3422.089355	2126.717041	39.200863
768.312500	1292.174194	3362.983643	2103.449463	39.176720
768.629822	1290.299561	3302.553467	2077.094482	39.100182
768.947021	1290.520142	3246.204346	2052.393311	38.956860
769.264160	1294.379639	3190.406738	2028.574463	38.722801
769.581299	1294.379639	3148.392822	2011.813232	38.696251
769.898376	1292.505005	3111.230713	1988.655884	38.276848
770.215393	1292.174072	3077.928467	1974.871826	38.230217
770.532349	1292.504883	3049.698975	1965.278076	38.286789
770.849304	1291.512451	3019.925293	1954.140625	38.337379
771.166199	1290.740601	2998.863281	1939.143433	37.959969
771.483032	1287.542725	2981.770752	1931.534790	38.010944
771.799866	1288.645508	2961.260010	1923.043701	37.928535
772.116577	1291.622803	2940.528564	1915.104126	37.811821
772.433350	1293.938599	2928.509033	1911.795898	37.799370
772.749939	1294.931030	2919.025391	1904.297485	37.520386
773.066589	1294.048828	2905.131348	1899.996704	37.611225
773.383057	1297.357178	2888.811035	1892.167358	37.375271
773.699646	1298.680420	2876.460205	1885.109985	37.168022
774.016113	1300.885864	2860.029785	1878.162964	37.025261
774.332520	1303.201660	2851.208008	1871.105469	36.686142
774.648804	1308.494751	2842.055176	1869.120483	36.557133
774.965149	1307.943359	2831.689697	1863.496704	36.459702
775.281433	1313.126099	2820.993164	1861.842407	36.390232
775.597656	1313.677490	2814.156494	1858.754517	36.326866
775.913879	1312.905640	2807.540283	1852.359009	36.092659
776.229980	1314.449463	2797.836426	1848.940430	36.031796
776.546082	1312.023315	2787.691162	1850.594482	36.496773
776.862122	1315.882935	2780.854248	1848.058228	36.326672
777.178162	1317.978149	2771.812012	1846.514648	36.354671
777.494141	1315.331421	2767.621582	1844.970825	36.469254
777.809998	1314.780151	2755.822266	1849.271362	37.090603
778.125854	1316.544556	2750.309082	1846.404175	36.955833
778.441711	1317.426758	2744.133789	1841.993286	36.767643
778.757446	1316.323975	2737.847900	1838.133789	36.707775
779.073181	1313.567017	2733.547363	1832.068848	36.514717
779.388855	1316.323853	2727.702637	1832.510010	36.573185
779.704468	1315.552124	2723.623047	1826.665405	36.298832
780.020020	1310.258911	2717.888672	1825.342041	36.592232
780.335571	1311.251343	2708.736328	1824.239380	36.707947
780.651062	1310.479492	2703.222168	1820.600586	36.627090
780.966553	1307.722656	2697.708740	1814.976563	36.493454
781.281860	1301.657471	2686.020020	1808.250000	36.593922
781.597290	1301.767944	2678.631592	1808.470581	36.801220
781.912476	1299.231812	2675.102783	1802.074829	36.547253
782.227722	1300.775635	2666.060547	1799.759155	36.547939
782.542908	1299.011108	2654.923096	1803.398071	37.199093
782.858093	1299.452148	2642.682373	1800.089478	37.271149
783.173218	1302.539917	2640.256836	1795.237671	36.831242
783.488281	1300.003662	2639.595215	1795.017090	36.952564
783.803345	1299.562622	2630.883789	1785.313110	36.486347
784.118225	1301.547485	2618.202148	1780.461182	36.373524
784.433167	1302.208862	2609.821533	1773.403809	36.034748
784.748047	1303.532227	2603.425537	1764.582031	35.468281
785.062866	1306.619995	2590.193115	1760.943115	35.395187
785.377686	1305.958374	2579.276123	1756.752808	35.403137
785.692444	1306.619995	2568.689697	1754.878174	35.517704
786.007141	1305.517334	2564.830078	1750.577515	35.341515
786.321716	1308.825439	2558.765137	1754.106079	35.624168
786.636353	1311.141113	2562.073242	1755.098633	35.490135
786.950928	1309.487061	2567.256104	1757.303955	35.604065
787.265442	1308.715088	2574.313721	1759.729858	35.636478
787.579834	1304.414551	2570.674561	1762.266357	36.157803
787.894226	1308.163696	2576.850098	1762.376709	35.801834
788.208618	1304.193970	2578.834961	1757.745117	35.582657
788.522949	1305.517212	2574.424072	1753.334229	35.291561
788.837219	1302.870605	2574.424072	1748.482544	35.044689
789.151367	1303.752808	2579.937500	1738.998901	34.105259
789.465515	1301.657593	2579.937744	1735.690674	33.954456
789.779602	1299.893188	2571.005615	1736.241943	34.328102
790.093689	1303.973267	2559.427002	1732.382446	34.123852
790.407776	1300.554688	2555.016113	1733.816040	34.537640
790.721741	1299.672607	2549.943848	1730.948853	34.494614
791.035645	1298.018555	2541.562988	1725.765869	34.397430
791.349548	1296.695190	2534.615967	1726.758423	34.740772
791.663391	1293.938477	2536.270020	1727.089111	34.865944
791.977173	1296.805664	2532.630859	1721.685791	34.380276
792.290894	1296.254150	2521.714111	1719.480225	34.536098
792.604614	1298.790771	2510.466064	1712.533081	34.146301
792.918274	1299.231812	2501.754639	1707.901978	33.984402
793.231812	1298.680542	2485.764893	1699.851929	33.794682
793.545410	1298.459839	2473.083496	1693.786987	33.655643
793.858948	1300.113892	2456.983398	1687.832275	33.514442
794.172363	1304.524780	2451.690186	1684.524170	33.125072
794.485840	1302.209106	2442.427490	1679.010376	33.046413
794.799194	1308.494629	2439.449951	1678.128174	32.683304
795.112488	1307.171265	2438.126953	1683.200928	33.248840
795.425781	1309.156128	2435.370117	1680.554321	32.977585
795.738953	1305.958374	2428.533203	1684.524170	33.722988
796.052185	1307.061035	2428.753906	1685.075562	33.700359
796.365234	1307.171265	2428.754150	1681.215942	33.349712
796.678284	1305.627441	2429.966797	1677.687134	33.091404
796.991333	1308.825317	2427.540771	1678.459229	33.040924
797.304382	1309.927979	2429.305176	1677.466675	32.834213
797.617310	1312.023193	2428.974121	1678.789795	32.836411
797.930115	1312.574463	2422.468262	1678.569336	32.975666
798.242981	1314.890259	2417.726318	1677.245850	32.856705
798.555786	1313.236084	2413.425781	1680.113281	33.346722
798.868530	1317.205933	2412.764160	1676.915161	32.833420
799.181213	1313.346436	2411.110352	1679.341187	33.340023
799.493896	1313.125854	2406.479004	1674.599365	33.061001
799.806519	1316.985474	2406.037842	1675.040527	32.877670
800.119080	1318.198608	2402.068115	1668.865356	32.353226
800.431580	1315.000610	2392.033203	1660.925781	32.118359
800.744080	1313.897949	2382.329346	1658.720215	32.273693
801.056458	1315.000732	2373.948486	1656.294312	32.229500
801.368835	1312.133667	2360.054199	1651.111816	32.347694
801.681152	1314.890381	2348.144531	1645.267334	31.974413
801.993408	1316.765015	2338.440430	1645.487549	32.174850
802.305664	1319.962891	2329.397949	1644.936157	32.193577
802.617798	1320.845093	2318.812012	1638.319702	31.812138
802.929993	1320.403809	2310.431396	1637.106812	31.989311
803.242065	1321.396240	2301.058105	1635.563110	32.068909
803.554016	1318.418945	2295.985596	1632.806030	32.160168
803.865967	1318.639404	2289.479492	1634.019165	32.485245
804.177979	1316.103271	2288.045898	1632.144531	32.516453
804.489807	1314.890381	2288.045654	1630.490356	32.430588
804.801697	1311.251343	2286.281494	1629.056885	32.594433
805.113464	1310.369263	2280.547363	1626.079468	32.541470
805.425232	1306.730225	2282.311523	1627.623291	32.892498
805.736938	1305.627563	2277.900879	1622.881714	32.630142
806.048584	1300.554932	2273.269287	1623.653687	33.216202
806.360168	1297.467285	2267.535400	1618.140015	33.056725
806.671753	1296.915771	2257.280029	1615.824219	33.207031
806.983276	1298.790527	2257.831299	1620.125000	33.505821
807.294739	1300.223999	2252.979248	1618.801758	33.437523
807.606140	1301.437012	2248.568359	1617.919434	33.414841
807.917542	1301.326782	2247.906738	1616.706421	33.317802
808.228760	1301.216431	2242.393311	1615.493530	33.391926
808.540100	1300.223999	2231.917236	1614.059692	33.684444
808.851318	1297.026123	2225.080322	1610.090088	33.733372
809.162476	1297.356934	2217.361328	1612.736450	34.280220
809.473633	1297.246704	2212.840088	1610.972046	34.264702
809.784668	1291.071411	2206.113525	1612.074829	35.080727
810.095703	1295.813110	2194.975830	1609.428345	34.878586
810.406738	1298.570068	2186.594971	1604.686768	34.471634
810.717590	1302.870605	2174.465332	1598.621704	33.932182
811.028503	1303.311890	2163.548096	1596.416260	34.072544
811.339294	1303.201416	2153.733887	1588.807495	33.579681
811.650085	1302.209106	2148.661377	1589.579468	33.949978
811.960876	1299.231812	2137.082764	1582.963013	33.864162
812.271545	1301.988525	2129.143311	1583.624634	34.048779
812.582153	1309.045898	2126.496582	1581.529419	33.333328
812.892761	1307.281616	2116.902832	1581.088379	33.819118
813.203308	1302.980957	2115.579590	1581.970581	34.333015
813.513855	1303.973511	2111.058594	1576.898071	33.816082
813.824280	1303.311768	2107.530029	1573.810425	33.634979
814.134705	1301.988525	2105.765869	1568.958374	33.214405
814.445068	1301.437012	2096.943604	1566.532349	33.324089
814.755371	1301.437012	2098.156738	1564.878296	33.065742
815.065613	1299.562378	2102.016113	1564.768066	33.049343
815.375854	1302.980835	2101.354492	1563.224121	32.596676
815.686035	1302.208984	2104.111328	1560.246948	32.178226
815.996155	1303.311646	2104.442139	1560.687866	32.126629
816.306152	1308.053467	2105.544922	1559.916138	31.581865
816.616211	1306.840454	2114.036133	1560.798340	31.461750
816.926208	1303.091187	2117.675049	1564.216675	32.056305
817.236145	1303.752930	2126.166016	1568.406982	32.180183
817.546021	1304.524780	2139.619141	1573.700195	32.232933
817.855774	1305.186401	2151.638916	1581.970581	32.699314
818.165588	1305.958252	2168.951660	1586.160889	32.468689
818.475281	1309.928101	2192.218750	1595.423706	32.358452
818.784973	1305.406860	2222.102783	1602.260620	32.383015
819.094604	1299.231689	2250.112061	1607.994751	32.471283
819.404175	1298.790405	2295.434082	1624.094727	32.639984
819.713684	1298.680298	2358.620117	1651.111572	33.250122
820.023254	1297.577515	2484.661865	1705.034790	34.324207
820.332642	1295.923340	2704.766113	1803.287720	36.012848
820.642090	1295.923584	2994.231445	1930.652588	37.374203
820.951416	1296.144043	3298.804688	2058.238037	38.054077
821.260681	1292.725586	3552.982910	2164.540771	38.571503
821.569946	1293.497559	3751.914551	2246.914551	38.781746
821.879150	1294.159180	3915.779785	2310.982910	38.786076
822.188293	1295.592773	4045.460449	2367.442139	38.978214
822.497437	1298.018799	4152.204102	2410.889404	38.990833
822.806458	1298.018799	4247.811035	2449.154053	39.024281
823.115479	1298.790649	4328.861328	2482.456299	39.063961
823.424438	1300.334473	4405.721191	2511.016846	38.986526
823.733337	1295.813232	4468.245605	2538.364502	39.167149
824.042236	1296.144043	4520.073730	2560.419189	39.215343
824.351013	1295.372192	4567.932129	2581.150635	39.289680
824.659790	1297.467407	4607.079102	2605.631104	39.526196
824.968445	1297.908447	4665.522949	2635.184082	39.709877
825.277100	1301.106445	4735.656250	2672.015137	39.915237
825.585693	1304.635010	4822.220703	2712.485352	40.023201
825.894287	1309.376709	4879.562012	2742.700195	40.147034
826.202820	1314.890381	4901.395996	2749.867676	40.010456
826.511292	1313.787720	4834.019531	2724.835938	40.083958
826.819702	1316.213745	4662.435059	2645.880615	39.736370
827.128113	1320.073242	4409.911133	2539.247070	39.457535
827.436401	1319.962769	4141.618164	2425.555908	39.182430
827.744751	1321.506592	3911.148438	2330.611328	38.966961
828.052917	1322.057983	3731.293945	2253.199707	38.648842
828.361145	1319.521729	3583.308105	2197.071045	38.764671
828.669312	1320.183350	3465.977295	2147.227783	38.542583
828.977356	1315.993164	3366.732178	2104.552246	38.452435
829.285400	1312.464233	3275.867920	2067.721436	38.466732
829.593384	1310.920532	3197.353516	2037.617188	38.522263
829.901306	1307.833008	3122.257813	2007.402588	38.555996
830.209167	1312.133667	3057.858887	1977.077515	38.089836
830.517029	1312.795288	2998.532471	1950.501831	37.829536
830.824829	1314.669922	2946.704346	1928.226807	37.594604
831.132568	1311.802856	2898.073975	1901.099365	37.149799
831.440247	1308.935791	2841.724609	1876.398193	37.021564
831.747925	1308.384399	2783.059814	1846.514526	36.491428
832.055481	1305.848022	2716.786133	1820.159180	36.451717
832.363037	1306.178833	2668.706787	1794.576050	35.844933
832.670532	1304.635010	2628.898438	1777.483765	35.706547
832.977966	1306.178833	2611.034180	1766.015625	35.240440
833.285400	1308.825317	2591.847168	1756.201050	34.868912
833.592712	1306.840454	2572.659668	1750.135986	35.020447
833.900085	1307.391724	2552.700195	1744.402100	35.092541
834.207275	1302.760254	2539.798096	1738.778320	35.246948
834.514526	1301.767822	2527.668213	1736.352295	35.450226
834.821716	1302.760376	2517.964111	1730.507813	35.199650
835.128784	1303.091187	2508.921631	1725.104370	34.997723
835.435852	1306.399292	2503.297852	1723.560669	34.853527
835.742798	1308.163696	2494.696533	1719.370117	34.656136
836.049805	1307.722534	2485.323730	1708.783813	34.057480
836.356750	1309.597168	2474.847656	1705.586182	33.983166
836.663574	1306.950562	2463.930664	1700.734131	34.035465
836.970398	1307.060913	2452.021484	1692.022705	33.622276
837.277161	1304.524658	2437.244629	1683.972656	33.498837
837.583923	1305.075928	2424.122314	1677.246094	33.257797
837.890564	1308.053345	2396.774658	1665.888062	32.867432
838.197205	1308.604858	2354.650391	1650.560059	32.690277
838.503784	1311.692505	2308.005371	1629.608398	31.909243
838.810303	1309.376709	2257.059326	1611.633911	31.894348
839.116699	1306.509766	2211.626953	1589.469116	31.262178
839.423096	1309.046021	2160.791260	1570.943481	30.748333
839.729492	1308.715210	2120.541992	1556.387329	30.508001
840.035828	1304.745361	2089.996582	1541.500610	30.150255
840.342102	1302.760620	2067.500732	1528.157593	29.473669
840.648315	1308.494751	2039.601807	1514.263184	28.144775
840.954529	1311.692505	2021.517090	1503.897583	27.077827
841.260620	1313.015747	2003.432251	1495.075806	26.369598
841.566711	1310.258911	1989.207275	1487.687500	26.132854
841.872803	1309.707397	1968.365845	1482.614990	26.251480
842.178772	1312.795044	1954.250977	1477.873291	25.734932
842.484680	1310.920532	1935.394165	1477.211670	26.629009
842.790588	1312.574585	1921.830688	1469.713135	25.791872
843.096436	1313.567017	1911.354858	1467.838501	25.807062
843.402222	1314.118286	1899.996826	1468.058960	26.275187
843.707947	1315.551880	1889.300415	1461.442749	25.427668
844.013611	1315.993042	1878.162720	1458.024170	25.264814
844.319275	1313.125977	1861.070679	1444.460693	23.968607
844.624817	1314.118530	1844.529785	1435.307983	22.848206
844.930359	1311.913086	1820.380005	1426.486206	22.533052
845.235901	1311.030884	1800.530884	1415.017822	21.243502
845.541321	1315.993164	1778.035400	1410.165771	20.381819
845.846680	1311.913086	1765.354004	1402.777588	20.038885
846.152039	1311.472046	1751.459839	1401.123291	20.375849
846.457275	1316.323975	1736.793335	1397.484375	19.302334
846.762512	1318.308838	1724.553223	1398.697510	19.788254
847.067749	1316.654785	1716.392822	1396.822632	20.055096
847.372925	1315.110840	1705.365479	1395.499390	20.598999
847.677979	1313.125977	1699.410889	1391.860474	20.382494
847.983032	1314.669922	1687.391235	1387.890869	19.644958
848.288025	1310.369263	1681.767456	1384.031372	19.833729
848.592957	1309.045898	1679.782349	1381.936157	19.660936
848.897888	1312.905518	1675.812744	1378.848389	18.170725
849.202759	1312.133667	1675.151001	1377.745605	18.074051
849.507507	1308.715210	1670.739990	1374.658081	18.215015
849.812317	1308.825439	1668.093506	1372.562866	17.740911
850.117004	1308.163818	1667.211182	1373.886108	18.304630
850.421631	1305.958374	1663.682617	1374.768311	19.235470
850.726257	1304.745361	1661.146240	1377.856079	20.513618
851.030823	1304.635010	1660.154053	1373.224609	19.292807
851.335327	1303.421875	1660.264282	1367.490479	17.954313
851.639771	1301.326782	1656.404785	1363.410400	17.484501
851.944153	1296.805664	1654.419800	1363.961670	18.778902
852.248535	1297.136353	1657.507446	1362.307617	18.084488
852.552856	1295.041260	1663.792725	1356.022095	16.537109
852.857056	1291.733032	1663.131104	1355.470703	17.161551
853.161255	1286.770874	1662.579834	1349.405640	16.666651
853.465393	1284.124268	1660.594727	1347.751709	16.901045
853.769531	1279.382568	1652.765381	1348.964600	18.635574
854.073547	1280.044189	1649.788086	1350.287842	18.997921
854.377563	1280.375000	1644.715576	1351.500854	19.521805
854.681580	1280.485474	1645.156616	1348.964600	18.778324
854.985474	1280.926392	1640.194336	1346.318115	18.201380
855.289307	1279.492920	1640.525269	1345.877197	18.387348
855.593140	1276.736084	1639.312134	1348.082642	19.677681
855.896851	1277.066895	1640.525269	1349.295532	19.872602
856.200623	1276.736084	1638.981445	1350.067383	20.243544
856.504272	1275.633423	1635.783691	1353.154907	21.524761
856.807922	1278.169678	1635.452759	1350.177490	20.154274
857.111389	1280.044312	1639.312256	1348.964478	19.183500
857.414978	1278.390259	1637.768555	1348.633667	19.545813
857.718445	1279.382568	1635.121826	1352.272705	20.489765
858.021790	1284.565308	1632.585693	1351.941772	19.359919
858.325195	1287.322144	1635.452881	1348.743896	17.643301
858.628479	1291.071655	1630.380371	1348.523438	16.932009
858.931763	1289.637817	1624.315308	1350.728882	18.253712
859.234985	1288.866089	1626.410522	1348.744019	17.739273
859.538147	1291.071533	1623.763916	1349.736572	17.633419
859.841248	1294.710571	1626.410522	1349.405762	16.489357
860.144287	1297.687866	1629.828857	1342.127930	13.379879
860.447266	1298.459717	1628.615723	1341.797119	13.126341
860.750305	1296.915894	1632.585571	1343.451050	13.863378
861.053223	1299.121338	1634.680786	1347.751709	14.492327
861.356018	1295.592651	1635.342407	1345.877197	14.800466
861.658813	1294.489746	1634.460205	1344.223022	14.628705
861.961609	1299.672607	1630.049316	1341.245605	12.583513
862.264343	1299.562256	1629.056885	1341.686768	12.784582
862.567017	1301.216309	1630.821289	1339.260742	11.542433
862.869629	1302.539673	1627.843994	1336.283325	10.372950
863.172180	1302.429443	1623.322754	1335.731934	10.378057
863.474670	1302.980713	1619.463135	1336.944946	10.731791
863.777161	1304.083496	1617.037231	1340.694214	11.698444
864.079590	1303.973267	1616.044800	1336.614136	10.459419
864.381958	1302.760254	1622.330322	1337.496338	10.869630
864.684265	1300.665161	1622.991943	1338.047485	11.597648
864.986511	1297.246704	1621.889160	1336.393555	12.058451
865.288757	1299.341797	1621.338013	1335.511230	11.232876
865.590942	1301.988281	1621.117432	1332.864868	9.675263
865.893066	1303.642578	1622.661133	1333.857178	9.471110
866.195068	1301.988403	1619.352905	1334.408691	10.215474
866.497131	1300.223999	1619.353027	1338.488525	11.990299
866.799133	1304.193848	1623.874023	1338.157837	10.624365
867.100952	1304.965698	1619.794067	1337.385986	10.297766
867.402832	1306.619751	1616.816650	1334.188110	8.887374
867.704651	1309.597168	1615.272827	1334.849854	8.261268
868.006409	1309.045898	1617.808960	1336.062744	8.750025
868.308105	1307.612305	1620.345459	1334.408813	8.568490
868.609802	1310.810303	1620.896973	1333.306030	7.254658
868.911438	1310.148682	1618.360474	1332.864868	7.370317
869.213013	1310.479370	1617.478394	1333.636719	7.543134
869.514465	1310.258911	1621.117432	1332.754517	7.236606
869.815979	1312.133545	1620.345459	1333.526367	6.940946
870.117371	1311.802734	1622.771362	1333.857178	7.092176
870.418701	1315.000610	1624.425537	1337.055176	7.127598
870.720093	1317.536987	1622.440674	1340.142822	7.414091
871.021301	1319.080811	1621.558350	1340.032471	6.926683
871.322571	1320.955322	1622.550781	1342.237915	7.056669
871.623718	1319.301392	1625.638550	1343.451050	7.883359
871.924805	1318.088379	1625.417969	1346.979858	9.400813
872.225891	1318.970581	1625.528442	1344.994873	8.489194
872.526917	1321.396484	1629.277588	1348.523682	8.810933
872.827881	1323.491699	1626.631104	1345.325562	7.202581
873.128784	1318.970459	1619.242920	1341.135254	7.381561
873.429626	1317.867798	1620.345581	1338.268188	6.744426
873.730408	1317.757568	1618.691406	1336.724365	6.302647
874.031189	1314.338989	1621.338013	1339.591553	8.225616
874.331848	1314.780151	1621.227661	1338.599121	7.772610
874.632568	1311.692627	1620.786499	1337.716919	8.419543
874.933167	1311.251343	1620.896973	1334.077881	7.371826
875.233704	1309.156250	1623.102295	1332.754639	7.516702
875.534241	1308.494629	1626.630981	1330.769775	7.001761
875.834717	1307.171509	1627.513184	1334.960083	8.674667
876.135071	1303.752930	1634.570679	1339.591553	10.833344
876.435425	1302.539917	1634.019165	1339.260620	11.077828
876.735779	1304.635132	1635.893799	1339.260620	10.452704
877.036011	1298.901001	1636.004150	1339.591553	12.070653
877.336182	1297.246948	1638.650635	1340.694214	12.726068
877.636353	1294.931152	1645.928589	1344.333130	14.074740
877.936462	1294.931030	1651.001099	1349.295410	15.267888
878.236511	1297.908447	1661.366821	1351.831665	14.836146
878.536560	1297.798218	1679.782349	1360.984375	16.541567
878.836487	1297.246826	1703.049805	1373.665771	18.831539
879.136414	1294.379639	1762.486816	1399.028442	22.355736
879.436279	1291.843506	1852.138428	1437.182739	25.939774
879.736084	1293.276855	1963.513550	1485.592407	28.693676
880.035828	1290.961182	2086.908691	1538.523193	31.102806
880.335510	1293.938477	2202.694824	1589.359009	32.508221
880.635193	1293.276855	2303.594238	1634.460327	33.769928
880.934753	1297.797852	2393.576904	1676.474121	34.557720
881.234314	1296.474854	2473.193359	1710.217651	35.160728
881.533752	1298.569946	2539.467529	1741.645508	35.706055
881.833252	1297.798096	2600.889404	1769.103027	36.168221
882.132629	1298.570068	2658.892822	1786.636475	35.878719
882.431946	1298.680298	2704.766113	1801.523193	35.761894
882.731323	1299.893433	2746.559326	1817.181885	35.757286
883.030579	1298.459839	2780.192627	1834.825684	36.198555
883.329712	1298.018677	2813.053955	1848.940430	36.363625
883.628845	1298.790527	2833.675049	1860.960327	36.626194
883.927979	1298.900879	2847.128174	1863.827393	36.488602
884.226990	1299.452148	2858.045166	1866.915161	36.408672
884.526001	1296.144043	2861.684082	1868.789429	36.578136
884.824951	1296.695435	2855.398682	1866.694336	36.568790
885.123840	1295.702881	2838.306396	1854.784912	36.242756
885.422729	1297.687744	2793.645996	1833.833374	35.839611
885.721497	1300.223999	2709.948975	1805.934326	35.872978
886.020203	1301.216553	2605.962158	1761.273804	35.260303
886.318909	1302.760376	2484.331299	1711.540894	34.596359
886.617554	1302.980835	2367.773193	1658.940796	33.429989
886.916138	1302.980957	2268.858643	1615.934326	32.400932
887.214661	1300.554932	2181.522705	1578.110840	31.505796
887.513184	1301.106323	2099.369629	1546.462524	30.736250
887.811523	1298.018677	2028.905518	1516.027344	29.827965
888.109924	1303.752808	1794.686401	1424.170532	24.528313
888.408264	1292.174194	1871.105347	1384.803223	16.000008
888.706543	1294.489868	1690.478760	1495.957886	50.877190
889.004761	1331.541504	1743.740479	1405.644653	17.977520
889.302979	1313.015747	1655.742920	1389.434570	22.297276
889.601135	1329.225830	1637.217163	1345.435913	5.263162
889.899170	1282.911255	1678.900146	1380.171753	24.561420
890.197205	1313.015747	1667.321533	1363.961670	14.379083
890.495178	1299.121338	1597.849854	1326.910034	9.302324
890.793091	1271.332642	1570.061157	1317.647217	15.503901
>>>>>End Processed Spectral Data<<<<<
