Jaz Data File
++++++++++++++++++++++++++++++++++++
Date: Thu Sep 26 04:32:39 2019
User: jaz
Dark Spectrum Present: Yes
Reference Spectrum Present: Yes
Processed Spectrum Present: Yes
Spectrometers: JAZA3541
Integration Time (usec): 100000 (JAZA3541)
Spectra Averaged: 1 (JAZA3541)
Boxcar Smoothing: 10 (JAZA3541)
Correct for Electrical Dark: No (JAZA3541)
Strobe/Lamp Enabled: Yes (JAZA3541)
Correct for Detector Non-linearity: No (JAZA3541)
Correct for Stray Light: No (JAZA3541)
Number of Pixels in Processed Spectrum: 2048
>>>>>Begin Processed Spectral Data<<<<<
W	D	R	S	P
190.543274	0.000000	0.000000	0.000000	0.000000
190.921555	0.000000	0.000000	0.000000	0.000000
191.299805	1296.805664	1336.172974	1088.390503	-529.411743
191.678024	1229.649658	1322.278564	1118.494873	-120.000107
192.056229	1345.435913	1313.015747	1185.650879	492.856934
192.434387	1331.541504	1278.279907	1123.126343	391.304749
192.812531	1303.752808	1324.594360	1143.967896	-766.665100
193.190659	1310.699951	1296.805664	1169.440796	1016.670776
193.568741	1319.962891	1359.330200	1185.650879	-341.176514
193.946793	0.000000	0.000000	0.000000	0.000000
194.324829	1207.815674	1211.785522	1063.578979	-3633.304688
194.702835	1271.994385	1273.317627	1118.494751	-11600.267578
195.080811	1337.606445	1335.070313	1176.498047	6352.521973
195.458755	1337.827148	1332.203125	1179.806396	2809.745605
195.836685	1338.268188	1331.541626	1180.688477	2342.648438
196.214569	1339.811890	1336.172974	1179.034424	4418.279297
196.592422	1341.907104	1340.032471	1185.320068	8352.940430
196.970261	1342.679077	1342.127686	1187.745972	28098.560547
197.348068	1343.781860	1343.120117	1187.856201	23562.867188
197.725861	1344.222900	1342.127563	1187.525513	7478.386230
198.103622	1343.561279	1338.157837	1184.107056	2950.974854
198.481323	1340.253052	1337.496216	1181.460449	5759.958496
198.859039	1337.937378	1335.290771	1187.415161	5687.366699
199.236694	1335.070313	1335.621460	1187.745972	-26730.476563
199.614334	1333.416138	1335.511230	1191.385010	-6779.228516
199.991959	1329.115479	1337.937134	1189.069214	-1587.528198
200.369553	1324.373657	1337.826904	1190.282227	-996.721680
200.747101	1322.499023	1341.355835	1192.818604	-687.711304
201.124619	1320.514038	1341.576294	1197.008911	-586.381287
201.502136	1316.323608	1346.538452	1195.575317	-399.632355
201.879623	1313.677246	1349.736450	1195.906006	-326.605225
202.257065	1311.030640	1351.500854	1200.647827	-272.750732
202.634476	1309.927979	1352.934570	1204.617798	-244.869858
203.011871	1305.186279	1354.809082	1205.058838	-201.777084
203.389221	1303.091064	1361.866455	1206.382080	-164.539932
203.766571	1304.745117	1367.931519	1209.579956	-150.610199
204.143875	1300.334229	1365.064331	1210.572388	-138.670944
204.521164	1296.254272	1365.284912	1207.815430	-128.115341
204.898392	1297.798096	1363.300049	1205.830688	-140.404068
205.275620	1298.459717	1368.703369	1205.720459	-132.025101
205.652817	1293.718018	1368.482910	1204.066162	-119.911705
206.029984	1293.607666	1372.673218	1205.058838	-111.994194
206.407135	1291.953613	1374.988892	1212.116211	-96.148773
206.784225	1292.394775	1374.437378	1209.690430	-100.806587
207.161301	1293.607910	1372.893555	1206.713135	-109.597107
207.538376	1298.570190	1373.555176	1202.963867	-127.500626
207.915405	1302.209229	1370.798462	1201.530151	-146.785538
208.292404	1303.422119	1370.798584	1199.986328	-153.519165
208.669373	1305.406860	1366.718506	1195.575317	-179.136505
209.046310	1302.319336	1363.961670	1193.700684	-176.207886
209.423218	1303.863159	1361.645874	1192.818604	-192.176086
209.800095	1305.737793	1357.124756	1192.928955	-219.528122
210.176956	1308.715210	1353.265137	1195.354858	-254.456879
210.553787	1308.163818	1355.911743	1192.267212	-242.725952
210.930603	1309.597412	1356.242554	1187.194702	-262.412567
211.307358	1315.221313	1353.485718	1187.746094	-333.143097
211.684113	1317.316406	1349.846680	1186.753662	-401.357666
212.060837	1316.985596	1348.413086	1190.833740	-401.406067
212.437531	1316.765015	1350.839233	1189.289795	-374.110474
212.814178	1314.008179	1354.037109	1189.289795	-311.570618
213.190826	1312.574585	1351.280273	1188.187012	-321.367676
213.567413	1313.125977	1352.383057	1191.164551	-310.673706
213.943985	1310.258789	1357.345337	1192.928711	-249.179611
214.320541	1309.266479	1357.124756	1188.958862	-251.383102
214.697052	1307.612305	1361.315186	1186.753418	-225.051025
215.073563	1309.266357	1363.300049	1186.863892	-226.529892
215.449997	1303.863159	1360.874023	1185.761108	-207.157089
215.826431	1301.326904	1362.086914	1184.658447	-192.015198
216.202850	1300.334351	1364.954102	1186.863892	-175.597183
216.579224	1298.459717	1369.695923	1187.084351	-156.346573
216.955582	1300.885742	1374.989014	1186.643311	-154.166519
217.331894	1300.554932	1374.217041	1186.422729	-154.940170
217.708191	1300.003418	1376.863647	1182.783813	-152.510086
218.084442	1300.113770	1383.480103	1181.239868	-142.592209
218.460678	1296.915771	1384.141602	1187.635742	-125.284027
218.836899	1295.041260	1385.685303	1190.943970	-114.841843
219.213074	1292.615234	1387.339478	1189.841187	-108.498146
219.589233	1294.269287	1392.191650	1187.966553	-108.558182
219.965347	1296.805542	1398.697510	1188.518066	-106.276756
220.341431	1295.592529	1399.359131	1187.746216	-103.931625
220.717499	1296.254150	1400.241455	1191.054443	-101.165916
221.093552	1295.041260	1402.336548	1191.054443	-96.916481
221.469543	1299.011108	1407.078247	1191.936523	-99.081543
221.845535	1302.980835	1407.409058	1192.928955	-105.385193
222.221466	1305.296631	1411.709595	1193.590454	-104.974220
222.597397	1305.186279	1417.884766	1194.252197	-98.434402
222.973297	1302.760376	1426.706543	1196.126709	-86.032242
223.349167	1300.554932	1437.403076	1198.773193	-74.375679
223.725006	1297.467285	1446.996826	1201.309448	-64.306915
224.100800	1295.041260	1454.385010	1202.853271	-57.854786
224.476578	1295.372070	1465.081543	1206.051147	-52.631664
224.852325	1297.577515	1475.778076	1208.146362	-50.185673
225.228058	1298.680298	1495.847778	1211.895752	-44.015648
225.603760	1297.577637	1523.195313	1219.614624	-34.555367
225.979416	1295.261963	1552.086792	1223.474243	-27.952017
226.355057	1295.372192	1590.351318	1224.907959	-23.887871
226.730652	1296.805664	1642.069214	1236.045532	-17.598188
227.106232	1296.915894	1691.912231	1248.065186	-12.367382
227.481796	1294.159180	1736.903687	1261.849243	-7.297648
227.857315	1292.946167	1778.145630	1265.819092	-5.590912
228.232788	1296.033813	1815.638184	1273.538086	-4.329395
228.608246	1296.695435	1848.058350	1278.500488	-3.299994
228.983704	1297.026245	1883.345459	1286.550171	-1.786753
229.359100	1297.577637	1916.206665	1286.219360	-1.836040
229.734482	1293.166748	1945.870117	1293.607666	0.067553
230.109833	1290.189453	1973.768921	1298.349365	1.193704
230.485153	1290.189331	1989.979126	1303.422119	1.890966
230.860443	1289.527710	2012.585205	1305.517212	2.211374
231.235703	1293.166748	2031.331421	1310.479492	2.345377
231.610931	1293.607788	2055.481445	1316.985596	3.068463
231.986145	1293.056396	2079.300049	1321.396484	3.604492
232.361313	1290.189209	2098.708252	1328.674438	4.759966
232.736465	1287.983765	2121.313965	1334.959961	5.637165
233.111572	1285.888550	2134.656982	1336.944824	6.015336
233.486664	1288.865845	2141.052734	1342.679077	6.314722
233.861725	1290.409668	2141.604248	1345.546143	6.477540
234.236755	1292.284302	2138.957520	1348.082397	6.590275
234.611771	1296.474731	2120.873047	1347.420654	6.179770
234.986740	1298.900635	2101.023926	1345.987183	5.870238
235.361679	1299.782959	2083.710938	1347.089844	6.034596
235.736588	1298.570068	2073.235107	1348.523193	6.448351
236.111496	1297.908447	2069.375488	1353.595825	7.218374
236.486343	1298.459717	2071.139893	1359.329956	7.877805
236.861160	1301.106323	2071.250000	1364.182129	8.190135
237.235962	1300.334351	2079.961426	1374.217041	9.476670
237.610733	1302.760376	2089.996338	1377.635376	9.511126
237.985474	1301.437134	2106.978271	1388.221680	10.773447
238.360199	1300.665283	2140.501221	1402.336548	12.106087
238.734879	1301.767944	2177.662842	1419.318604	13.420635
239.109543	1300.334473	2227.616455	1439.498413	15.007726
239.484177	1304.635132	2281.650146	1463.207031	16.230242
239.858749	1310.810303	2350.680908	1492.760132	17.497353
240.233322	1311.361694	2434.047119	1527.716553	19.271191
240.607864	1313.126099	2511.899414	1562.121704	20.770866
240.982391	1314.559570	2592.618896	1597.959961	22.174274
241.356857	1316.213745	2651.063232	1623.433228	23.015289
241.731308	1315.000610	2704.435059	1646.039063	23.825409
242.105728	1317.977905	2744.684814	1665.005981	24.323711
242.480118	1312.354126	2785.926758	1685.626831	25.331137
242.854492	1310.479492	2835.880127	1708.012085	26.060865
243.228836	1309.045898	2893.442383	1733.264526	26.774776
243.603134	1312.905518	2957.290283	1761.604492	27.286739
243.977402	1312.023193	3046.721436	1803.067383	28.307182
244.351654	1310.920532	3168.241699	1856.659546	29.383125
244.725861	1310.810303	3315.235107	1917.970947	30.291016
245.100067	1311.912964	3466.970215	1985.237305	31.243921
245.474213	1311.361694	3603.377197	2052.834473	32.350250
245.848343	1316.985474	3710.341553	2103.780273	32.874123
246.222443	1318.198486	3794.700195	2148.220215	33.515896
246.596512	1318.419067	3855.019287	2184.830811	34.156418
246.970566	1321.286133	3892.181641	2207.767578	34.481426
247.344574	1320.845093	3904.862793	2219.015137	34.758667
247.718567	1317.206055	3891.740234	2222.102783	35.147980
248.092529	1318.749756	3859.430420	2217.140869	35.360252
248.466431	1315.441650	3833.075195	2212.398926	35.626999
248.840332	1313.236206	3807.051025	2206.113525	35.803673
249.214203	1311.030640	3809.476563	2211.186035	36.028614
249.588043	1313.787598	3825.797363	2224.087891	36.237926
249.961838	1310.038330	3853.696045	2241.731689	36.628094
250.335617	1313.677124	3886.888428	2260.257324	36.785946
250.709381	1313.456665	3901.664795	2270.622803	36.981808
251.083084	1318.198608	3899.569824	2273.820801	37.019947
251.456787	1314.780029	3882.367188	2272.056152	37.283100
251.830460	1316.434204	3829.656738	2258.492920	37.484093
252.204071	1313.456787	3746.069824	2228.057861	37.597473
252.577667	1310.038452	3638.995117	2190.564941	37.807770
252.951248	1310.369263	3513.615234	2144.360596	37.852844
253.324799	1308.604858	3406.099365	2096.171631	37.547977
253.698303	1305.737671	3326.152100	2065.184814	37.588680
254.071793	1305.296631	3267.817627	2040.373657	37.455753
254.445236	1304.083618	3233.853760	2025.707397	37.394287
254.818665	1300.113770	3219.959473	2015.010986	37.237221
255.192062	1300.003418	3219.077393	2015.783081	37.298180
255.565430	1300.444458	3243.888672	2026.479492	37.358162
255.938782	1301.878052	3283.365967	2038.609131	37.180698
256.312103	1304.745117	3340.266846	2057.355713	36.973843
256.685364	1306.730225	3419.442383	2086.687988	36.917370
257.058594	1304.965820	3518.357178	2125.945068	37.091465
257.431793	1302.098633	3646.714600	2175.567871	37.254257
257.804993	1302.760254	3790.178955	2232.248047	37.367565
258.178162	1299.672729	3928.240234	2286.612549	37.546680
258.551270	1298.128906	4052.517578	2335.353027	37.657143
258.924377	1294.379639	4145.587402	2372.184326	37.801689
259.297485	1293.938599	4222.999023	2399.862793	37.756958
259.670502	1293.056396	4286.625977	2424.563721	37.797928
260.043518	1295.151489	4346.063477	2446.508301	37.738117
260.416473	1298.569946	4394.473145	2460.512207	37.531609
260.789459	1297.026123	4449.830078	2476.832764	37.420868
261.162354	1297.246704	4497.467773	2494.365967	37.407391
261.535278	1298.349365	4541.796875	2506.385498	37.245434
261.908142	1298.790527	4576.092285	2517.192627	37.176987
262.280975	1301.216553	4595.279297	2519.397461	36.981110
262.653717	1302.870605	4609.834961	2525.793457	36.980225
263.026520	1300.113892	4627.809570	2530.976318	36.988430
263.399261	1297.357056	4643.688477	2533.402344	36.937325
263.771973	1296.915894	4654.495605	2536.269531	36.912113
264.144653	1298.239258	4653.502930	2535.056641	36.862003
264.517334	1301.106323	4633.103027	2528.550293	36.838093
264.889954	1302.208862	4586.678223	2508.039795	36.713116
265.262543	1305.627563	4506.179199	2474.076172	36.507725
265.635071	1308.053589	4405.610840	2430.739014	36.244221
266.007599	1311.802856	4310.224609	2388.504395	35.908939
266.380127	1312.133545	4240.201660	2353.106934	35.551544
266.752594	1315.882935	4205.575684	2328.516113	35.042934
267.125031	1315.000732	4197.084473	2322.340820	34.951797
267.497437	1313.236328	4212.963867	2315.393799	34.560402
267.869843	1316.544556	4239.098633	2313.519043	34.113121
268.242218	1313.567261	4277.473633	2326.420898	34.172932
268.614532	1311.913208	4335.697754	2348.364990	34.276638
268.986816	1312.354126	4430.973633	2375.933105	34.104160
269.359100	1311.471924	4539.150879	2416.513428	34.236412
269.731354	1310.038452	4652.510742	2453.895752	34.221893
270.103516	1311.030762	4749.219727	2491.608887	34.337208
270.475708	1311.361572	4830.049805	2518.846436	34.316334
270.847839	1314.890381	4902.499023	2536.710449	34.056671
271.219971	1318.419067	4961.053711	2546.194092	33.705685
271.592041	1320.403809	5006.596191	2558.213867	33.579639
271.964081	1321.065552	5036.369629	2564.389160	33.464920
272.336151	1316.434204	5064.048340	2566.925537	33.367664
272.708130	1316.654785	5090.182129	2567.145752	33.138515
273.080109	1313.015869	5107.385254	2566.925293	33.046581
273.452026	1311.582275	5141.238770	2570.123291	32.863026
273.823914	1310.369263	5176.085449	2572.770020	32.656322
274.195770	1310.369263	5215.893555	2583.025391	32.586048
274.567627	1309.376831	5261.987793	2596.257813	32.557747
274.939423	1310.700073	5304.332031	2607.064697	32.460796
275.311249	1312.243896	5345.464355	2620.297607	32.431992
275.682983	1310.479492	5376.120117	2633.199219	32.534103
276.054688	1309.707520	5401.151855	2634.853271	32.388214
276.426422	1307.943115	5403.577148	2628.898682	32.252773
276.798065	1312.243896	5370.495117	2617.099609	32.153152
277.169708	1313.236206	5325.172852	2593.390869	31.908648
277.541321	1317.757446	5277.536133	2574.423828	31.735773
277.912903	1316.985352	5267.832031	2565.712646	31.606575
278.284424	1316.764893	5279.741211	2566.153564	31.526524
278.655945	1315.882813	5301.685547	2581.371338	31.749903
279.027435	1312.574707	5332.010254	2600.889404	32.052132
279.398865	1310.920532	5391.226563	2621.620605	32.122593
279.770294	1307.502075	5467.424805	2648.637695	32.239433
280.141663	1310.810303	5539.763672	2681.388672	32.409401
280.513031	1313.015869	5615.631348	2714.911377	32.582405
280.884369	1315.993164	5680.912598	2741.707520	32.663017
281.255676	1314.559570	5725.462402	2765.416016	32.892506
281.626953	1313.787720	5763.727051	2779.530762	32.938496
281.998199	1316.654907	5805.189453	2799.490234	33.036068
282.369385	1313.346680	5856.245605	2821.544678	33.199020
282.740540	1313.236328	5915.572754	2840.952637	33.194363
283.111694	1311.802856	5983.280273	2865.212891	33.253078
283.482819	1310.479492	6070.064941	2897.302002	33.339512
283.853912	1314.559570	6165.339844	2944.057617	33.592495
284.224945	1315.441772	6257.858398	2985.520264	33.790726
284.595978	1313.346436	6348.502930	3028.857422	34.070660
284.966980	1311.030762	6425.914551	3068.445068	34.358833
285.337952	1309.817749	6500.238281	3100.534180	34.500412
285.708893	1306.730103	6535.746094	3126.558350	34.802498
286.079803	1305.406860	6558.352051	3153.906250	35.189770
286.450684	1304.745239	6574.893066	3164.051270	35.279961
286.821533	1307.391846	6588.677246	3183.128418	35.516670
287.192322	1306.399414	6596.506836	3203.197998	35.855579
287.563110	1307.391968	6602.571289	3225.142090	36.216908
287.933868	1303.642700	6627.272461	3256.349365	36.679985
288.304596	1299.672852	6668.735352	3288.659180	37.045319
288.675262	1300.885742	6725.304199	3335.193848	37.502789
289.045929	1301.326782	6777.683594	3381.067627	37.976719
289.416565	1300.113770	6826.645020	3429.367188	38.527847
289.787170	1296.805664	6843.957520	3470.829590	39.191715
290.157745	1293.718018	6845.170898	3502.588623	39.789051
290.528259	1293.497437	6840.870605	3540.742676	40.510078
290.898773	1294.820801	6830.614746	3567.869141	41.060928
291.269226	1294.269287	6813.852539	3594.224609	41.669006
291.639679	1290.630371	6797.202148	3614.073975	42.194012
292.010101	1294.820801	6810.876465	3654.323242	42.775173
292.380463	1293.828369	6840.539551	3696.116699	43.310143
292.750824	1298.680298	6882.332031	3744.747070	43.807655
293.121155	1300.775391	6928.756836	3801.868408	44.440319
293.491455	1307.502197	6990.068359	3862.297363	44.958473
293.861725	1310.920532	7072.000977	3921.955078	45.321960
294.231964	1313.125977	7184.479004	3996.168213	45.697170
294.602142	1314.669678	7298.721680	4074.792725	46.124653
294.972321	1314.669800	7398.077148	4143.381836	46.498810
295.342468	1316.213623	7496.991699	4209.545898	46.811779
295.712555	1317.095825	7559.295410	4259.499023	47.137283
296.082672	1318.419067	7583.776855	4299.638184	47.582584
296.452728	1315.882813	7585.761719	4320.039551	47.914112
296.822693	1319.080688	7589.400879	4337.682617	48.141113
297.192657	1321.065552	7589.180664	4355.657227	48.413147
297.562622	1322.388916	7606.824219	4369.220703	48.482185
297.932556	1326.027954	7627.886230	4388.738770	48.600124
298.302460	1328.233398	7634.833496	4395.134766	48.630028
298.672333	1327.792358	7640.347656	4414.432129	48.896835
299.042145	1329.005127	7636.597656	4428.215820	49.134602
299.411957	1330.218140	7623.033691	4435.604004	49.348114
299.781677	1326.027954	7584.768555	4423.363770	49.488167
300.151428	1326.579224	7523.125977	4406.051270	49.696587
300.521149	1326.248291	7458.727051	4382.122070	49.830975
300.890839	1322.829956	7386.829590	4344.408691	49.828148
301.260468	1317.095825	7310.961914	4301.291992	49.787502
301.630096	1318.418945	7223.515625	4262.255859	49.852478
301.999695	1319.080688	7102.436523	4215.279785	50.078178
302.369232	1316.323975	6976.063965	4152.865723	50.117878
302.738739	1314.449219	6859.727051	4093.759766	50.120312
303.108246	1310.699951	6722.106445	4036.307617	50.367825
303.477692	1311.251343	6610.841309	3976.650635	50.294449
303.847137	1311.361816	6522.182129	3931.548828	50.283581
304.216553	1311.361572	6456.680176	3904.201172	50.392208
304.585876	1310.369141	6397.794434	3873.545410	50.382584
304.955231	1309.597046	6350.267090	3853.254883	50.462692
305.324493	1306.619751	6311.010254	3836.383301	50.550884
305.693787	1306.178711	6280.244629	3820.283447	50.544258
306.063049	1306.509521	6274.399414	3821.386230	50.622635
306.432251	1307.391846	6272.414551	3821.717285	50.640766
306.801422	1305.627319	6267.783691	3815.210938	50.574455
307.170593	1304.524658	6268.334961	3815.211426	50.579826
307.539673	1303.642456	6275.171875	3816.534668	50.545654
307.908783	1304.304077	6290.831055	3820.283447	50.455547
308.277832	1302.650146	6307.150879	3831.751953	50.536545
308.646851	1300.444702	6338.357910	3852.262695	50.652279
309.015839	1303.973389	6378.717773	3872.994141	50.623650
309.384796	1298.239258	6410.586914	3886.447510	50.626610
309.753723	1295.151733	6446.205566	3905.414551	50.674343
310.122620	1294.600220	6472.339844	3921.183350	50.728371
310.491486	1296.144165	6484.690430	3928.019775	50.724716
310.860352	1299.342041	6501.231445	3934.194824	50.651840
311.229126	1299.452148	6515.456055	3941.583252	50.654316
311.597931	1298.680298	6523.726074	3943.458008	50.617313
311.966675	1300.224121	6544.016602	3948.420410	50.501545
312.335388	1300.665161	6579.523926	3963.858643	50.450172
312.704071	1298.680298	6617.236816	3979.296387	50.401196
313.072723	1301.326904	6632.564941	3985.471680	50.347492
313.441345	1301.988525	6630.139160	3987.677002	50.405643
313.809875	1302.650146	6611.061523	3972.128662	50.287712
314.178436	1298.459839	6573.018066	3945.552734	50.186058
314.546967	1304.193970	6535.194824	3919.969482	50.005257
314.915466	1304.635132	6494.283691	3892.511963	49.866131
315.283936	1308.604858	6440.911621	3868.472412	49.877529
315.652374	1309.266602	6398.125977	3846.969482	49.867813
316.020752	1307.943237	6345.084961	3812.454346	49.720882
316.389130	1313.236328	6299.542480	3789.406982	49.659420
316.757416	1313.346680	6259.072266	3766.470703	49.600891
317.125732	1312.574585	6233.378418	3744.857422	49.428566
317.494019	1313.126099	6201.399414	3726.111328	49.362732
317.862274	1315.441895	6169.530762	3705.269287	49.233284
318.230469	1314.338989	6137.441406	3694.903564	49.357533
318.598663	1315.441772	6109.211914	3675.716064	49.236286
318.966797	1315.221069	6076.571289	3656.197998	49.166245
319.334930	1314.449341	6049.113281	3639.767090	49.112625
319.703003	1310.148682	6018.347656	3618.154297	49.020985
320.071045	1307.612305	5975.341309	3595.107178	49.006592
320.439056	1306.178711	5939.722656	3572.280762	48.906456
320.807037	1306.399292	5937.627441	3563.458740	48.735661
321.175049	1305.296631	5958.910156	3564.451172	48.546246
321.542969	1301.878052	5990.778809	3574.927002	48.477222
321.910828	1306.178711	6035.219238	3598.415283	48.471493
322.278717	1304.965820	6093.112305	3625.542480	48.465031
322.646515	1308.053345	6142.183594	3651.235840	48.471645
323.014313	1307.501953	6192.908691	3670.974365	48.378212
323.382111	1304.855469	6229.739746	3683.876465	48.306129
323.749817	1304.745117	6278.259766	3702.622314	48.212933
324.117523	1303.752808	6305.828125	3709.348877	48.091965
324.485199	1301.326782	6320.052734	3715.304199	48.099407
324.852814	1304.193970	6319.501465	3719.935303	48.167358
325.220428	1306.399292	6317.957520	3714.422363	48.049389
325.588013	1305.075928	6324.794434	3714.311768	47.995434
325.955536	1308.384155	6334.498535	3705.489990	47.693024
326.323059	1308.825317	6352.804199	3707.916016	47.563457
326.690552	1309.597168	6376.622070	3714.532471	47.462471
327.058014	1311.030640	6396.030273	3720.487061	47.383614
327.425415	1314.338989	6409.152344	3729.639404	47.407040
327.792816	1317.977905	6423.708984	3729.418945	47.230083
328.160187	1320.955322	6430.545410	3734.160400	47.228939
328.527496	1321.837646	6416.541504	3727.544678	47.219761
328.894775	1322.940430	6410.255859	3724.456787	47.205967
329.262054	1325.697144	6391.839844	3719.715332	47.255245
329.629303	1323.712280	6378.275879	3702.953857	47.071159
329.996490	1321.837646	6364.161621	3699.535400	47.154797
330.363647	1317.977905	6370.558105	3701.409668	47.172565
330.730774	1316.985718	6381.474609	3712.437012	47.298973
331.097839	1316.544434	6412.020020	3720.156250	47.171490
331.464935	1316.103394	6438.044434	3728.867676	47.106441
331.831970	1312.353882	6459.437500	3738.681641	47.139854
332.198975	1311.802490	6487.336426	3747.062500	47.053307
332.565948	1311.582153	6516.007324	3762.169678	47.086609
332.932892	1304.965698	6553.610352	3776.725830	47.093307
333.299744	1305.406860	6581.950195	3794.259277	47.168236
333.666656	1301.878174	6619.553711	3813.115967	47.224350
334.033478	1300.444702	6650.540039	3823.371338	47.156670
334.400299	1300.665283	6674.027344	3836.493408	47.192577
334.767090	1298.570068	6710.527344	3850.277100	47.149433
335.133850	1299.562622	6735.669434	3858.878662	47.079941
335.500549	1296.805786	6758.166016	3878.948242	47.280209
335.867218	1291.622803	6781.985352	3889.755127	47.321693
336.233917	1292.725586	6818.154785	3905.855225	47.292789
336.600525	1292.505005	6834.694824	3912.141113	47.267166
336.967102	1293.938599	6855.757324	3912.030518	47.072582
337.333649	1296.915894	6867.004395	3919.970215	47.091789
337.700195	1294.269287	6866.563965	3915.558838	47.041473
338.066681	1296.254150	6856.970215	3903.980225	46.895512
338.433136	1295.813110	6847.266602	3886.557373	46.667850
338.799591	1296.254272	6825.983398	3877.184082	46.673710
339.165985	1296.584961	6811.758789	3869.685547	46.654930
339.532318	1300.775391	6816.390625	3871.008545	46.599209
339.898651	1300.995972	6828.851074	3876.191650	46.585808
340.264954	1300.444580	6846.163574	3880.933350	46.531189
340.631226	1305.627319	6861.712891	3888.652588	46.490025
340.997467	1305.406860	6901.410645	3898.026123	46.329830
341.363678	1306.840454	6942.652344	3920.632080	46.378258
341.729828	1308.274048	6995.914551	3951.177490	46.467480
342.095947	1305.627563	7056.674316	3976.099365	46.434532
342.462067	1306.178833	7114.677734	4004.108154	46.447960
342.828156	1305.076050	7183.377441	4038.072510	46.492966
343.194183	1304.414551	7254.171875	4065.088867	46.399780
343.560211	1309.597290	7313.718750	4089.348145	46.297379
343.926178	1311.582275	7371.282227	4111.292480	46.202126
344.292114	1310.259155	7404.143066	4123.532715	46.165524
344.658020	1307.502197	7440.643066	4148.233398	46.317726
345.023926	1307.943237	7478.025391	4164.774902	46.301353
345.389771	1309.817871	7515.187500	4175.581543	46.181999
345.755585	1307.061157	7535.036621	4191.902344	46.320690
346.121368	1309.376953	7556.099121	4209.435547	46.425285
346.487122	1309.707642	7582.233398	4225.976563	46.492737
346.852844	1309.597412	7608.037109	4233.033691	46.415249
347.218536	1308.163818	7628.216309	4241.635254	46.415298
347.584167	1309.487061	7650.822266	4250.015625	46.370811
347.949768	1309.487061	7669.127930	4262.476563	46.433277
348.315369	1310.259033	7693.718750	4270.416016	46.372295
348.680939	1312.684937	7708.384766	4280.782227	46.407700
349.046448	1312.464478	7717.426270	4285.633789	46.419785
349.411957	1310.810303	7721.727051	4285.413574	46.399029
349.777435	1313.677490	7716.654785	4286.625977	46.430717
350.142792	1315.772705	7705.848145	4280.010254	46.388149
350.508209	1317.757568	7707.170898	4280.010254	46.361889
350.873566	1320.734985	7710.369629	4277.143066	46.268814
351.238892	1324.153320	7723.822754	4289.714355	46.339283
351.604187	1317.647217	7751.722656	4305.814453	46.442841
351.969482	1319.521973	7817.224609	4333.822754	46.390255
352.334717	1317.647339	7876.330566	4362.494141	46.424664
352.699890	1318.308838	7959.255371	4399.655762	46.399216
353.065063	1317.647217	8043.062500	4445.749023	46.511654
353.430237	1317.095825	8157.305176	4486.219727	46.330803
353.795319	1313.456787	8287.425781	4541.686523	46.289707
354.160370	1313.897827	8413.466797	4597.263672	46.247395
354.525421	1315.441650	8548.000977	4660.780762	46.253876
354.890442	1315.993164	8704.146484	4733.781738	46.260391
355.255402	1310.589600	8870.106445	4815.383789	46.362675
355.620331	1311.912964	9055.035156	4893.567383	46.255943
355.985260	1311.913086	9232.242188	4983.328613	46.354332
356.350098	1310.699951	9388.499023	5055.777832	46.362602
356.714935	1313.015869	9533.837891	5118.963867	46.296440
357.079742	1313.456909	9660.432617	5188.545898	46.425064
357.444519	1311.361694	9805.770508	5259.230469	46.476082
357.809296	1311.030762	9967.540039	5337.524414	46.514053
358.173981	1309.266479	10156.877930	5419.897949	46.460350
358.538605	1307.171265	10367.388672	5522.562012	46.526371
358.903259	1303.091187	10606.127930	5622.799805	46.433315
359.267914	1305.958008	10871.113281	5750.605957	46.467075
359.632477	1302.208740	11147.125000	5886.902344	46.569145
359.997009	1303.091064	11412.661133	6011.400879	46.572796
360.361542	1299.893188	11615.783203	6100.611328	46.537125
360.726013	1303.201416	11769.945313	6177.581055	46.570164
361.090485	1304.304321	11863.676758	6231.504883	46.661873
361.454895	1310.259033	11911.866211	6260.064941	46.689201
361.819244	1311.251343	11933.588867	6263.372559	46.619881
362.183594	1308.935791	11933.038086	6268.334961	46.680645
362.547913	1305.958374	11891.907227	6253.999023	46.741585
362.912201	1310.148682	11832.580078	6224.115723	46.699917
363.276489	1311.692383	11753.514648	6184.417480	46.665466
363.640686	1309.045898	11666.289063	6133.582031	46.581276
364.004883	1308.053467	11603.984375	6097.302246	46.515942
364.369049	1307.502075	11540.247070	6068.631836	46.528374
364.733154	1305.627319	11501.651367	6038.637695	46.420155
365.097198	1305.296631	11440.780273	6002.467773	46.343826
365.461273	1304.855469	11349.916992	5955.381836	46.296642
365.825287	1303.863037	11219.022461	5892.305664	46.277042
366.189270	1305.517212	11049.423828	5810.814941	46.237080
366.553223	1306.509644	10853.798828	5718.075195	46.207520
366.917114	1304.083740	10603.810547	5594.128906	46.130871
367.281006	1309.156250	10322.946289	5464.778809	46.102943
367.644867	1308.715088	10066.894531	5344.030273	46.074818
368.008698	1311.251465	9856.163086	5246.990234	46.059441
368.372498	1305.958374	9704.648438	5162.521973	45.918629
368.736237	1305.075928	9600.442383	5106.172852	45.821930
369.099976	1302.429565	9538.358398	5066.253906	45.700058
369.463654	1301.988525	9494.360352	5045.743164	45.698055
369.827332	1302.208862	9463.153320	5026.445313	45.634869
370.190948	1304.193848	9440.435547	5007.919434	45.521332
370.554535	1302.650146	9416.837891	4997.002441	45.529541
370.918091	1301.106445	9393.791016	4992.591309	45.615086
371.281647	1303.091309	9380.999023	4985.534668	45.586597
371.645111	1305.848267	9366.443359	4989.283691	45.696819
372.008575	1305.186523	9363.686523	4991.047852	45.738800
372.371979	1305.406982	9347.367188	4982.888184	45.728668
372.735382	1308.604858	9362.143555	4986.196289	45.664291
373.098724	1308.384155	9392.909180	5006.816895	45.747063
373.462067	1307.501953	9422.242188	5026.224609	45.826763
373.825348	1305.847900	9491.492188	5065.150879	45.925560
374.188599	1304.855347	9567.139648	5099.445801	45.926651
374.551819	1305.517090	9684.690430	5154.912598	45.940037
374.915009	1303.091187	9826.390625	5217.878418	45.930416
375.278168	1303.532227	9977.463867	5288.783691	45.945156
375.641266	1299.672729	10109.459961	5354.727051	46.028969
376.004395	1302.319214	10216.204102	5411.186523	46.095135
376.367462	1305.296631	10289.535156	5449.119629	46.123257
376.730469	1302.980957	10335.959961	5475.916016	46.196667
377.093475	1300.995972	10366.173828	5495.765137	46.273434
377.456421	1299.672852	10399.367188	5509.659668	46.265144
377.819336	1303.201538	10434.763672	5522.671875	46.207539
378.182281	1304.304199	10477.661133	5540.977051	46.184540
378.545135	1306.619873	10523.974609	5552.114746	46.059799
378.907928	1304.965820	10570.621094	5573.617676	46.069618
379.270752	1303.752808	10610.319336	5582.329102	45.973736
379.633484	1304.304077	10644.283203	5593.466309	45.922607
379.996246	1308.604858	10675.931641	5613.205566	45.953350
380.358948	1305.737671	10694.016602	5636.583008	46.130341
380.721558	1306.509521	10717.394531	5641.655273	46.065228
381.084198	1307.281494	10758.856445	5654.227539	45.991764
381.446747	1309.156006	10778.814453	5664.592773	45.993599
381.809326	1310.589722	10797.670898	5668.672852	45.937027
382.171875	1312.574707	10791.716797	5669.775391	45.966190
382.534363	1312.354126	10755.877930	5655.770508	45.993603
382.896790	1311.361572	10704.710938	5625.225098	45.924652
383.259247	1315.441772	10669.204102	5607.360352	45.884407
383.621613	1316.544556	10660.161133	5608.904785	45.938961
383.983948	1316.765015	10687.950195	5628.753906	46.013268
384.346283	1317.647217	10738.124023	5644.302246	45.928200
384.708588	1315.772705	10823.144531	5680.471680	45.908577
385.070831	1320.073242	10899.012695	5722.044434	45.954681
385.433075	1315.662354	10992.963867	5771.887695	46.048225
385.795258	1316.765015	11075.448242	5815.886230	46.103771
386.157440	1312.133667	11151.536133	5861.649902	46.237728
386.519531	1312.795288	11244.496094	5904.876953	46.236607
386.881622	1310.810303	11316.504883	5939.612793	46.261684
387.243683	1310.700073	11391.710938	5974.790039	46.266094
387.605713	1307.391724	11473.091797	6001.034668	46.171371
387.967682	1309.817749	11555.907227	6032.352051	46.091087
388.329651	1307.832886	11652.283203	6077.012695	46.103752
388.691559	1308.053345	11748.441406	6130.714844	46.192360
389.053467	1303.752686	11868.749023	6178.573242	46.141239
389.415314	1301.326782	11987.513672	6244.075195	46.253624
389.777130	1303.752808	12107.820313	6292.706055	46.176620
390.138885	1299.782959	12230.442383	6342.879395	46.137169
390.500641	1300.665039	12323.181641	6395.920410	46.225880
390.862366	1296.584961	12410.408203	6434.074219	46.226120
391.224060	1296.364502	12484.620117	6450.174805	46.064468
391.585693	1297.246704	12571.514648	6479.175781	45.962448
391.947296	1298.569946	12659.623047	6518.433105	45.945244
392.308868	1304.524658	12724.023438	6550.522461	45.938950
392.670441	1304.304077	12789.525391	6574.451660	45.886337
393.031952	1307.171265	12819.077148	6585.589355	45.851814
393.393433	1306.399414	12846.205078	6596.285645	45.840340
393.754883	1308.494507	12861.644531	6594.522461	45.753994
394.116302	1307.502075	12850.395508	6595.514648	45.811848
394.477692	1311.141113	12853.373047	6597.167480	45.797260
394.839020	1310.589722	12852.491211	6596.395996	45.796669
395.200348	1310.589722	12851.718750	6599.483398	45.826485
395.561646	1308.825317	12834.958008	6592.757324	45.843060
395.922882	1312.574585	12799.230469	6576.436523	45.825886
396.284088	1313.787476	12739.682617	6543.355469	45.769436
396.645264	1316.103271	12662.161133	6507.517090	45.755222
397.006409	1316.985474	12567.545898	6459.989746	45.713318
397.367523	1312.905396	12464.992188	6411.799805	45.721439
397.728577	1317.426514	12368.834961	6368.242676	45.702923
398.089600	1319.080688	12297.267578	6328.764160	45.633072
398.450592	1319.631958	12241.248047	6297.116211	45.574612
398.811584	1319.631958	12182.804688	6281.457520	45.675659
399.172546	1317.536865	12098.225586	6242.531250	45.683483
399.533447	1316.323853	12017.835938	6211.544434	45.743263
399.894318	1310.479492	11962.148438	6180.557617	45.721268
400.255127	1308.935791	11911.533203	6162.803223	45.779980
400.615936	1307.502197	11882.752930	6158.282227	45.869175
400.976685	1307.171387	11886.833008	6157.400879	45.844845
401.337433	1305.517212	11916.826172	6176.699219	45.905575
401.698151	1304.745483	11971.852539	6198.973145	45.881489
402.058807	1301.657715	12056.542969	6239.664063	45.914078
402.419434	1299.672729	12151.487305	6293.256836	46.016121
402.780060	1297.467285	12260.105469	6351.590820	46.103165
403.140594	1296.364624	12359.020508	6399.008301	46.124939
403.501129	1292.394775	12453.856445	6441.353516	46.131584
403.861633	1291.181763	12540.641602	6480.169434	46.126549
404.222076	1289.196777	12626.102539	6515.897461	46.103413
404.582550	1287.983765	12698.000000	6555.706055	46.167522
404.942932	1289.307007	12768.574219	6594.962891	46.219463
405.303284	1293.607666	12843.891602	6636.424805	46.257023
405.663605	1292.174316	12899.579102	6662.118164	46.263088
406.023895	1293.056396	12936.077148	6695.531250	46.400970
406.384125	1290.409912	12989.669922	6729.714844	46.492725
406.744354	1290.850952	13056.826172	6772.170410	46.586185
407.104553	1291.291992	13123.429688	6798.415039	46.543770
407.464691	1296.364624	13183.198242	6830.173340	46.554100
407.824829	1296.916016	13253.110352	6869.871094	46.611446
408.184906	1296.805664	13333.279297	6899.755859	46.549767
408.544922	1298.129028	13397.016602	6934.050781	46.582150
408.904938	1299.562500	13444.985352	6954.671875	46.561649
409.264923	1300.224121	13466.709961	6960.846680	46.526356
409.624847	1298.239258	13452.485352	6953.788574	46.531471
409.984802	1301.437256	13428.113281	6935.042969	46.456306
410.344666	1303.091187	13393.708008	6921.811035	46.471737
410.704529	1305.076050	13355.223633	6911.003906	46.521652
411.064331	1307.612305	13323.023438	6903.945801	46.576298
411.424133	1306.399414	13317.508789	6902.181641	46.588387
411.783875	1306.509644	13312.107422	6903.284180	46.618042
412.143555	1310.369263	13321.479492	6904.828125	46.577366
412.503235	1308.274048	13338.792969	6917.509766	46.625053
412.862885	1304.635010	13348.716797	6917.398926	46.601837
413.222473	1305.406860	13404.625000	6942.761719	46.592724
413.582062	1303.642578	13483.800781	6964.043945	46.472313
413.941559	1302.870605	13553.383789	6989.186035	46.416954
414.301086	1304.855591	13638.513672	7015.320801	46.299850
414.660522	1306.399414	13709.198242	7055.240234	46.351158
415.019958	1303.863037	13795.209961	7103.870605	46.432205
415.379364	1302.429688	13906.364258	7145.222656	46.356895
415.738708	1300.555054	14027.223633	7198.595215	46.343941
416.098053	1300.996216	14169.366211	7265.420410	46.349495
416.457336	1300.996094	14353.409180	7341.838379	46.281422
416.816559	1302.870728	14553.443359	7448.251465	46.378231
417.175812	1306.840454	14794.830078	7563.816895	46.389248
417.535004	1302.319336	15084.958008	7697.136230	46.397625
417.894135	1306.289063	15413.351563	7847.107910	46.365562
418.253265	1303.091187	15806.914063	8020.014160	46.311394
418.612335	1300.775513	16211.945313	8214.645508	46.367054
418.971405	1302.870728	16630.541016	8415.232422	46.402107
419.330414	1304.304077	17066.005859	8627.176758	46.459911
419.689423	1303.642334	17500.701172	8832.614258	46.483574
420.048370	1306.178711	17901.873047	9018.864258	46.474014
420.407257	1306.619751	18312.748047	9207.651367	46.459908
420.766144	1307.281372	18696.716797	9384.197266	46.447258
421.125000	1310.479370	19089.509766	9564.602539	46.426170
421.483795	1311.692383	19479.652344	9747.986328	46.435005
421.842560	1309.817749	19892.181641	9958.276367	46.541222
422.201324	1305.627563	20295.669922	10164.044922	46.647694
422.560028	1306.730225	20666.406250	10341.142578	46.666134
422.918671	1310.259033	21005.935547	10501.919922	46.668423
423.277283	1307.281494	21295.291016	10636.342773	46.673290
423.635925	1306.950806	21519.697266	10732.830078	46.633343
423.994476	1306.178833	21684.664063	10826.232422	46.716202
424.353027	1301.437134	21815.447266	10876.517578	46.675808
424.711487	1299.562500	21918.664063	10926.029297	46.687130
425.069946	1303.422119	21966.853516	10937.386719	46.623257
425.428375	1300.003662	21932.335938	10923.161133	46.641151
425.786743	1302.980957	21839.044922	10873.098633	46.601517
426.145081	1302.650146	21688.634766	10795.906250	46.567562
426.503418	1303.201538	21511.423828	10702.395508	46.511730
426.861725	1303.642578	21295.402344	10585.836914	46.430103
427.219971	1305.958252	21063.716797	10466.411133	46.363831
427.578186	1305.737671	20870.742188	10372.900391	46.343784
427.936371	1306.509521	20683.941406	10284.241211	46.330864
428.294495	1304.524658	20465.931641	10182.239258	46.331226
428.652618	1305.406982	20213.738281	10080.458008	46.408382
429.010712	1308.604858	19949.083984	9971.507813	46.473610
429.368744	1307.502197	19655.095703	9833.667969	46.470215
429.726746	1309.266479	19377.318359	9688.548828	46.376232
430.084717	1308.163818	19099.431641	9555.560547	46.356430
430.442688	1307.060913	18835.882813	9435.253906	46.370445
430.800568	1309.376709	18608.390625	9338.213867	46.412109
431.158417	1306.840454	18434.820313	9261.463867	46.442272
431.516235	1306.068604	18281.431641	9184.495117	46.410946
431.874023	1311.692505	18144.582031	9136.195313	46.483425
432.231812	1313.567261	18015.671875	9082.161133	46.512661
432.589508	1312.574707	17917.308594	9045.330078	46.569580
432.947205	1313.015869	17823.136719	8997.803711	46.545921
433.304840	1313.015747	17743.410156	8962.957031	46.559692
433.662476	1316.213623	17696.322266	8937.482422	46.527584
434.020050	1314.890381	17657.066406	8922.595703	46.552586
434.377594	1312.795166	17623.541016	8908.040039	46.565895
434.735138	1308.825195	17599.613281	8906.276367	46.636486
435.092621	1308.935669	17586.931641	8886.977539	46.553902
435.450043	1307.612305	17582.742188	8872.863281	46.483505
435.807465	1309.707520	17606.451172	8891.830078	46.525383
436.164856	1308.053345	17642.402344	8907.598633	46.524937
436.522156	1303.973267	17711.433594	8919.067383	46.412388
436.879486	1305.737671	17791.822266	8945.754883	46.342220
437.236755	1306.840454	17887.759766	8983.797852	46.299950
437.593994	1306.730225	17994.613281	9028.348633	46.270809
437.951172	1304.635010	18134.107422	9082.160156	46.213718
438.308380	1308.053467	18255.406250	9129.578125	46.151894
438.665497	1306.840454	18378.800781	9187.581055	46.161896
439.022583	1309.266602	18541.562500	9259.809570	46.137455
439.379608	1306.399414	18692.748047	9323.767578	46.113010
439.736633	1303.973389	18803.460938	9361.260742	46.042988
440.093628	1303.311646	18901.603516	9400.408203	46.010700
440.450562	1302.098633	18996.988281	9445.289063	46.020008
440.807495	1300.003540	19074.402344	9485.648438	46.053009
441.164368	1297.687866	19164.937500	9526.559570	46.055614
441.521210	1294.820679	19226.908203	9559.310547	46.087719
441.878021	1295.813232	19294.947266	9598.788086	46.129852
442.234833	1294.820801	19409.521484	9637.934570	46.057140
442.591522	1293.056274	19506.119141	9687.888672	46.092369
442.948242	1294.379517	19605.806641	9745.560547	46.152493
443.304901	1289.748169	19723.906250	9797.388672	46.151501
443.661530	1290.961060	19876.414063	9861.348633	46.113419
444.018127	1295.372070	20038.294922	9933.134766	46.085464
444.374664	1293.717773	20193.007813	9995.990234	46.045502
444.731201	1294.710327	20324.121094	10045.170898	45.983879
445.087738	1294.159058	20459.091797	10101.299805	45.954453
445.444183	1294.048950	20529.777344	10136.145508	45.967049
445.800598	1288.535278	20607.960938	10165.698242	45.949413
446.156982	1294.710449	20632.111328	10183.232422	45.965443
446.513336	1294.379639	20623.511719	10185.989258	46.001076
446.869598	1296.143921	20639.279297	10187.091797	45.964359
447.225891	1296.254272	20655.710938	10207.382813	46.029850
447.582153	1298.569946	20644.904297	10211.242188	46.069046
447.938354	1298.900757	20658.910156	10216.094727	46.059864
448.294495	1300.113892	20673.464844	10215.212891	46.017326
448.650665	1300.775269	20647.441406	10199.774414	45.997585
449.006775	1304.304199	20650.308594	10193.819336	45.950138
449.362823	1304.634888	20653.947266	10191.062500	45.926323
449.718842	1306.068604	20646.886719	10197.237305	45.971008
450.074860	1303.201416	20633.435547	10199.664063	46.023563
450.430817	1299.121338	20615.460938	10192.276367	46.039547
450.786713	1303.091187	20522.720703	10149.600586	46.028515
451.142578	1302.429443	20414.103516	10105.049805	46.058865
451.498444	1299.672852	20259.611328	10039.988281	46.098862
451.854248	1298.790649	20091.447266	9953.314453	46.052689
452.210022	1296.364624	19887.664063	9882.188477	46.181950
452.565765	1297.687866	19641.093750	9762.763672	46.147789
452.921478	1298.790527	19413.382813	9651.716797	46.111588
453.277191	1300.665039	19194.601563	9557.214844	46.141605
453.632813	1293.717896	19016.619141	9464.145508	46.100964
453.988434	1291.953491	18836.214844	9378.793945	46.093933
454.343964	1291.512451	18654.484375	9290.023438	46.066483
454.699524	1291.512451	18502.417969	9215.921875	46.042950
455.054993	1289.858398	18362.921875	9158.799805	46.089806
455.410400	1292.946045	18256.728516	9107.744141	46.067543
455.765839	1292.505005	18209.533203	9082.711914	46.049503
456.121216	1291.843384	18214.494141	9087.232422	46.064823
456.476593	1290.850952	18258.162109	9121.086914	46.148952
456.831909	1292.505005	18381.447266	9179.089844	46.150227
457.187195	1290.299438	18541.011719	9254.626953	46.168106
457.542450	1292.725586	18748.433594	9350.454102	46.160999
457.897644	1294.049072	18936.558594	9448.486328	46.220394
458.252808	1294.710571	19188.201172	9561.846680	46.201920
458.607971	1291.733398	19381.619141	9651.717773	46.213581
458.963013	1290.079224	19505.677734	9699.357422	46.165260
459.318085	1288.755859	19596.982422	9757.912109	46.258747
459.673096	1285.116821	19666.013672	9774.893555	46.188042
460.028076	1286.440063	19745.630859	9817.901367	46.217957
460.383057	1284.786133	19806.941406	9856.274414	46.276947
460.737976	1287.983887	19834.839844	9868.294922	46.262886
461.092865	1292.725586	19855.791016	9874.358398	46.229607
461.447723	1296.916016	19856.453125	9874.800781	46.218204
461.802551	1298.239258	19856.453125	9867.411133	46.174549
462.157288	1297.467407	19858.546875	9858.699219	46.124641
462.512054	1300.224121	19875.419922	9850.980469	46.033195
462.866760	1298.349487	19855.460938	9844.584961	46.053696
463.221405	1300.224121	19807.162109	9821.648438	46.044483
463.576019	1303.091187	19712.216797	9781.289063	46.054325
463.930603	1302.539917	19614.736328	9721.411133	45.974117
464.285156	1299.121338	19475.904297	9641.022461	45.893166
464.639709	1298.128906	19264.953125	9538.799805	45.866039
464.994171	1297.908203	19023.126953	9425.661133	45.854176
465.348633	1296.584961	18747.886719	9296.861328	45.843437
465.703033	1295.923462	18464.816406	9160.123047	45.804932
466.057434	1298.790649	18214.716797	9032.648438	45.719391
466.411774	1299.562622	18037.949219	8949.833984	45.704952
466.766083	1301.106445	17885.222656	8863.821289	45.602154
467.120331	1305.737793	17779.470703	8816.513672	45.592434
467.474548	1301.106445	17689.046875	8772.404297	45.590218
467.828735	1303.752930	17619.908203	8731.713867	45.525192
468.182922	1304.083740	17569.181641	8713.851563	45.556244
468.537048	1303.752808	17523.308594	8693.559570	45.561092
468.891144	1301.878296	17492.320313	8671.615234	45.519058
469.245178	1301.878174	17462.218750	8672.607422	45.609989
469.599213	1302.539917	17443.248047	8662.794922	45.600571
469.953186	1298.680298	17429.464844	8657.942383	45.622471
470.307129	1296.805664	17448.871094	8660.369141	45.588989
470.661041	1296.364624	17470.375000	8683.857422	45.675083
471.014923	1294.159180	17540.398438	8702.051758	45.597584
471.368713	1291.402344	17554.513672	8713.740234	45.639103
471.722504	1291.733154	17527.056641	8722.671875	45.770191
472.076294	1294.159180	17506.875000	8712.195313	45.754433
472.429993	1294.820679	17450.636719	8675.033203	45.681458
472.783722	1298.680298	17445.673828	8659.706055	45.587597
473.137329	1298.900757	17468.169922	8664.337891	45.552071
473.490967	1297.136353	17501.912109	8689.258789	45.616940
473.844543	1299.893188	17586.824219	8722.451172	45.573708
474.198090	1304.304077	17671.072266	8776.044922	45.651901
474.551605	1302.319214	17800.201172	8830.298828	45.629974
474.905060	1308.384155	17940.027344	8894.587891	45.613075
475.258484	1308.935547	18086.910156	8964.832031	45.630634
475.611877	1306.178711	18251.660156	9028.238281	45.570023
475.965240	1308.273926	18447.281250	9127.262695	45.621014
476.318573	1309.266235	18634.302734	9216.583008	45.640980
476.671844	1309.597168	18851.650391	9309.762695	45.605640
477.025116	1311.912964	19080.025391	9403.935547	45.542385
477.378326	1311.582275	19312.589844	9505.827148	45.521034
477.731506	1315.882690	19547.250000	9616.430664	45.528938
478.084656	1316.323975	19827.232422	9728.688477	45.445442
478.437744	1317.867554	20118.792969	9862.229492	45.446499
478.790833	1320.844971	20460.417969	10008.451172	45.390808
479.143890	1321.506836	20876.585938	10192.826172	45.365810
479.496826	1319.191040	21361.125000	10418.223633	45.399971
479.849823	1318.308838	22011.734375	10713.533203	45.401978
480.202728	1315.441650	22825.765625	11066.075195	45.330017
480.555603	1315.110840	23823.623047	11544.216797	45.445499
480.908478	1315.441772	25161.562500	12169.682617	45.517849
481.261292	1316.985596	26807.597656	12992.537109	45.803341
481.614075	1312.574707	28644.851563	13970.766602	46.312244
481.966797	1312.464355	30482.433594	14981.635742	46.860428
482.319489	1309.045898	32214.595703	15889.508789	47.177490
482.672150	1305.296631	33764.917969	16644.654297	47.256737
483.024780	1306.730103	35107.265625	17282.910156	47.266056
483.377350	1302.870605	36224.988281	17788.621094	47.207188
483.729919	1298.018677	37244.351563	18259.707031	47.186142
484.082428	1299.011108	38192.691406	18697.929688	47.159618
484.434937	1295.702881	39178.636719	19158.427734	47.152431
484.787384	1295.151489	40234.167969	19652.451172	47.143715
485.139771	1292.725586	41388.390625	20205.357422	47.168774
485.492157	1292.835815	42569.632813	20764.769531	47.174042
485.844482	1293.387207	43648.093750	21285.255859	47.201057
486.196777	1294.710449	44636.695313	21750.496094	47.196236
486.549072	1296.033813	45404.960938	22102.265625	47.170116
486.901276	1296.695313	45975.839844	22351.703125	47.124912
487.253448	1298.239258	46288.355469	22492.078125	47.107769
487.605591	1302.208984	46303.132813	22510.494141	47.128555
487.957703	1299.672607	46083.031250	22403.199219	47.123592
488.309784	1299.562378	45554.933594	22140.308594	47.092014
488.661835	1296.033691	44797.800781	21724.802734	46.960781
489.013855	1298.349365	44004.054688	21217.437500	46.642685
489.365814	1299.231567	43266.445313	20715.146484	46.264481
489.717743	1303.532349	42634.578125	20299.419922	45.960331
490.069611	1305.186401	42050.355469	20002.013672	45.887226
490.421509	1304.965820	41502.742188	19731.074219	45.838627
490.773315	1302.981079	41014.894531	19493.658203	45.806599
491.125092	1306.619995	40491.542969	19245.326172	45.779617
491.476807	1304.524780	39882.945313	18955.859375	45.754421
491.828522	1307.612305	39140.375000	18612.140625	45.739529
492.180176	1309.707520	38236.800781	18191.228516	45.715813
492.531830	1309.156128	37205.195313	17678.902344	45.603210
492.883423	1306.178711	36045.132813	17135.808594	45.567379
493.234985	1304.745239	34956.851563	16609.587891	45.479599
493.586487	1304.965698	33935.281250	16136.077148	45.451939
493.937988	1305.296509	33071.078125	15730.385742	45.410778
494.289429	1307.391846	32372.283203	15424.158203	45.442833
494.640869	1306.950562	31790.261719	15158.623047	45.440186
494.992218	1303.752808	31337.705078	14960.682617	45.471634
495.343567	1308.053345	30892.642578	14737.048828	45.391857
495.694855	1309.266479	30385.390625	14500.623047	45.368343
496.046112	1310.589722	29761.578125	14214.247070	45.353985
496.397339	1310.479492	28948.871094	13842.077148	45.341270
496.748535	1314.008179	28032.728516	13409.587891	45.270058
497.099670	1311.030884	27087.691406	12991.763672	45.315151
497.450806	1309.817871	26246.529297	12583.536133	45.209324
497.801880	1306.840576	25569.789063	12261.428711	45.149448
498.152924	1311.582275	24976.521484	12003.720703	45.181347
498.503937	1313.897827	24514.037109	11790.674805	45.158253
498.854889	1314.449219	24176.052734	11638.939453	45.160831
499.205841	1312.243774	23892.431641	11511.685547	45.169868
499.556702	1311.140991	23686.552734	11409.683594	45.132320
499.907562	1307.943115	23485.634766	11322.346680	45.155300
500.258362	1310.148560	23315.595703	11231.262695	45.084812
500.609161	1309.707520	23158.457031	11165.649414	45.109863
500.959900	1308.494507	22990.400391	11076.109375	45.049614
501.310608	1307.171265	22819.037109	10999.028320	45.053543
501.661255	1307.171265	22611.285156	10898.791016	45.022385
502.011902	1309.266602	22391.291016	10812.448242	45.077179
502.362488	1311.913086	22170.857422	10703.608398	45.024784
502.713043	1309.487061	21960.457031	10617.595703	45.073467
503.063568	1309.817871	21776.964844	10540.514648	45.100071
503.414063	1310.369263	21571.416016	10455.384766	45.135948
503.764496	1309.487061	21409.425781	10379.626953	45.125210
504.114899	1307.722656	21250.632813	10304.751953	45.113922
504.465271	1306.950684	21128.449219	10241.236328	45.073711
504.815613	1310.699951	21029.423828	10196.794922	45.064247
505.165894	1314.559570	20931.613281	10159.302734	45.087009
505.516174	1314.890381	20892.464844	10125.339844	45.002762
505.866394	1313.125977	20881.437500	10124.567383	45.029133
506.216583	1311.802856	20873.714844	10127.324219	45.064724
506.566711	1311.802734	20907.458984	10141.439453	45.059155
506.916840	1310.810303	20949.033203	10162.942383	45.076035
507.266907	1311.251343	21002.847656	10188.414063	45.080975
507.616882	1312.464355	21083.457031	10220.724609	45.057220
507.966858	1310.589966	21133.298828	10244.875000	45.070961
508.316803	1311.251587	21188.214844	10280.934570	45.126022
508.666748	1311.030884	21251.291016	10305.745117	45.108307
509.016632	1309.707642	21313.376953	10319.638672	45.041389
509.366486	1309.046021	21402.917969	10351.618164	45.001644
509.716309	1306.840454	21490.474609	10396.058594	45.032612
510.066040	1308.715088	21588.066406	10452.519531	45.089237
510.415771	1308.935669	21689.849609	10494.312500	45.068523
510.765503	1303.863037	21797.253906	10538.420898	45.061150
511.115173	1302.870483	21897.271484	10582.088867	45.056999
511.464752	1302.650024	21996.625000	10630.387695	45.074654
511.814270	1304.965820	22078.666016	10657.073242	45.018978
512.163818	1302.980835	22163.134766	10699.969727	45.047554
512.513306	1300.444580	22225.990234	10730.514648	45.064873
512.862793	1297.797974	22280.796875	10763.707031	45.112282
513.212219	1294.931030	22320.494141	10772.087891	45.074451
513.561646	1295.482178	22372.982422	10782.563477	45.010468
513.911011	1294.710449	22402.203125	10802.633789	45.045258
514.260315	1298.128906	22437.380859	10837.700195	45.127289
514.609558	1299.893188	22506.414063	10877.068359	45.161461
514.958801	1300.665283	22600.585938	10932.093750	45.218143
515.308044	1304.193970	22745.705078	11002.889648	45.233261
515.657227	1303.311890	22949.488281	11089.122070	45.208035
516.006348	1307.171387	23197.712891	11190.132813	45.147175
516.355408	1308.935669	23468.322266	11318.379883	45.170223
516.704529	1306.950684	23702.210938	11433.283203	45.216408
517.053467	1310.810181	23927.384766	11523.596680	45.156204
517.402466	1309.817627	24100.404297	11588.546875	45.100769
517.751404	1310.589600	24227.660156	11645.006836	45.094845
518.100281	1315.882813	24354.253906	11695.621094	45.054134
518.449219	1316.764893	24445.224609	11737.746094	45.056965
518.798035	1314.228638	24541.933594	11785.273438	45.079979
519.146851	1311.471924	24637.761719	11837.762695	45.126301
519.495544	1311.582275	24703.267578	11872.057617	45.146278
519.844299	1311.582031	24792.478516	11910.652344	45.139122
520.192932	1310.589600	24892.824219	11953.438477	45.130791
520.541626	1311.912964	24987.878906	11998.429688	45.136559
520.890198	1313.236084	25089.660156	12041.214844	45.120235
521.238770	1315.993042	25211.404297	12081.354492	45.052002
521.587280	1313.897827	25350.234375	12119.730469	44.956242
521.935791	1315.000488	25468.556641	12163.067383	44.912914
522.284180	1312.905273	25587.652344	12208.168945	44.883121
522.632629	1310.810181	25735.308594	12262.202148	44.837734
522.981018	1313.346436	25881.085938	12343.473633	44.896790
523.329346	1309.376709	26049.583984	12431.139648	44.954201
523.677551	1312.795288	26239.253906	12532.920898	45.012917
524.025818	1310.810303	26502.146484	12636.577148	44.958977
524.374023	1305.848267	26813.333984	12771.220703	44.949047
524.722229	1304.304443	27208.441406	12945.892578	44.941036
525.070374	1302.760376	27733.115234	13180.551758	44.939960
525.418457	1301.878174	28432.574219	13497.034180	44.949665
525.766541	1303.532227	29419.845703	13958.304688	45.008648
526.114563	1305.406860	30673.535156	14552.123047	45.105755
526.462585	1304.414429	32059.880859	15236.474609	45.299461
526.810547	1302.319214	33429.792969	15922.588867	45.507061
527.158447	1303.311523	34649.191406	16513.650391	45.613850
527.506348	1306.509521	35670.535156	16978.671875	45.606300
527.854065	1305.406860	36507.835938	17357.566406	45.599579
528.201904	1305.296631	37179.289063	17669.640625	45.616177
528.549622	1304.965820	37700.105469	17900.441406	45.598057
528.897339	1304.965820	38087.820313	18066.291016	45.568306
529.245056	1305.848022	38392.945313	18192.443359	45.532265
529.592712	1304.965942	38621.097656	18306.464844	45.560719
529.940369	1302.209106	38808.785156	18391.705078	45.564003
530.287903	1298.239258	39002.093750	18467.462891	45.537048
530.635437	1300.003662	39242.042969	18567.148438	45.509270
530.982910	1296.254272	39534.929688	18674.333984	45.446342
531.330383	1298.349487	39778.742188	18800.707031	45.483829
531.677795	1296.364624	39893.535156	18867.089844	45.523346
532.025208	1296.805664	39896.734375	18859.810547	45.500092
532.372498	1296.144043	39700.453125	18763.984375	45.484062
532.719788	1294.379639	39259.023438	18562.515625	45.484783
533.067078	1295.261841	38522.738281	18205.453125	45.423954
533.414307	1297.577637	37499.183594	17721.796875	45.368759
533.761536	1299.782959	36364.812500	17138.566406	45.169739
534.108643	1298.790649	35301.566406	16573.750000	44.922680
534.455811	1298.349487	34402.292969	16128.690430	44.799316
534.802856	1298.459717	33658.390625	15788.498047	44.777714
535.149902	1300.996094	33076.042969	15519.763672	44.748219
535.496887	1300.665161	32572.203125	15290.949219	44.738075
535.843811	1298.790527	32153.277344	15103.815430	44.742359
536.190796	1300.113892	31807.683594	14952.080078	44.749435
536.537659	1300.885742	31473.228516	14825.820313	44.825600
536.884460	1301.216553	31187.402344	14692.388672	44.807228
537.231323	1303.973267	30885.589844	14558.077148	44.805202
537.578064	1306.950806	30573.738281	14404.685547	44.752895
537.924805	1308.274048	30209.177734	14251.408203	44.784531
538.271423	1307.502197	29892.691406	14099.010742	44.748730
538.618164	1308.935547	29722.433594	13996.014648	44.651592
538.964783	1312.795288	29751.984375	14030.642578	44.719444
539.311279	1312.354126	29938.345703	14138.379883	44.805523
539.657776	1313.787720	30217.447266	14284.270508	44.874878
540.004333	1312.023193	30474.714844	14408.329102	44.907742
540.350769	1311.030762	30722.937500	14511.212891	44.880402
540.697144	1310.920410	30910.619141	14582.005859	44.835205
541.043518	1307.501953	31016.039063	14641.994141	44.884377
541.389893	1307.832764	30991.449219	14635.158203	44.897915
541.736145	1312.243652	30870.919922	14581.565430	44.891464
542.082458	1311.030762	30728.115234	14512.866211	44.878124
542.428711	1313.677490	30558.958984	14442.179688	44.891010
542.774902	1311.030884	30414.613281	14365.320313	44.854580
543.121033	1314.559570	30309.851563	14312.388672	44.827377
543.467102	1315.772705	30228.580078	14266.957031	44.793938
543.813171	1314.449341	30173.115234	14231.559570	44.759899
544.159180	1314.118530	30124.265625	14206.417969	44.749165
544.505127	1316.103394	30064.390625	14166.498047	44.699688
544.851135	1315.882813	29946.505859	14123.161133	44.732796
545.197021	1314.228760	29733.347656	14019.837891	44.707962
545.542908	1312.574585	29327.765625	13857.736328	44.779854
545.888733	1313.125977	28734.279297	13593.522461	44.784393
546.234558	1312.574585	27955.421875	13214.845703	44.673420
546.580322	1314.449219	27086.472656	12801.432617	44.571522
546.926025	1314.449219	26190.398438	12371.149414	44.447350
547.271667	1315.331421	25366.664063	11999.421875	44.422035
547.617371	1312.464233	24569.062500	11656.253906	44.476799
547.962952	1309.376709	23836.634766	11335.912109	44.508457
548.308533	1316.875244	23176.984375	11038.729492	44.473038
548.654053	1318.749878	22597.058594	10782.785156	44.477386
548.999573	1316.985596	22105.242188	10549.779297	44.413509
549.344971	1317.426514	21676.394531	10351.178711	44.372345
549.690430	1313.456787	21303.451172	10180.807617	44.358944
550.035767	1313.897827	20995.458984	10049.583008	44.385128
550.381104	1314.338867	20720.439453	9936.223633	44.428730
550.726440	1308.715088	20440.898438	9815.804688	44.464813
551.071655	1308.053345	20193.007813	9694.504883	44.408108
551.416931	1305.737671	19905.525391	9561.736328	44.387600
551.762085	1305.958130	19601.064453	9438.341797	44.451145
552.107178	1303.752686	19293.402344	9287.158203	44.377769
552.452332	1302.539795	18985.742188	9144.354492	44.346119
552.797424	1304.304077	18713.041016	9026.031250	44.355473
553.142395	1299.011108	18451.914063	8908.040039	44.360008
553.487366	1300.113770	18255.408203	8819.932617	44.350857
553.832336	1301.106323	18065.296875	8731.824219	44.324940
554.177185	1299.782959	17916.652344	8672.277344	44.367527
554.522095	1301.326782	17807.810547	8623.095703	44.356926
554.866943	1304.745361	17704.042969	8577.223633	44.346283
555.211731	1306.068604	17624.757813	8535.871094	44.303818
555.556396	1300.885742	17547.566406	8490.328125	44.251762
555.901123	1302.760376	17476.771484	8460.995117	44.257637
556.245789	1303.201538	17389.656250	8434.750000	44.332630
556.590454	1305.406860	17291.294922	8403.101563	44.399754
556.934998	1303.642700	17206.494141	8347.854492	44.295277
557.279541	1307.722656	17093.353516	8290.292969	44.233711
557.624023	1306.620117	16953.750000	8215.859375	44.156593
557.968567	1311.361694	16822.525391	8163.479980	44.175396
558.312988	1313.567017	16687.994141	8105.477051	44.176674
558.657349	1316.213745	16581.359375	8054.531250	44.141850
559.001770	1315.000732	16496.228516	8007.333984	44.082951
559.346069	1317.757568	16420.470703	7976.568359	44.090160
559.690308	1318.970459	16366.767578	7953.961914	44.092773
560.034485	1318.529541	16310.417969	7920.438965	44.036541
560.378723	1321.727173	16279.982422	7903.677734	44.002129
560.722900	1318.970459	16237.306641	7891.547852	44.057041
561.067017	1315.662354	16214.701172	7883.829102	44.084499
561.411072	1315.110962	16186.361328	7871.037109	44.084568
561.755127	1317.206055	16158.242188	7842.146484	43.965530
562.099182	1316.213745	16149.860352	7840.933594	43.985947
562.443115	1316.103394	16154.382813	7851.960449	44.047272
562.787048	1318.198486	16166.845703	7874.566895	44.154648
563.130920	1317.536865	16204.117188	7893.092285	44.171028
563.474792	1314.559570	16275.242188	7914.705566	44.116611
563.818604	1309.817749	16366.658203	7950.323730	44.102917
564.162354	1314.890259	16455.423828	8009.650391	44.217468
564.506042	1312.133545	16567.021484	8057.727539	44.219231
564.849731	1311.582153	16664.722656	8108.784180	44.272388
565.193420	1309.376709	16735.189453	8146.386230	44.321877
565.537048	1304.304077	16789.001953	8176.049316	44.377651
565.880615	1304.965820	16818.666016	8198.655273	44.436138
566.224121	1303.201416	16827.597656	8214.535156	44.519180
566.567627	1303.642578	16828.146484	8222.585938	44.567886
566.911072	1306.509766	16823.736328	8238.245117	44.671227
567.254517	1305.848022	16856.265625	8256.660156	44.698555
567.597839	1307.612305	16881.408203	8278.164063	44.758205
567.941223	1305.847900	16914.271484	8287.095703	44.727436
568.284485	1305.186401	16938.753906	8301.872070	44.754250
568.627808	1306.289063	17000.615234	8333.850586	44.777721
568.970947	1304.855591	17070.197266	8371.784180	44.825726
569.314148	1310.589600	17146.837891	8395.713867	44.739914
569.657288	1314.449341	17232.078125	8412.916016	44.595001
570.000366	1315.772461	17313.900391	8442.800781	44.549141
570.343445	1316.213745	17378.958984	8462.870117	44.492123
570.686462	1319.301392	17399.359375	8463.532227	44.429138
571.029419	1319.521851	17410.937500	8458.458984	44.364876
571.372314	1314.559570	17389.546875	8440.816406	44.331337
571.715210	1314.780029	17336.173828	8433.977539	44.435570
572.058105	1315.441650	17284.566406	8413.247070	44.447056
572.400879	1318.308716	17266.921875	8398.911133	44.396351
572.743713	1316.985474	17250.712891	8397.036133	44.434364
573.086426	1315.882813	17256.779297	8403.763672	44.463501
573.429077	1315.993042	17280.599609	8395.604492	44.345669
573.771790	1313.456787	17288.978516	8397.036133	44.340206
574.114441	1308.825317	17280.158203	8381.818359	44.285553
574.457031	1309.376709	17246.634766	8362.851563	44.257767
574.799561	1306.399414	17192.378906	8336.496094	44.253468
575.142029	1312.684937	17144.080078	8303.194336	44.155991
575.484436	1316.103271	17057.294922	8266.474609	44.154034
575.826904	1311.471802	16940.076172	8206.596680	44.118622
576.169250	1314.890381	16794.847656	8137.014648	44.070690
576.511597	1309.266357	16627.013672	8065.337891	44.106167
576.853943	1303.863037	16422.126953	7990.682129	44.230076
577.196167	1302.980835	16207.315430	7891.326660	44.204224
577.538391	1300.885742	15981.145508	7791.640625	44.214169
577.880554	1295.923462	15774.605469	7703.423340	44.254719
578.222717	1297.798096	15546.340820	7605.832520	44.271435
578.564819	1298.459717	15335.276367	7510.666504	44.256523
578.906860	1297.798096	15149.357422	7407.561035	44.108845
579.248901	1294.489990	14957.482422	7327.613281	44.156673
579.590942	1292.505005	14756.014648	7242.813965	44.195824
579.932861	1296.474854	14573.073242	7156.360352	44.136951
580.274780	1295.813232	14376.127930	7054.799316	44.027889
580.616638	1297.577515	14177.304688	6973.969727	44.072300
580.958496	1300.665161	13971.095703	6880.458496	44.037914
581.300232	1301.988525	13802.267578	6795.658691	43.948376
581.641968	1302.760376	13638.404297	6723.208984	43.941353
581.983704	1300.885620	13495.599609	6653.848145	43.895760
582.325317	1296.915771	13360.736328	6600.254395	43.960693
582.666992	1296.474731	13243.408203	6545.008301	43.932056
583.008606	1298.018555	13132.584961	6500.238281	43.957840
583.350098	1295.482300	13037.419922	6466.272949	44.036945
583.691589	1294.710449	12956.919922	6430.435059	44.037323
584.033081	1295.813232	12896.602539	6394.155273	43.948235
584.374512	1293.276978	12835.179688	6363.168945	43.925964
584.715881	1293.607666	12787.429688	6335.160156	43.863152
585.057190	1291.512451	12741.335938	6310.348145	43.833305
585.398499	1289.086548	12694.800781	6292.705566	43.869408
585.739807	1291.071655	12657.087891	6280.464844	43.897465
586.081055	1291.622803	12628.416992	6270.540039	43.918209
586.422180	1291.622803	12602.281250	6255.542969	43.887100
586.763367	1289.637939	12593.017578	6245.508301	43.844143
587.104431	1289.196777	12593.017578	6237.238281	43.773178
587.445496	1290.189331	12597.098633	6236.355469	43.744633
587.786499	1287.211914	12592.797852	6241.648926	43.822914
588.127502	1283.021484	12621.468750	6253.116699	43.834003
588.468445	1284.234619	12627.754883	6262.821289	43.889256
588.809326	1284.124390	12634.040039	6267.894531	43.910194
589.150208	1287.322266	12639.332031	6277.598145	43.959404
589.491028	1290.740723	12626.099609	6278.590820	44.002575
589.831848	1290.299683	12624.998047	6283.663086	44.053783
590.172546	1291.291992	12613.971680	6283.552734	44.090805
590.513245	1289.307251	12605.810547	6273.187500	44.040817
590.853943	1289.307251	12610.994141	6271.312500	44.004093
591.194458	1290.189331	12623.235352	6267.894531	43.922043
591.535095	1288.645508	12624.227539	6268.334961	43.929722
591.875610	1289.527588	12644.406250	6276.164551	43.916248
592.216125	1291.622803	12648.376953	6287.082031	43.986679
592.556580	1291.071411	12667.343750	6292.925781	43.967430
592.897034	1287.763184	12700.867188	6296.785156	43.888344
593.237366	1287.652954	12718.510742	6303.622070	43.880955
593.577698	1288.535156	12771.110352	6324.683594	43.859051
593.918030	1289.307007	12819.409180	6349.605469	43.887714
594.258301	1292.284302	12873.332031	6371.108398	43.854618
594.598511	1292.063843	12952.838867	6415.217773	43.934933
594.938721	1294.379639	13037.417969	6452.270020	43.922966
595.278809	1299.231567	13118.026367	6486.344727	43.888683
595.618958	1298.790527	13172.391602	6514.022461	43.922916
595.958984	1299.011108	13228.298828	6521.300781	43.777042
596.299011	1302.098633	13252.007813	6528.688965	43.737492
596.638977	1299.011108	13278.141602	6529.130371	43.660255
596.978943	1297.908447	13289.832031	6518.212891	43.531837
597.318848	1300.665161	13285.533203	6504.428711	43.419449
597.658630	1300.113770	13271.526367	6501.450684	43.447983
597.998474	1298.128662	13238.885742	6481.711914	43.410843
598.338257	1297.356934	13184.189453	6468.479004	43.502945
598.677979	1298.680298	13151.439453	6445.983398	43.427048
599.017700	1297.026245	13096.192383	6421.172852	43.428040
599.357361	1300.444580	13052.415039	6399.228516	43.386631
599.696960	1305.737671	13013.156250	6376.732910	43.314373
600.036560	1307.171265	12965.298828	6367.139160	43.402920
600.376038	1303.973389	12926.591797	6354.457520	43.453930
600.715576	1303.422119	12884.029297	6337.255371	43.467781
601.055054	1302.870850	12840.801758	6320.494141	43.488068
601.394409	1301.878174	12806.395508	6310.679199	43.537685
601.733826	1303.752930	12760.414063	6283.332520	43.464493
602.073120	1301.878296	12756.113281	6273.187500	43.401493
602.412415	1297.577515	12743.873047	6267.453125	43.419071
602.751587	1296.915894	12771.220703	6285.978516	43.480305
603.090820	1298.459839	12801.544922	6311.231445	43.577629
603.429993	1293.166748	12848.080078	6331.191406	43.600712
603.769104	1292.063965	12883.807617	6355.229980	43.679070
604.108154	1293.828369	12909.392578	6371.550781	43.714817
604.447205	1296.144165	12946.553711	6397.023926	43.782841
604.786194	1298.349487	12976.877930	6410.697266	43.775616
605.125183	1302.319336	13007.534180	6422.275879	43.740818
605.464111	1300.665039	13028.486328	6430.105469	43.737370
605.802979	1299.562378	13050.870117	6447.087891	43.803852
606.141846	1300.113770	13074.911133	6464.069336	43.856007
606.480652	1297.908325	13114.829102	6484.358398	43.890030
606.819336	1295.702881	13167.648438	6509.611816	43.917900
607.158020	1295.261719	13228.960938	6535.194336	43.908703
607.496765	1300.003296	13292.807617	6563.424316	43.888157
607.835388	1301.216431	13331.182617	6579.082031	43.872658
608.173950	1305.076050	13348.386719	6591.322754	43.893635
608.512512	1303.201416	13325.559570	6577.098145	43.867405
608.851013	1301.216431	13280.789063	6555.263184	43.858383
609.189514	1304.965820	13184.080078	6511.154785	43.826408
609.527893	1305.186279	13073.698242	6459.988770	43.801655
609.866333	1304.414673	12945.449219	6380.261719	43.603062
610.204712	1303.091309	12806.505859	6318.508789	43.599380
610.542969	1304.304321	12678.920898	6262.049316	43.586044
610.881226	1305.627563	12564.238281	6207.905762	43.542480
611.219482	1303.532349	12470.395508	6165.781738	43.541767
611.557678	1301.547363	12383.722656	6119.577637	43.475491
611.895813	1299.011108	12310.279297	6082.525879	43.441994
612.233948	1298.018555	12237.611328	6049.665039	43.435314
612.571960	1302.098633	12167.256836	6023.861328	43.457836
612.910034	1306.619873	12098.998047	5987.140137	43.368759
613.247986	1306.730103	12027.210938	5949.207031	43.304749
613.585938	1308.935547	11942.411133	5908.405762	43.254627
613.923828	1305.737671	11822.654297	5867.053711	43.371227
614.261658	1308.715088	11693.414063	5805.520996	43.302223
614.599487	1306.730103	11548.295898	5744.429688	43.330288
614.937317	1307.943115	11424.239258	5680.802734	43.225895
615.275024	1307.612305	11309.556641	5619.491211	43.110409
615.612732	1306.399414	11213.178711	5572.846191	43.065933
615.950378	1305.627441	11119.227539	5538.330566	43.130993
616.288025	1302.429443	11032.443359	5503.815430	43.179649
616.625549	1303.421997	10971.901367	5473.711426	43.132839
616.963074	1304.414307	10919.523438	5457.501465	43.193340
617.300537	1305.517212	10871.445313	5422.875977	43.041920
617.638000	1305.296631	10823.035156	5399.277344	43.014217
617.975464	1309.266357	10790.614258	5380.530273	42.939716
618.312744	1310.369141	10753.563477	5363.989746	42.926373
618.650024	1309.486938	10720.259766	5352.191406	42.958263
618.987305	1308.274048	10683.428711	5336.090820	42.962673
619.324585	1305.958374	10658.507813	5330.907715	43.035851
619.661743	1302.429565	10644.723633	5324.291504	43.050045
619.998901	1299.783081	10616.824219	5314.255859	43.087421
620.336060	1298.018799	10589.255859	5310.837891	43.189285
620.673096	1295.151611	10567.752930	5299.259277	43.182140
621.010193	1298.459717	10548.125000	5284.703613	43.096088
621.347168	1296.254272	10527.833984	5278.528809	43.137516
621.684082	1297.908447	10493.208984	5263.861816	43.130219
622.020996	1297.356934	10457.591797	5251.952637	43.171337
622.357849	1298.128906	10433.993164	5241.586914	43.164585
622.694641	1299.562500	10412.929688	5229.457031	43.122311
623.031433	1303.863037	10391.095703	5218.540039	43.078869
623.368164	1305.296631	10386.905273	5206.740723	42.959835
623.704895	1306.619873	10376.759766	5211.703125	43.054279
624.041504	1307.832886	10383.927734	5210.048828	42.994438
624.378174	1305.737671	10402.343750	5231.882813	43.160545
624.714783	1311.692505	10445.901367	5242.358887	43.032368
625.051331	1308.715210	10478.101563	5255.812012	43.046463
625.387756	1309.156250	10514.711914	5268.713867	43.012695
625.724304	1309.486938	10534.119141	5276.212402	43.001453
626.060669	1310.589600	10552.314453	5289.445313	43.053173
626.397034	1310.369141	10560.364258	5293.966309	43.065937
626.733337	1310.369141	10564.333984	5291.541016	43.021255
627.069641	1307.502075	10570.950195	5297.716309	43.074829
627.405884	1309.486938	10560.474609	5289.225098	43.019608
627.742126	1308.935669	10550.439453	5283.380371	43.006474
628.078308	1308.053467	10538.639648	5274.227539	42.967739
628.414429	1304.524780	10513.057617	5263.090332	42.988014
628.750488	1304.414551	10493.319336	5253.055176	42.971832
629.086548	1301.767944	10460.126953	5244.233398	43.047726
629.422546	1299.121338	10419.546875	5224.935547	43.044197
629.758545	1297.798096	10365.293945	5208.946289	43.133717
630.094421	1294.710571	10318.648438	5186.450684	43.126854
630.430298	1293.497437	10264.283203	5167.814941	43.188160
630.766113	1293.276855	10200.986328	5137.048828	43.151073
631.101929	1292.615479	10124.567383	5107.165039	43.190334
631.437622	1293.166626	10043.185547	5064.158691	43.096962
631.773376	1288.865967	9950.115234	5029.863770	43.192360
632.109070	1292.725586	9856.714844	4996.120605	43.243809
632.444641	1292.946167	9763.423828	4956.753418	43.253845
632.780273	1293.387329	9687.446289	4919.480957	43.198338
633.115784	1294.489990	9618.195313	4883.642090	43.119644
633.451294	1297.246826	9549.165039	4853.978516	43.101879
633.786682	1299.121338	9481.458008	4819.903809	43.029057
634.122131	1302.650146	9403.604492	4785.830078	42.997158
634.457458	1301.106323	9351.556641	4757.048828	42.928562
634.792847	1303.311768	9290.575195	4729.590820	42.896782
635.128113	1303.201538	9227.279297	4696.399414	42.821358
635.463318	1304.414429	9176.002930	4669.162109	42.745472
635.798584	1300.775513	9127.813477	4639.278320	42.653465
636.133728	1301.657715	9074.221680	4615.238281	42.631756
636.468872	1304.965820	9012.358398	4596.712402	42.708950
636.803955	1305.737793	8963.067383	4570.468262	42.635365
637.139038	1303.201416	8913.554688	4541.796875	42.555126
637.473999	1305.406860	8849.266602	4515.221191	42.548702
637.808899	1305.958374	8783.101563	4485.447754	42.522781
638.143799	1307.391846	8715.173828	4461.959961	42.584515
638.478638	1309.156128	8654.302734	4437.479492	42.590343
638.813538	1309.156006	8589.573242	4410.021484	42.591866
639.148315	1305.516968	8517.233398	4373.631348	42.543468
639.483032	1306.509521	8454.048828	4344.850586	42.508911
639.817749	1303.421875	8386.782227	4315.187012	42.518875
640.152405	1302.098633	8323.044922	4283.208008	42.460220
640.487000	1301.547363	8252.250000	4253.654297	42.472065
640.821594	1301.326782	8187.410156	4224.653320	42.452675
641.156128	1299.121338	8138.338379	4200.062988	42.416283
641.490662	1297.687744	8078.791504	4175.251465	42.435036
641.825134	1298.569946	8018.140625	4153.858398	42.492126
642.159546	1298.459717	7977.560059	4133.678711	42.449112
642.493896	1302.760376	7925.291016	4115.593262	42.473686
642.828186	1301.216553	7883.938477	4101.588379	42.541245
643.162537	1299.562622	7849.974609	4079.093018	42.432907
643.496765	1293.718140	7814.246094	4060.126221	42.426140
643.830994	1292.505005	7780.061523	4050.312012	42.509178
644.165100	1293.387329	7751.059570	4044.908936	42.608562
644.499268	1292.615479	7734.409180	4034.543213	42.564659
644.833313	1291.071655	7720.955566	4031.455322	42.619492
645.167358	1288.535278	7705.075684	4024.839355	42.644539
645.501343	1287.652954	7682.139648	4017.671387	42.693317
645.835327	1287.873535	7662.069824	4007.857422	42.671795
646.169189	1289.638062	7648.727539	4000.028320	42.622299
646.503052	1289.417358	7636.818359	3997.160645	42.659084
646.836914	1293.387207	7626.342285	3988.338867	42.554409
647.170654	1295.041260	7611.676270	3987.787842	42.629448
647.504395	1296.584961	7607.376465	3986.684814	42.626980
647.838074	1296.695435	7601.641602	3989.441895	42.708477
648.171753	1299.562500	7598.995605	3986.685303	42.656582
648.505371	1300.665283	7600.097656	3991.426758	42.714348
648.838928	1301.988525	7603.184570	3993.521973	42.714642
649.172424	1304.635010	7610.131836	4001.571777	42.771198
649.505920	1302.870728	7606.382324	4000.358887	42.793419
649.839294	1308.274048	7598.001465	4002.453857	42.834602
650.172729	1310.920532	7596.127441	4004.658936	42.858387
650.506104	1314.890381	7600.207520	3998.924805	42.703243
650.839355	1317.536987	7584.989746	3993.190430	42.691242
651.172668	1318.308838	7565.913086	3981.612061	42.629192
651.505859	1316.875244	7542.977051	3980.509766	42.781738
651.839111	1319.080688	7527.979980	3966.946045	42.646290
652.172241	1321.175903	7515.959961	3954.595703	42.510277
652.505371	1319.521729	7502.616211	3943.016846	42.430130
652.838379	1320.845093	7475.930176	3930.114502	42.392097
653.171387	1319.632202	7461.924805	3925.594238	42.426537
653.504333	1318.088379	7438.988281	3912.471436	42.385647
653.837280	1318.970459	7418.918945	3909.163330	42.462540
654.170227	1319.080811	7399.731934	3901.885498	42.475788
654.503052	1315.662354	7379.772461	3895.821045	42.548016
654.835876	1315.441895	7365.657715	3887.659912	42.514484
655.168579	1312.243896	7348.234375	3884.903320	42.621994
655.501343	1312.574707	7332.906250	3879.610107	42.639435
655.833984	1310.920532	7323.863770	3876.411865	42.666145
656.166626	1312.464233	7319.673340	3878.727783	42.719734
656.499268	1313.456787	7342.720215	3886.998535	42.684181
656.831787	1312.684937	7376.904785	3895.489502	42.590881
657.164307	1311.912964	7422.889160	3916.662109	42.624107
657.496765	1311.140991	7469.424316	3935.739258	42.618992
657.829224	1311.361572	7518.275391	3956.249512	42.611961
658.161621	1315.110718	7566.463379	3974.554688	42.541897
658.493958	1317.095703	7605.831055	3987.566650	42.464355
658.826233	1310.920410	7635.494629	3999.034912	42.502697
659.158508	1310.479370	7661.739746	4012.819580	42.548096
659.490723	1311.140991	7680.155273	4022.633545	42.573193
659.822876	1310.479492	7699.012695	4033.440430	42.622631
660.154968	1306.399414	7700.555664	4032.668457	42.636887
660.487061	1307.943115	7699.343750	4035.315186	42.672527
660.819153	1303.642700	7693.719727	4035.645752	42.753834
661.151123	1305.406982	7679.934570	4028.257813	42.714554
661.483093	1308.935791	7668.576660	4016.237793	42.570045
661.815002	1310.479614	7652.807129	4008.188232	42.534992
662.146851	1312.354126	7623.915039	3999.365723	42.572853
662.478760	1314.008057	7595.354980	3986.354248	42.544159
662.810486	1311.802612	7558.523926	3965.071045	42.474579
663.142212	1309.597168	7505.482910	3942.575928	42.495598
663.473938	1306.730103	7453.654785	3918.095703	42.482475
663.805603	1306.840332	7388.263184	3887.550293	42.435955
664.137207	1307.060913	7295.854980	3852.593750	42.504932
664.468689	1306.730103	7208.187500	3825.355957	42.678032
664.800293	1304.965820	7131.107910	3786.098877	42.586208
665.131775	1304.083496	7048.623535	3755.774170	42.678623
665.463196	1302.539795	6980.255859	3721.699707	42.607979
665.794617	1304.965820	6923.795410	3697.439697	42.579578
666.125916	1309.156250	6865.902344	3674.392822	42.565136
666.457275	1308.715210	6822.564941	3654.543945	42.544296
666.788574	1305.627563	6776.801270	3631.607178	42.513355
667.119812	1306.730225	6747.910645	3623.226563	42.573414
667.450928	1307.612305	6727.731445	3615.507324	42.580154
667.782104	1311.582153	6713.063965	3608.560303	42.524960
668.113159	1308.384155	6691.230469	3600.289795	42.577953
668.444214	1304.414307	6669.286621	3591.799072	42.636333
668.775208	1303.311523	6650.980469	3580.220215	42.577591
669.106201	1304.414307	6636.645996	3568.090332	42.452698
669.437134	1303.311646	6629.367676	3554.416748	42.265888
669.768005	1302.870605	6622.200195	3550.115967	42.246777
670.098877	1300.444702	6610.951660	3546.808105	42.300354
670.429688	1303.201416	6591.874023	3540.743408	42.308193
670.760437	1299.893311	6567.504395	3536.883545	42.466881
671.091187	1298.349487	6559.564941	3527.730225	42.373875
671.421814	1296.033813	6542.692871	3514.497803	42.283363
671.752441	1295.261963	6521.189941	3511.520020	42.408894
672.083008	1292.946167	6507.185059	3507.330078	42.468018
672.413574	1293.607788	6493.731934	3496.744141	42.366993
672.744080	1296.033813	6466.936035	3490.568359	42.440071
673.074524	1293.828369	6440.581055	3474.137695	42.362812
673.404968	1297.467407	6416.541504	3466.197998	42.365677
673.735352	1301.437256	6396.582520	3458.479248	42.335239
674.065613	1303.752930	6375.410156	3449.326904	42.305183
674.395935	1302.429688	6351.700684	3435.873535	42.252514
674.726196	1301.657837	6320.494141	3417.347412	42.154980
675.056335	1304.414551	6304.504395	3406.871582	42.048386
675.386536	1304.745361	6292.815430	3401.799072	42.041382
675.716614	1306.840454	6281.346680	3400.475830	42.087296
676.046692	1308.274048	6279.913086	3402.239990	42.118217
676.376770	1310.259033	6268.334961	3405.658203	42.262344
676.706726	1312.023315	6257.638184	3400.916748	42.237289
677.036621	1310.038452	6262.820801	3395.292725	42.102688
677.366516	1310.258911	6260.616211	3397.719238	42.167873
677.696411	1314.338989	6274.068359	3401.027588	42.072628
678.026184	1313.787720	6291.381836	3405.658936	42.025745
678.355957	1312.464355	6305.166016	3417.457520	42.161404
678.685669	1312.464355	6330.639160	3424.404785	42.085827
679.015320	1309.817749	6346.187500	3423.963623	41.977577
679.344971	1306.730103	6362.838379	3440.173340	42.195366
679.674561	1305.406860	6371.991211	3449.436768	42.317062
680.004150	1301.547241	6394.928711	3458.478760	42.347736
680.333618	1299.231689	6410.145996	3465.536377	42.385857
680.663086	1299.672729	6424.701660	3471.050293	42.368103
680.992493	1298.680298	6430.987305	3465.757080	42.224220
681.321899	1298.569824	6429.002930	3470.388428	42.332073
681.651184	1298.128784	6429.994629	3477.666260	42.470669
681.980530	1296.585083	6419.849609	3481.967285	42.656052
682.309753	1295.372070	6412.682129	3471.270752	42.520359
682.638977	1290.850952	6387.650391	3463.992920	42.637386
682.968079	1288.314697	6361.735840	3451.200928	42.631714
683.297241	1288.976318	6340.563965	3441.717529	42.615139
683.626343	1288.865845	6318.619629	3434.880859	42.666405
683.955383	1293.056396	6279.803711	3423.853760	42.729206
684.284363	1294.048950	6252.235352	3407.864258	42.632835
684.613281	1292.284546	6209.890137	3395.623779	42.771618
684.942139	1296.144043	6166.111816	3379.303955	42.775642
685.271057	1299.231567	6128.619629	3358.572266	42.641857
685.599792	1301.657593	6088.370117	3345.119141	42.690292
685.928589	1305.737671	6056.721191	3336.738037	42.749054
686.257324	1310.810181	6019.118164	3318.874268	42.649376
686.585999	1310.699951	5994.527344	3304.979980	42.578003
686.914612	1310.810303	5948.323242	3291.968018	42.720264
687.243164	1310.369141	5912.043457	3269.251465	42.568905
687.571777	1307.281494	5879.072754	3254.916016	42.601128
687.900269	1308.825317	5843.344727	3238.926270	42.564617
688.228699	1309.707520	5811.365234	3224.701172	42.539745
688.557129	1305.186401	5783.466309	3201.764404	42.350594
688.885498	1306.950806	5757.552246	3180.481689	42.096127
689.213867	1310.920532	5727.668457	3174.085938	42.184101
689.542114	1311.140991	5706.827148	3158.978760	42.037529
689.870361	1310.369141	5686.095703	3144.312500	41.911743
690.198608	1305.737671	5651.470215	3133.284912	42.053837
690.526794	1305.296631	5620.042969	3120.383301	42.067055
690.854858	1302.870605	5598.098633	3104.062988	41.934734
691.182922	1300.775513	5560.605957	3087.081055	41.933723
691.510986	1300.224121	5533.919922	3065.247070	41.689884
691.838928	1297.908447	5499.404785	3044.405273	41.568451
692.166931	1297.687866	5463.015137	3027.423584	41.527008
692.494812	1296.695557	5415.708496	3004.707275	41.466534
692.822632	1295.702881	5372.591309	2981.108887	41.340500
693.150452	1293.056396	5328.923828	2963.245117	41.383636
693.478149	1296.144043	5291.430664	2940.529053	41.158123
693.805908	1294.379639	5266.067871	2925.200928	41.061161
694.133606	1294.710449	5228.244141	2916.710205	41.235180
694.461243	1296.585083	5198.580078	2907.557617	41.285866
694.788818	1295.261841	5180.605957	2909.652832	41.550785
695.116333	1293.938477	5170.019531	2902.484863	41.499298
695.443848	1295.261719	5164.505371	2911.527100	41.772129
695.771301	1292.284302	5178.620605	2921.341553	41.917557
696.098755	1289.748047	5203.322266	2934.133301	42.017479
696.426147	1293.166626	5236.514160	2954.644043	42.133678
696.753418	1293.717896	5275.661133	2978.683105	42.315147
697.080688	1297.687744	5332.451660	3000.958008	42.214867
697.407898	1298.569946	5386.485352	3025.217773	42.237854
697.735107	1301.768066	5424.308594	3049.478027	42.394005
698.062317	1303.201660	5465.219727	3067.342285	42.386665
698.389404	1306.289307	5499.735352	3083.331787	42.376659
698.716492	1305.407104	5531.273438	3094.358887	42.333374
699.043457	1303.863281	5551.122559	3095.461670	42.182457
699.370483	1305.406982	5568.545410	3100.534180	42.108112
699.697388	1309.597412	5572.294434	3108.473877	42.200428
700.024292	1313.677490	5568.766113	3105.716797	42.115204
700.351135	1314.008423	5560.936523	3101.416260	42.087074
700.677917	1318.860352	5549.137695	3097.777344	42.052017
701.004639	1319.191162	5533.699219	3090.940674	42.039299
701.331299	1319.963013	5514.731934	3080.354492	41.966351
701.658020	1321.286133	5491.244629	3061.277344	41.726822
701.984619	1319.963013	5453.972168	3043.192627	41.684223
702.311218	1319.742432	5411.186523	3020.917480	41.578842
702.637756	1319.191040	5359.027344	2995.334229	41.490372
702.964233	1319.411621	5287.901855	2962.803711	41.411015
703.290649	1316.213867	5216.665527	2924.980469	41.245647
703.617065	1319.080933	5132.086914	2887.156738	41.124401
703.943481	1320.624756	5047.287109	2845.915283	40.929131
704.269775	1320.735107	4959.289551	2807.981445	40.874649
704.596008	1319.522095	4881.105957	2772.804199	40.804375
704.922241	1317.095947	4814.500977	2739.391846	40.667175
705.248474	1316.323975	4747.565430	2711.603027	40.663971
705.574585	1315.882935	4687.687500	2691.753906	40.805180
705.900696	1316.103271	4637.072266	2677.418457	40.991505
706.226746	1314.559570	4597.925781	2664.737061	41.121746
706.552734	1311.692505	4570.799316	2643.344238	40.859406
706.878723	1306.068604	4551.612305	2634.081543	40.918041
707.204651	1302.649902	4529.888672	2627.685547	41.057873
707.530518	1301.547363	4516.986328	2616.437988	40.893036
707.856323	1302.098633	4510.700684	2605.410645	40.619308
708.182068	1301.988403	4514.008789	2601.440918	40.455921
708.507813	1299.341797	4509.597656	2601.882080	40.574345
708.833496	1301.106201	4522.278809	2606.292725	40.518986
709.159180	1301.878052	4538.268066	2611.696045	40.471573
709.484802	1303.091187	4550.949219	2621.069092	40.579914
709.810303	1303.752563	4569.696289	2627.906006	40.544281
710.135864	1306.178711	4579.620117	2632.096191	40.505306
710.461304	1306.288818	4591.309570	2631.434570	40.339039
710.786743	1305.627319	4600.352051	2635.404297	40.360794
711.112122	1305.847900	4608.181152	2636.947998	40.307869
711.437500	1305.406860	4615.128418	2636.507080	40.217892
711.762817	1308.825195	4614.136230	2638.051025	40.214848
712.088013	1307.171143	4618.546875	2637.389404	40.171165
712.413269	1309.266357	4613.364258	2635.184082	40.129494
712.738403	1312.133423	4616.562012	2627.685547	39.811787
713.063538	1313.125977	4610.276855	2625.369873	39.799328
713.388611	1312.243652	4604.983398	2633.309570	40.120567
713.713623	1309.817749	4597.154297	2629.780762	40.152966
714.038574	1312.243652	4596.713379	2628.016357	40.060429
714.363525	1310.258789	4590.096680	2625.590332	40.103554
714.688477	1305.847900	4579.951660	2629.670410	40.433125
715.013306	1306.730103	4555.581543	2623.164307	40.519985
715.338135	1307.391724	4534.299316	2616.327393	40.563156
715.662842	1306.068604	4507.282227	2602.763916	40.506367
715.987549	1306.950684	4475.633789	2585.009766	40.334076
716.312195	1308.274048	4442.441406	2568.579346	40.211803
716.636841	1303.863037	4403.735840	2555.236328	40.368538
716.961426	1300.003540	4372.087891	2546.635010	40.579334
717.285950	1297.687744	4341.210938	2539.798096	40.811596
717.610474	1293.497437	4300.630371	2526.124512	40.990112
717.934937	1293.056396	4265.012695	2512.229980	41.022594
718.259277	1292.615234	4230.827637	2501.202881	41.133434
718.583679	1291.291992	4202.046875	2488.852295	41.142601
718.908020	1288.535156	4169.406738	2470.326416	41.022003
719.232239	1286.881104	4142.720703	2460.071045	41.080387
719.556519	1287.542725	4115.262695	2453.013672	41.215923
719.880737	1287.322144	4084.717285	2435.701172	41.051731
720.204834	1284.344727	4055.274902	2414.528564	40.787163
720.528931	1288.755615	4025.060303	2398.759766	40.565811
720.852966	1286.440063	3988.890625	2381.887939	40.535351
721.176941	1288.424805	3950.295410	2367.442383	40.536064
721.500916	1289.307129	3919.970703	2353.658203	40.459415
721.824829	1284.675537	3898.798096	2342.520752	40.466549
722.148743	1284.785767	3867.370117	2328.185303	40.401371
722.472534	1288.535034	3844.874268	2322.010010	40.427925
722.796326	1289.417236	3823.701660	2311.754883	40.340290
723.119995	1288.424805	3799.882813	2305.909912	40.513721
723.443665	1293.056396	3787.201172	2297.860352	40.286514
723.767334	1294.820801	3769.006348	2285.730225	40.049923
724.090942	1294.600220	3758.751221	2275.585205	39.810265
724.414551	1299.231689	3752.686035	2271.615234	39.633244
724.737976	1300.223999	3747.503418	2268.527832	39.566544
725.061462	1302.539795	3747.393555	2266.763184	39.438900
725.384888	1302.870728	3747.834717	2266.763184	39.423588
725.708252	1303.311768	3747.503662	2274.482422	39.733814
726.031616	1303.863159	3752.465820	2269.850830	39.450569
726.354858	1302.981079	3753.017090	2268.417236	39.404976
726.678162	1301.878296	3762.721436	2269.850830	39.334995
727.001404	1305.517334	3766.580811	2276.467041	39.452446
727.324463	1307.281860	3771.102051	2283.634766	39.627602
727.647583	1309.928345	3778.269775	2288.045898	39.626511
727.970642	1306.179077	3790.069092	2294.331543	39.782455
728.293701	1308.715210	3792.384766	2292.897949	39.626156
728.616699	1309.707642	3797.126221	2297.529785	39.712746
728.939575	1309.928223	3815.431152	2305.028320	39.716579
729.262512	1305.958252	3825.686768	2305.579590	39.671787
729.585266	1305.627441	3834.950195	2314.952637	39.904957
729.908142	1304.193848	3854.909180	2319.915039	39.821033
730.230896	1302.098633	3868.252197	2322.671631	39.770535
730.553467	1304.193848	3887.329346	2326.751953	39.585926
730.876160	1301.106201	3901.333740	2335.573730	39.783730
731.198792	1296.695313	3912.360840	2334.470703	39.675385
731.521362	1294.159058	3927.357910	2335.022217	39.528469
731.843872	1293.056152	3925.152832	2335.683838	39.612061
732.166321	1289.968506	3925.152832	2332.816895	39.574020
732.488770	1291.732910	3926.476074	2326.310547	39.266735
732.811157	1289.196655	3919.639404	2328.626709	39.515400
733.133484	1288.755615	3912.250732	2328.516113	39.632645
733.455811	1290.299438	3894.386475	2324.215576	39.703594
733.778015	1290.961182	3877.845947	2313.629395	39.532810
734.100281	1289.527710	3869.685547	2306.020264	39.396526
734.422424	1286.660522	3857.666016	2298.301514	39.348068
734.744507	1290.189331	3842.668945	2293.890381	39.322590
735.066589	1288.645508	3832.192627	2292.126221	39.452019
735.388611	1291.512695	3820.062988	2286.833252	39.363289
735.710571	1290.630493	3804.293945	2277.680176	39.267376
736.032532	1292.505005	3794.038574	2279.113770	39.440155
736.354431	1292.284424	3781.467529	2271.946045	39.356750
736.676270	1293.276733	3765.367920	2264.447510	39.285393
736.998108	1298.900879	3751.914551	2258.052002	39.100929
737.319824	1297.687866	3736.807373	2257.169678	39.337219
737.641541	1301.547485	3717.729980	2249.450439	39.231430
737.963135	1302.209106	3696.888672	2244.377930	39.344254
738.284790	1303.311890	3671.305176	2237.210205	39.438389
738.606323	1303.532227	3660.498047	2230.704102	39.337521
738.927856	1305.517334	3650.022217	2227.836914	39.339630
739.249390	1307.391968	3639.436279	2225.852051	39.384331
739.570740	1311.913086	3628.740234	2215.155762	38.986191
739.892212	1310.810303	3617.933350	2211.847412	39.054577
740.213562	1308.604858	3610.214355	2205.120850	38.951702
740.534790	1310.479614	3603.818359	2202.695313	38.904659
740.856079	1306.730347	3588.931641	2200.048828	39.142845
741.177246	1304.304443	3578.455322	2198.725342	39.329884
741.498413	1306.399536	3569.964600	2189.352051	39.007164
741.819580	1307.943237	3562.245605	2181.081543	38.732086
742.140625	1309.707642	3551.989990	2171.928955	38.452847
742.461670	1307.722534	3536.992920	2169.171875	38.642654
742.782654	1306.950562	3515.489990	2159.467773	38.600948
743.103577	1309.155884	3498.728760	2153.733887	38.572731
743.424438	1309.707275	3477.335938	2144.360840	38.505375
743.745300	1305.847900	3448.003418	2137.413574	38.819107
744.066101	1304.745117	3421.758545	2127.489502	38.863445
744.386902	1303.421875	3399.924561	2115.689941	38.743954
744.707581	1302.649902	3381.399170	2108.301758	38.756569
745.028198	1302.429443	3367.504395	2097.164307	38.484554
745.348816	1299.562378	3355.815430	2088.783447	38.381516
745.669373	1297.357056	3337.620605	2078.528076	38.287750
745.989929	1295.261963	3316.558350	2074.888916	38.570641
746.310364	1293.497437	3301.892090	2075.881348	38.955685
746.630798	1294.159180	3289.431641	2074.116943	39.090290
746.951172	1290.409912	3286.343750	2074.447754	39.281754
747.271545	1286.109375	3276.529297	2075.440186	39.656498
747.591858	1290.299683	3275.537109	2073.786133	39.465630
747.912109	1295.261841	3266.936035	2069.816406	39.284103
748.232300	1291.512695	3258.555176	2065.957031	39.371002
748.552429	1294.159180	3245.542725	2061.325684	39.313980
748.872559	1289.637817	3235.066895	2061.656738	39.683735
749.192627	1293.387329	3235.287598	2057.797363	39.364021
749.512695	1293.166626	3236.941162	2055.591797	39.223949
749.832642	1293.938477	3234.956543	2050.959961	39.001259
750.152588	1295.592651	3234.625732	2047.982544	38.802322
750.472473	1295.592651	3243.116455	2046.438599	38.553879
750.792358	1297.246704	3246.204346	2046.879517	38.463268
751.112122	1298.570068	3241.242188	2046.548584	38.502560
751.431824	1300.775391	3249.181641	2047.872070	38.343990
751.751587	1300.334351	3246.093750	2051.290771	38.594517
752.071228	1299.452148	3243.447510	2047.210571	38.465031
752.390869	1300.665161	3240.911133	2045.556519	38.391594
752.710327	1303.752808	3238.595215	2041.917603	38.151157
753.029846	1303.201416	3238.595215	2035.191040	37.821224
753.349304	1304.524780	3236.610596	2029.566772	37.526386
753.668762	1305.186279	3230.545654	2027.140991	37.497139
753.988098	1304.965820	3223.157471	2022.289063	37.395805
754.307434	1304.193848	3213.674072	2016.003296	37.277657
754.626770	1303.862915	3210.917480	2013.577393	37.215218
754.946045	1302.760376	3209.262939	2015.010742	37.359005
755.265259	1299.011108	3208.050293	2017.547241	37.638626
755.584351	1300.885742	3207.277832	2012.033813	37.303349
755.903442	1299.562500	3202.756592	2012.364380	37.452927
756.222534	1298.459839	3192.391357	2011.261963	37.636108
756.541565	1296.033813	3191.288330	2009.718018	37.656380
756.860535	1295.813354	3191.178223	2011.813110	37.776356
757.179443	1294.820923	3185.995605	2008.835693	37.755093
757.498291	1297.467529	3183.789795	2007.181763	37.624229
757.817139	1300.665405	3188.752197	2003.763184	37.238636
758.135925	1302.540039	3184.892822	2001.778442	37.147045
758.454651	1301.657837	3183.569092	1996.044312	36.897938
758.773376	1305.958374	3179.820313	1995.933960	36.821049
759.092041	1306.178955	3185.002930	1997.477661	36.794224
759.410645	1302.540039	3189.193359	1997.147095	36.816891
759.729187	1301.547485	3180.482178	1998.139526	37.073776
760.047607	1301.768188	3185.223633	1995.933960	36.855968
760.366089	1305.406982	3187.319092	1998.690674	36.839325
760.684509	1305.186523	3201.543945	2001.116577	36.698254
761.002869	1305.627563	3227.237305	2012.474854	36.784122
761.321228	1304.193970	3265.833008	2032.764893	37.140926
761.639465	1306.840576	3313.470703	2058.017334	37.434738
761.957642	1306.730225	3365.739990	2080.512939	37.580334
762.275879	1304.965820	3409.297607	2098.487061	37.708942
762.593994	1303.752930	3447.561768	2116.351318	37.904423
762.912109	1302.539673	3483.180176	2130.466553	37.967140
763.230103	1305.296387	3503.359863	2143.258057	38.122723
763.548157	1302.649780	3515.710449	2156.601318	38.586903
763.866150	1302.980713	3529.274170	2164.430420	38.694347
764.184021	1301.326660	3539.860596	2168.621094	38.743858
764.501892	1298.018555	3546.587158	2179.096924	39.183968
764.819702	1295.923340	3544.491699	2181.412354	39.380123
765.137451	1296.474731	3548.792725	2186.374512	39.510399
765.455200	1292.504883	3554.416748	2187.587646	39.571957
765.772888	1293.607666	3544.161377	2184.500000	39.585472
766.090515	1293.828247	3534.347168	2180.861084	39.590508
766.408081	1295.371948	3534.897949	2179.096436	39.460339
766.725586	1293.938477	3525.415283	2177.773438	39.607624
767.043091	1294.269287	3515.600342	2173.693359	39.589958
767.360535	1294.820679	3500.824463	2167.958984	39.580090
767.677917	1293.497437	3468.404053	2154.505859	39.588291
767.995239	1291.512573	3422.089355	2128.040527	39.262981
768.312500	1292.174194	3362.983643	2097.605225	38.894501
768.629822	1290.299561	3302.553467	2072.132324	38.853584
768.947021	1290.520142	3246.204346	2056.032471	39.142941
769.264160	1294.379639	3190.406738	2030.228760	38.810055
769.581299	1294.379639	3148.392822	2007.071411	38.440491
769.898376	1292.505005	3111.230713	1989.758789	38.337490
770.215393	1292.174072	3077.928467	1969.468506	37.927635
770.532349	1292.504883	3049.698975	1953.699463	37.627861
770.849304	1291.512451	3019.925293	1941.238892	37.590927
771.166199	1290.740601	2998.863281	1926.021240	37.191746
771.483032	1287.542725	2981.770752	1915.986206	37.093204
771.799866	1288.645508	2961.260010	1906.171875	36.919827
772.116577	1291.622803	2940.528564	1902.091919	37.022682
772.433350	1293.938599	2928.509033	1898.232544	36.969589
772.749939	1294.931030	2919.025391	1893.711304	36.868565
773.066589	1294.048828	2905.131348	1887.756470	36.851475
773.383057	1297.357178	2888.811035	1883.566040	36.834801
773.699646	1298.680420	2876.460205	1872.207764	36.350277
774.016113	1300.885864	2860.029785	1864.819580	36.169445
774.332520	1303.201660	2851.208008	1857.431519	35.802814
774.648804	1308.494751	2842.055176	1857.100586	35.773342
774.965149	1307.943359	2831.689697	1854.012817	35.837296
775.281433	1313.126099	2820.993164	1845.963013	35.337128
775.597656	1313.677490	2814.156494	1840.669800	35.121605
775.913879	1312.905640	2807.540283	1837.141235	35.074497
776.229980	1314.449463	2797.836426	1833.723022	35.005939
776.546082	1312.023315	2787.691162	1830.304688	35.121819
776.862122	1315.882935	2780.854248	1826.445068	34.851341
777.178162	1317.978149	2771.812012	1828.098999	35.087975
777.494141	1315.331421	2767.621582	1827.216675	35.246761
777.809998	1314.780151	2755.822266	1823.798340	35.322922
778.125854	1316.544556	2750.309082	1821.703125	35.233021
778.441711	1317.426758	2744.133789	1820.048950	35.229530
778.757446	1316.323975	2737.847900	1817.733032	35.272644
779.073181	1313.567017	2733.547363	1814.094360	35.248894
779.388855	1316.323853	2727.702637	1809.793579	34.963665
779.704468	1315.552124	2723.623047	1806.926514	34.896992
780.020020	1310.258911	2717.888672	1802.625977	34.978451
780.335571	1311.251343	2708.736328	1803.728638	35.240257
780.651062	1310.479492	2703.222168	1804.500610	35.471096
780.966553	1307.722656	2697.708740	1804.169800	35.715981
781.281860	1301.657471	2686.020020	1798.435669	35.884979
781.597290	1301.767944	2678.631592	1794.245117	35.768044
781.912476	1299.231812	2675.102783	1793.473267	35.922077
782.227722	1300.775635	2666.060547	1785.092651	35.473698
782.542908	1299.011108	2654.923096	1780.240723	35.491215
782.858093	1299.452148	2642.682373	1774.727173	35.382992
783.173218	1302.539917	2640.256836	1768.441406	34.828106
783.488281	1300.003662	2639.595215	1763.920166	34.631191
783.803345	1299.562622	2630.883789	1754.877930	34.200260
784.118225	1301.547485	2618.202148	1750.577515	34.103859
784.433167	1302.208862	2609.821533	1751.900635	34.390289
784.748047	1303.532227	2603.425537	1746.276733	34.060066
785.062866	1306.619995	2590.193115	1743.850830	34.063572
785.377686	1305.958374	2579.276123	1740.101563	34.095432
785.692444	1306.619995	2568.689697	1740.101318	34.346859
786.007141	1305.517334	2564.830078	1738.226807	34.360764
786.321716	1308.825439	2558.765137	1738.447388	34.371414
786.636353	1311.141113	2562.073242	1742.968506	34.520451
786.950928	1309.487061	2567.256104	1746.828125	34.771175
787.265442	1308.715088	2574.313721	1746.938232	34.625759
787.579834	1304.414551	2570.674561	1750.246704	35.208580
787.894226	1308.163696	2576.850098	1752.231567	35.002178
788.208618	1304.193970	2578.834961	1752.231445	35.150093
788.522949	1305.517212	2574.424072	1747.379517	34.822281
788.837219	1302.870605	2574.424072	1747.489746	34.966610
789.151367	1303.752808	2579.937500	1750.026001	34.969326
789.465515	1301.657593	2579.937744	1750.026001	35.075912
789.779602	1299.893188	2571.005615	1750.577393	35.455887
790.093689	1303.973267	2559.427002	1754.216309	35.862972
790.407776	1300.554688	2555.016113	1753.334229	36.093540
790.721741	1299.672607	2549.943848	1750.246460	36.038090
791.035645	1298.018555	2541.562988	1741.865723	35.692104
791.349548	1296.695190	2534.615967	1739.439697	35.765175
791.663391	1293.938477	2536.270020	1738.226929	35.762470
791.977173	1296.805664	2532.630859	1733.705688	35.352898
792.290894	1296.254150	2521.714111	1728.412720	35.265011
792.604614	1298.790771	2510.466064	1727.971558	35.420444
792.918274	1299.231812	2501.754639	1721.796143	35.139816
793.231812	1298.680542	2485.764893	1704.373291	34.175564
793.545410	1298.459839	2473.083496	1696.433594	33.880959
793.858948	1300.113892	2456.983398	1693.015015	33.962440
794.172363	1304.524780	2451.690186	1688.273193	33.451881
794.485840	1302.209106	2442.427490	1684.634521	33.539665
794.799194	1308.494629	2439.449951	1684.634521	33.258598
795.112488	1307.171265	2438.126953	1685.296143	33.434101
795.425781	1309.156128	2435.370117	1685.295898	33.398605
795.738953	1305.958374	2428.533203	1685.737183	33.831047
796.052185	1307.061035	2428.753906	1686.178223	33.798664
796.365234	1307.171265	2428.754150	1684.634277	33.654491
796.678284	1305.627441	2429.966797	1677.135742	33.042362
796.991333	1308.825317	2427.540771	1678.789795	33.070473
797.304382	1309.927979	2429.305176	1676.805054	32.775108
797.617310	1312.023193	2428.974121	1675.592041	32.550117
797.930115	1312.574463	2422.468262	1677.687256	32.896191
798.242981	1314.890259	2417.726318	1676.364014	32.776745
798.555786	1313.236084	2413.425781	1675.040527	32.885643
798.868530	1317.205933	2412.764160	1671.842773	32.370422
799.181213	1313.346436	2411.110352	1662.800415	31.833254
799.493896	1313.125854	2406.479004	1662.138916	31.921349
799.806519	1316.985474	2406.037842	1667.211548	32.158791
800.119080	1318.198608	2402.068115	1660.815674	31.610546
800.431580	1315.000610	2392.033203	1651.993896	31.289051
800.744080	1313.897949	2382.329346	1640.966553	30.612036
801.056458	1315.000732	2373.948486	1636.445557	30.355116
801.368835	1312.133667	2360.054199	1628.946655	30.232540
801.681152	1314.890381	2348.144531	1621.117432	29.637146
801.993408	1316.765015	2338.440430	1612.957031	28.990814
802.305664	1319.962891	2329.397949	1603.694214	28.107933
802.617798	1320.845093	2318.812012	1598.511475	27.823206
802.929993	1320.403809	2310.431396	1599.173218	28.157742
803.242065	1321.396240	2301.058105	1601.599365	28.602024
803.554016	1318.418945	2295.985596	1600.055420	28.809952
803.865967	1318.639404	2289.479492	1600.386108	29.020918
804.177979	1316.103271	2288.045898	1601.378662	29.351053
804.489807	1314.890381	2288.045654	1600.165771	29.314478
804.801697	1311.251343	2286.281494	1596.195923	29.224182
805.113464	1310.369263	2280.547363	1595.644531	29.404423
805.425232	1306.730225	2282.311523	1594.762451	29.524164
805.736938	1305.627563	2277.900879	1601.158081	30.395826
806.048584	1300.554932	2273.269287	1602.150635	31.005577
806.360168	1297.467285	2267.535400	1601.819702	31.374334
806.671753	1296.915771	2257.280029	1607.333374	32.322903
806.983276	1298.790527	2257.831299	1608.766968	32.321507
807.294739	1300.223999	2252.979248	1612.957275	32.824093
807.606140	1301.437012	2248.568359	1608.766968	32.448505
807.917542	1301.326782	2247.906738	1607.884644	32.385838
808.228760	1301.216431	2242.393311	1605.458740	32.325733
808.540100	1300.223999	2231.917236	1608.436035	33.080849
808.851318	1297.026123	2225.080322	1607.112671	33.412548
809.162476	1297.356934	2217.361328	1603.914795	33.321346
809.473633	1297.246704	2212.840088	1595.754639	32.602676
809.784668	1291.071411	2206.113525	1589.138428	32.574131
810.095703	1295.813110	2194.975830	1584.617188	32.119225
810.406738	1298.570068	2186.594971	1577.008423	31.354792
810.717590	1302.870605	2174.465332	1569.178955	30.554150
811.028503	1303.311890	2163.548096	1560.246826	29.867952
811.339294	1303.201416	2153.733887	1558.703003	30.040192
811.650085	1302.209106	2148.661377	1555.836060	29.963528
811.960876	1299.231812	2137.082764	1554.512695	30.468533
812.271545	1301.988525	2129.143311	1549.550537	29.929346
812.582153	1309.045898	2126.496582	1543.816284	28.719822
812.892761	1307.281616	2116.902832	1540.949219	28.861349
813.203308	1302.980957	2115.579590	1534.884277	28.538483
813.513855	1303.973511	2111.058594	1529.039795	27.886314
813.824280	1303.311768	2107.530029	1524.298096	27.478403
814.134705	1301.988525	2105.765869	1524.518555	27.685532
814.445068	1301.437012	2096.943604	1520.548828	27.543684
814.755371	1301.437012	2098.156738	1524.739014	28.027674
815.065613	1299.562378	2102.016113	1523.746704	27.937353
815.375854	1302.980835	2101.354492	1527.937012	28.176804
815.686035	1302.208984	2104.111328	1529.480835	28.341587
815.996155	1303.311646	2104.442139	1534.332764	28.836889
816.306152	1308.053467	2105.544922	1536.427979	28.636610
816.616211	1306.840454	2114.036133	1538.192261	28.661180
816.926208	1303.091187	2117.675049	1541.721069	29.294699
817.236145	1303.752930	2126.166016	1547.675781	29.659409
817.546021	1304.524780	2139.619141	1556.387329	30.159771
817.855774	1305.186401	2151.638916	1559.695557	30.067741
818.165588	1305.958252	2168.951660	1569.730225	30.564772
818.475281	1309.928101	2192.218750	1580.426758	30.658678
818.784973	1305.406860	2222.102783	1591.564209	31.216169
819.094604	1299.231689	2250.112061	1606.561401	32.320545
819.404175	1298.790405	2295.434082	1624.204956	32.651043
819.713684	1298.680298	2358.620117	1653.317017	33.458195
820.023254	1297.577515	2484.661865	1720.473022	35.624722
820.332642	1295.923340	2704.766113	1829.863525	37.899204
820.642090	1295.923584	2994.231445	1966.822144	39.503941
820.951416	1296.144043	3298.804688	2109.514893	40.614513
821.260681	1292.725586	3552.982910	2218.243652	40.947464
821.569946	1293.497559	3751.914551	2306.020508	41.185974
821.879150	1294.159180	3915.779785	2364.575439	40.830326
822.188293	1295.592773	4045.460449	2419.711426	40.879009
822.497437	1298.018799	4152.204102	2459.630371	40.698532
822.806458	1298.018799	4247.811035	2495.468750	40.594383
823.115479	1298.790649	4328.861328	2527.117188	40.537884
823.424438	1300.334473	4405.721191	2556.008301	40.435345
823.733337	1295.813232	4468.245605	2575.085449	40.324650
824.042236	1296.144043	4520.073730	2589.200439	40.108082
824.351013	1295.372192	4567.932129	2608.387939	40.121975
824.659790	1297.467407	4607.079102	2624.377441	40.092617
824.968445	1297.908447	4665.522949	2647.424561	40.073357
825.277100	1301.106445	4735.656250	2684.365723	40.274834
825.585693	1304.635010	4822.220703	2722.850830	40.317875
825.894287	1309.376709	4879.562012	2749.205811	40.329254
826.202820	1314.890381	4901.395996	2749.867676	40.010456
826.511292	1313.787720	4834.019531	2712.264648	39.726841
826.819702	1316.213745	4662.435059	2625.039307	39.113541
827.128113	1320.073242	4409.911133	2502.195313	38.258385
827.436401	1319.962769	4141.618164	2374.830566	37.384716
827.744751	1321.506592	3911.148438	2274.041260	36.782486
828.052917	1322.057983	3731.293945	2190.895752	36.062794
828.361145	1319.521729	3583.308105	2132.781982	35.924778
828.669312	1320.183350	3465.977295	2084.483154	35.618507
828.977356	1315.993164	3366.732178	2048.864990	35.736961
829.285400	1312.464233	3275.867920	2010.379639	35.546200
829.593384	1310.920532	3197.353516	1977.959473	35.359802
829.901306	1307.833008	3122.257813	1948.627075	35.316650
830.209167	1312.133667	3057.858887	1929.218994	35.348366
830.517029	1312.795288	2998.532471	1907.384888	35.271786
830.824829	1314.669922	2946.704346	1888.638794	35.168919
831.132568	1311.802856	2898.073975	1866.363647	34.960026
831.440247	1308.935791	2841.724609	1841.221558	34.726620
831.747925	1308.384399	2783.059814	1815.307495	34.375233
832.055481	1305.848022	2716.786133	1789.944702	34.310272
832.363037	1306.178833	2668.706787	1769.213501	33.983498
832.670532	1304.635010	2628.898438	1757.304077	34.182705
832.977966	1306.178833	2611.034180	1746.607666	33.753078
833.285400	1308.825317	2591.847168	1739.550171	33.571125
833.592712	1306.840454	2572.659668	1735.690674	33.879265
833.900085	1307.391724	2552.700195	1730.507813	33.976810
834.207275	1302.760254	2539.798096	1725.214844	34.150497
834.514526	1301.767822	2527.668213	1723.891357	34.433754
834.821716	1302.760376	2517.964111	1720.142334	34.346664
835.128784	1303.091187	2508.921631	1712.533447	33.955212
835.435852	1306.399292	2503.297852	1703.380737	33.167511
835.742798	1308.163696	2494.696533	1703.600952	33.327122
836.049805	1307.722534	2485.323730	1697.536255	33.102356
836.356750	1309.597168	2474.847656	1697.426025	33.282875
836.663574	1306.950562	2463.930664	1691.140381	33.206261
836.970398	1307.060913	2452.021484	1688.162964	33.285168
837.277161	1304.524658	2437.244629	1679.231079	33.080235
837.583923	1305.075928	2424.122314	1669.968018	32.607414
837.890564	1308.053345	2396.774658	1657.727905	32.117912
838.197205	1308.604858	2354.650391	1636.445313	31.340935
838.503784	1311.692505	2308.005371	1607.222900	29.662409
838.810303	1309.376709	2257.059326	1585.057983	29.090042
839.116699	1306.509766	2211.626953	1565.429443	28.606205
839.423096	1309.046021	2160.791260	1548.888550	28.158951
839.729492	1308.715210	2120.541992	1531.465698	27.438179
840.035828	1304.745361	2089.996582	1517.240479	27.060781
840.342102	1302.760620	2067.500732	1502.794678	26.157129
840.648315	1308.494751	2039.601807	1493.421509	25.294073
840.954529	1311.692505	2021.517090	1479.858032	23.691139
841.260620	1313.015747	2003.432251	1472.800537	23.143246
841.566711	1310.258911	1989.207275	1465.302124	22.835789
841.872803	1309.707397	1968.365845	1462.104126	23.137444
842.178772	1312.795044	1954.250977	1451.848877	21.677847
842.484680	1310.920532	1935.394165	1447.437988	21.861204
842.790588	1312.574585	1921.830688	1436.631226	20.361986
843.096436	1313.567017	1911.354858	1429.353394	19.369143
843.402222	1314.118286	1899.996826	1426.596680	19.198244
843.707947	1315.551880	1889.300415	1421.083008	18.393272
844.013611	1315.993042	1878.162720	1414.356201	17.497059
844.319275	1313.125977	1861.070679	1406.747437	17.085932
844.624817	1314.118530	1844.529785	1396.381714	15.509321
844.930359	1311.913086	1820.380005	1388.552490	15.072643
845.235901	1311.030884	1800.530884	1376.201904	13.313794
845.541321	1315.993164	1778.035400	1368.923828	11.455807
845.846680	1311.913086	1765.354004	1358.117065	10.189636
846.152039	1311.472046	1751.459839	1351.390503	9.072628
846.457275	1316.323975	1736.793335	1346.097412	7.081000
846.762512	1318.308838	1724.553223	1340.142822	5.374594
847.067749	1316.654785	1716.392822	1334.518921	4.468961
847.372925	1315.110840	1705.365479	1333.305908	4.662358
847.677979	1313.125977	1699.410889	1329.446289	4.224942
847.983032	1314.669922	1687.391235	1326.027954	3.047326
848.288025	1310.369263	1681.767456	1318.860229	2.286216
848.592957	1309.045898	1679.782349	1322.719727	3.688288
848.897888	1312.905518	1675.812744	1323.381470	2.886675
849.202759	1312.133667	1675.151001	1324.373779	3.371771
849.507507	1308.715210	1670.739990	1325.145752	4.538513
849.812317	1308.825439	1668.093506	1324.153320	4.266419
850.117004	1308.163818	1667.211182	1326.027954	4.975426
850.421631	1305.958374	1663.682617	1325.255981	5.394548
850.726257	1304.745361	1661.146240	1321.727295	4.764841
851.030823	1304.635010	1660.154053	1321.286255	4.683644
851.335327	1303.421875	1660.264282	1324.484131	5.902397
851.639771	1301.326782	1656.404785	1324.925171	6.645973
851.944153	1296.805664	1654.419800	1325.586914	8.048130
852.248535	1297.136353	1657.507446	1324.594482	7.619404
852.552856	1295.041260	1663.792725	1326.138306	8.433064
852.857056	1291.733032	1663.131104	1322.168457	8.194826
853.161255	1286.770874	1662.579834	1322.719727	9.565725
853.465393	1284.124268	1660.594727	1320.845093	9.753973
853.769531	1279.382568	1652.765381	1318.970459	10.602494
854.073547	1280.044189	1649.788086	1319.080688	10.557713
854.377563	1280.375000	1644.715576	1322.829956	11.652547
854.681580	1280.485474	1645.156616	1324.814819	12.155978
854.985474	1280.926392	1640.194336	1320.073120	10.896249
855.289307	1279.492920	1640.525269	1316.985352	10.384785
855.593140	1276.736084	1639.312134	1311.692383	9.641094
855.896851	1277.066895	1640.525269	1310.920410	9.314276
856.200623	1276.736084	1638.981445	1306.840332	8.310458
856.504272	1275.633423	1635.783691	1305.406860	8.266949
856.807922	1278.169678	1635.452759	1304.414307	7.345612
857.111389	1280.044312	1639.312256	1307.722412	7.704027
857.414978	1278.390259	1637.768555	1310.369141	8.898390
857.718445	1279.382568	1635.121826	1303.642456	6.819570
858.021790	1284.565308	1632.585693	1301.878052	4.974635
858.325195	1287.322144	1635.452881	1299.672607	3.547651
858.628479	1291.071655	1630.380371	1300.113647	2.664828
858.931763	1289.637817	1624.315308	1299.121216	2.833593
859.234985	1288.866089	1626.410522	1301.878052	3.854889
859.538147	1291.071533	1623.763916	1304.193726	3.944242
859.841248	1294.710571	1626.410522	1305.847900	3.357652
860.144287	1297.687866	1629.828857	1303.752808	1.826014
860.447266	1298.459717	1628.615723	1301.988403	1.068794
860.750305	1296.915894	1632.585571	1295.923584	-0.295621
861.053223	1299.121338	1634.680786	1293.497437	-1.675978
861.356018	1295.592651	1635.342407	1297.026367	0.421992
861.658813	1294.489746	1634.460205	1294.159180	-0.097234
861.961609	1299.672607	1630.049316	1297.577515	-0.634153
862.264343	1299.562256	1629.056885	1298.790649	-0.234179
862.567017	1301.216309	1630.821289	1302.980957	0.535383
862.869629	1302.539673	1627.843994	1299.452148	-0.949119
863.172180	1302.429443	1623.322754	1297.908447	-1.408878
863.474670	1302.980713	1619.463135	1298.129028	-1.533003
863.777161	1304.083496	1617.037231	1293.828369	-3.276883
864.079590	1303.973267	1616.044800	1298.239258	-1.837402
864.381958	1302.760254	1622.330322	1298.129028	-1.449205
864.684265	1300.665161	1622.991943	1297.136475	-1.094754
864.986511	1297.246704	1621.889160	1299.342041	0.645429
865.288757	1299.341797	1621.338013	1302.319214	0.924675
865.590942	1301.988281	1621.117432	1301.216553	-0.241823
865.893066	1303.642578	1622.661133	1300.113892	-1.106107
866.195068	1301.988403	1619.352905	1298.349365	-1.146643
866.497131	1300.223999	1619.353027	1299.562744	-0.207206
866.799133	1304.193848	1623.874023	1301.768066	-0.758815
867.100952	1304.965698	1619.794067	1303.532471	-0.455241
867.402832	1306.619751	1616.816650	1303.311890	-1.066375
867.704651	1309.597168	1615.272827	1298.018921	-3.787756
868.006409	1309.045898	1617.808960	1296.585327	-4.035642
868.308105	1307.612305	1620.345459	1294.820923	-4.090190
868.609802	1310.810303	1620.896973	1293.938721	-5.440925
868.911438	1310.148682	1618.360474	1290.961182	-6.225427
869.213013	1310.479370	1617.478394	1292.505005	-5.854861
869.514465	1310.258911	1621.117432	1295.482300	-4.753484
869.815979	1312.133545	1620.345459	1297.467163	-4.758538
870.117371	1311.802734	1622.771362	1296.474731	-4.929115
870.418701	1315.000610	1624.425537	1296.915771	-5.844661
870.720093	1317.536987	1622.440674	1298.349365	-6.293011
871.021301	1319.080811	1621.558350	1298.680176	-6.744512
871.322571	1320.955322	1622.550781	1300.223999	-6.873884
871.623718	1319.301392	1625.638550	1300.995850	-5.975619
871.924805	1318.088379	1625.417969	1303.642334	-4.700506
872.225891	1318.970581	1625.528442	1302.429443	-5.395764
872.526917	1321.396484	1629.277588	1301.988403	-6.303759
872.827881	1323.491699	1626.631104	1302.429443	-6.948043
873.128784	1318.970459	1619.242920	1299.672607	-6.426780
873.429626	1317.867798	1620.345581	1302.208862	-5.176888
873.730408	1317.757568	1618.691406	1303.642456	-4.690437
874.031189	1314.338989	1621.338013	1306.950562	-2.406662
874.331848	1314.780151	1621.227661	1311.251343	-1.151521
874.632568	1311.692627	1620.786499	1312.684814	0.320999
874.933167	1311.251343	1620.896973	1314.338867	0.997115
875.233704	1309.156250	1623.102295	1317.206055	2.564073
875.534241	1308.494629	1626.630981	1319.852539	3.570139
875.834717	1307.171509	1627.513184	1317.205933	3.132413
876.135071	1303.752930	1634.570679	1316.213501	3.766597
876.435425	1302.539917	1634.019165	1318.970459	4.956733
876.735779	1304.635132	1635.893799	1318.088257	4.061214
877.036011	1298.901001	1636.004150	1320.403931	6.378739
877.336182	1297.246948	1638.650635	1319.191040	6.427608
877.636353	1294.931152	1645.928589	1318.529297	6.723167
877.936462	1294.931030	1651.001099	1317.757446	6.410653
878.236511	1297.908447	1661.366821	1319.632080	5.976924
878.536560	1297.798218	1679.782349	1329.777100	8.371783
878.836487	1297.246826	1703.049805	1346.869385	12.228239
879.136414	1294.379639	1762.486816	1373.996460	17.008245
879.436279	1291.843506	1852.138428	1413.032959	21.629583
879.736084	1293.276855	1963.513550	1461.442505	25.090487
880.035828	1290.961182	2086.908691	1514.483643	28.082563
880.335510	1293.938477	2202.694824	1567.083740	30.057041
880.635193	1293.276855	2303.594238	1614.390625	31.783455
880.934753	1297.797852	2393.576904	1652.103760	32.333698
881.234314	1296.474854	2473.193359	1684.854858	33.005344
881.533752	1298.569946	2539.467529	1712.533325	33.359997
881.833252	1297.798096	2600.889404	1732.713135	33.375637
882.132629	1298.570068	2658.892822	1759.289063	33.868359
882.431946	1298.680298	2704.766113	1776.822388	34.005184
882.731323	1299.893433	2746.559326	1792.922119	34.080341
883.030579	1298.459839	2780.192627	1804.721313	34.166855
883.329712	1298.018677	2813.053955	1815.086914	34.129124
883.628845	1298.790527	2833.675049	1823.357300	34.176304
883.927979	1298.900879	2847.128174	1828.981201	34.237888
884.226990	1299.452148	2858.045166	1830.855835	34.095089
884.526001	1296.144043	2861.684082	1831.076294	34.169182
884.824951	1296.695435	2855.398682	1827.216675	34.036064
885.123840	1295.702881	2838.306396	1816.740845	33.776531
885.422729	1297.687744	2793.645996	1794.906982	33.237507
885.721497	1300.223999	2709.948975	1758.848022	32.532871
886.020203	1301.216553	2605.962158	1707.901978	31.169710
886.318909	1302.760376	2484.331299	1655.742920	29.874004
886.617554	1302.980835	2367.773193	1602.701782	28.148300
886.916138	1302.980957	2268.858643	1557.931152	26.395702
887.214661	1300.554932	2181.522705	1522.754150	25.222174
887.513184	1301.106323	2099.369629	1487.908081	23.401020
887.811523	1298.018677	2028.905518	1456.259766	21.650558
888.109924	1303.752808	1794.686401	1412.591919	22.169823
888.408264	1292.174194	1871.105347	1389.434570	16.799990
888.706543	1294.489868	1690.478760	1345.435913	12.865523
889.004761	1331.541504	1743.740479	1289.858521	-10.112346
889.302979	1313.015747	1655.742920	1317.647217	1.351358
889.601135	1329.225830	1637.217163	1322.278564	-2.255669
889.899170	1282.911255	1678.900146	1357.014526	18.713472
890.197205	1313.015747	1667.321533	1357.014526	12.418306
890.495178	1299.121338	1597.849854	1294.489868	-1.550394
890.793091	1271.332642	1570.061157	1282.911255	3.875965
>>>>>End Processed Spectral Data<<<<<
