Jaz Data File
++++++++++++++++++++++++++++++++++++
Date: Thu Sep 26 04:32:45 2019
User: jaz
Dark Spectrum Present: Yes
Reference Spectrum Present: Yes
Processed Spectrum Present: Yes
Spectrometers: JAZA3541
Integration Time (usec): 100000 (JAZA3541)
Spectra Averaged: 1 (JAZA3541)
Boxcar Smoothing: 10 (JAZA3541)
Correct for Electrical Dark: No (JAZA3541)
Strobe/Lamp Enabled: Yes (JAZA3541)
Correct for Detector Non-linearity: No (JAZA3541)
Correct for Stray Light: No (JAZA3541)
Number of Pixels in Processed Spectrum: 2048
>>>>>Begin Processed Spectral Data<<<<<
W	D	R	S	P
190.543274	0.000000	0.000000	0.000000	0.000000
190.921555	0.000000	0.000000	0.000000	0.000000
191.299805	1296.805664	1336.172974	1104.600586	-488.235229
191.678024	1229.649658	1322.278564	1185.650879	-47.500053
192.056229	1345.435913	1313.015747	1176.387939	521.428467
192.434387	1331.541504	1278.279907	1148.599243	343.478729
192.812531	1303.752808	1324.594360	1153.230713	-722.221130
193.190659	1310.699951	1296.805664	1201.860962	783.336243
193.568741	1319.962891	1359.330200	1146.283569	-441.176514
193.946793	0.000000	0.000000	0.000000	0.000000
194.324829	1207.815674	1211.785522	1053.434204	-3888.850342
194.702835	1271.994385	1273.317627	1110.555298	-12200.267578
195.080811	1337.606445	1335.070313	1164.588867	6822.102539
195.458755	1337.827148	1332.203125	1166.353271	3048.953857
195.836685	1338.268188	1331.541626	1165.471069	2568.876953
196.214569	1339.811890	1336.172974	1164.919556	4806.165527
196.592422	1341.907104	1340.032471	1166.573608	9352.946289
196.970261	1342.679077	1342.127686	1168.779175	31538.365234
197.348068	1343.781860	1343.120117	1171.536011	26029.109375
197.725861	1344.222900	1342.127563	1172.307861	8204.649414
198.103622	1343.561279	1338.157837	1173.520874	3146.890381
198.481323	1340.253052	1337.496216	1172.638672	6079.955078
198.859039	1337.937378	1335.290771	1173.741333	6204.021973
199.236694	1335.070313	1335.621460	1176.387939	-28791.273438
199.614334	1333.416138	1335.511230	1178.593262	-7389.786133
199.991959	1329.115479	1337.937134	1181.681030	-1671.278687
200.369553	1324.373657	1337.826904	1182.232300	-1056.557983
200.747101	1322.499023	1341.355835	1182.893921	-740.343079
201.124619	1320.514038	1341.576294	1187.525513	-631.406860
201.502136	1316.323608	1346.538452	1186.532959	-429.559235
201.879623	1313.677246	1349.736450	1183.996704	-359.632294
202.257065	1311.030640	1351.500854	1189.510376	-300.270874
202.634476	1309.927979	1352.934570	1191.825928	-274.613831
203.011871	1305.186279	1354.809082	1193.921265	-224.221542
203.389221	1303.091064	1361.866455	1197.339722	-179.924530
203.766571	1304.745117	1367.931519	1201.750610	-163.001068
204.143875	1300.334229	1365.064331	1202.632935	-150.936417
204.521164	1296.254272	1365.284912	1203.073975	-134.983963
204.898392	1297.798096	1363.300049	1204.066406	-143.097549
205.275620	1298.459717	1368.703369	1202.412354	-136.734573
205.652817	1293.718018	1368.482910	1203.073975	-121.238777
206.029984	1293.607666	1372.673218	1202.302124	-115.480812
206.407135	1291.953613	1374.988892	1206.271973	-103.187035
206.784225	1292.394775	1374.437378	1206.933472	-104.166985
207.161301	1293.607910	1372.893555	1205.279541	-111.405251
207.538376	1298.570190	1373.555176	1203.845947	-126.324280
207.915405	1302.209229	1370.798462	1205.610352	-140.836792
208.292404	1303.422119	1370.798584	1204.838379	-146.317764
208.669373	1305.406860	1366.718506	1204.066406	-165.287445
209.046310	1302.319336	1363.961670	1200.427490	-165.295242
209.423218	1303.863159	1361.645874	1202.632935	-175.191193
209.800095	1305.737793	1357.124756	1204.617676	-196.781662
210.176956	1308.715210	1353.265137	1202.522583	-238.367676
210.553787	1308.163818	1355.911743	1200.427368	-225.635880
210.930603	1309.597412	1356.242554	1201.860962	-230.970352
211.307358	1315.221313	1353.485718	1201.199219	-297.984772
211.684113	1317.316406	1349.846680	1197.008789	-369.832794
212.060837	1316.985596	1348.413086	1198.883545	-375.792175
212.437531	1316.765015	1350.839233	1199.655518	-343.689453
212.814178	1314.008179	1354.037109	1196.898804	-292.561829
213.190826	1312.574585	1351.280273	1194.583008	-304.842987
213.567413	1313.125977	1352.383057	1195.906372	-298.594818
213.943985	1310.258789	1357.345337	1194.693237	-245.432205
214.320541	1309.266479	1357.124756	1191.495483	-246.082825
214.697052	1307.612305	1361.315186	1189.731079	-219.506332
215.073563	1309.266357	1363.300049	1188.848877	-222.856293
215.449997	1303.863159	1360.874023	1190.172119	-199.419952
215.826431	1301.326904	1362.086914	1184.879150	-191.651962
216.202850	1300.334351	1364.954102	1187.194702	-175.085251
216.579224	1298.459717	1369.695923	1189.069336	-153.560089
216.955582	1300.885742	1374.989014	1192.267090	-146.577408
217.331894	1300.554932	1374.217041	1188.076782	-152.694717
217.708191	1300.003418	1376.863647	1188.187012	-145.480194
218.084442	1300.113770	1383.480103	1188.407593	-133.994354
218.460678	1296.915771	1384.141602	1190.392456	-122.123589
218.836899	1295.041260	1385.685303	1189.510376	-116.423409
219.213074	1292.615234	1387.339478	1190.392334	-107.916306
219.589233	1294.269287	1392.191650	1192.046631	-104.391533
219.965347	1296.805542	1398.697510	1187.304932	-107.467361
220.341431	1295.592529	1399.359131	1184.548218	-107.013535
220.717499	1296.254150	1400.241455	1184.548218	-107.422661
221.093552	1295.041260	1402.336548	1186.092163	-101.541359
221.469543	1299.011108	1407.078247	1186.643433	-103.979507
221.845535	1302.980835	1407.409058	1186.422852	-111.615402
222.221466	1305.296631	1411.709595	1188.959229	-109.326340
222.597397	1305.186279	1417.884766	1190.613159	-101.663406
222.973297	1302.760376	1426.706543	1193.259766	-88.345299
223.349167	1300.554932	1437.403076	1194.583008	-77.437607
223.725006	1297.467285	1446.996826	1198.773315	-66.002991
224.100800	1295.041260	1454.385010	1202.633057	-57.992989
224.476578	1295.372070	1465.081543	1202.632935	-54.645821
224.852325	1297.577515	1475.778076	1200.537720	-54.455379
225.228058	1298.680298	1495.847778	1205.389648	-47.315434
225.603760	1297.577637	1523.195313	1206.933594	-40.175949
225.979416	1295.261963	1552.086792	1210.572510	-32.975571
226.355057	1295.372192	1590.351318	1216.527222	-26.729000
226.730652	1296.805664	1642.069214	1220.938232	-21.973774
227.106232	1296.915894	1691.912231	1228.657227	-17.280836
227.481796	1294.159180	1736.903687	1235.824829	-13.175624
227.857315	1292.946167	1778.145630	1242.661865	-10.363635
228.232788	1296.033813	1815.638184	1251.704224	-8.531412
228.608246	1296.695435	1848.058350	1258.761475	-6.880035
228.983704	1297.026245	1883.345459	1264.054688	-5.623482
229.359100	1297.577637	1916.206665	1272.986694	-3.975071
229.734482	1293.166748	1945.870117	1282.800903	-1.588140
230.109833	1290.189453	1973.768921	1287.211914	-0.435581
230.485153	1290.189331	1989.979126	1291.402222	0.173322
230.860443	1289.527710	2012.585205	1296.143921	0.915033
231.235703	1293.166748	2031.331421	1299.010986	0.791726
231.610931	1293.607788	2055.481445	1301.216431	0.998675
231.986145	1293.056396	2079.300049	1300.665039	0.967721
232.361313	1290.189209	2098.708252	1303.863037	1.691219
232.736465	1287.983765	2121.313965	1313.567017	3.070002
233.111572	1285.888550	2134.656982	1318.529297	3.845660
233.486664	1288.865845	2141.052734	1324.153198	4.140800
233.861725	1290.409668	2141.604248	1324.925171	4.054949
234.236755	1292.284302	2138.957520	1325.035400	3.868210
234.611771	1296.474731	2120.873047	1330.990112	4.186736
234.986740	1298.900635	2101.023926	1334.298218	4.412985
235.361679	1299.782959	2083.710938	1335.842041	4.599795
235.736588	1298.570068	2073.235107	1340.693970	5.437692
236.111496	1297.908447	2069.375488	1344.222778	6.003410
236.486343	1298.459717	2071.139893	1349.626099	6.621935
236.861160	1301.106323	2071.250000	1350.618652	6.428973
237.235962	1300.334351	2079.961426	1354.919312	7.001420
237.610733	1302.760376	2089.996338	1359.991821	7.269923
237.985474	1301.437134	2106.978271	1372.893677	8.870626
238.360199	1300.665283	2140.501221	1386.567627	10.228467
238.734879	1301.767944	2177.662842	1397.374390	10.915287
239.109543	1300.334473	2227.616455	1414.135742	12.272563
239.484177	1304.635132	2281.650146	1438.395630	13.690731
239.858749	1310.810303	2350.680908	1469.271973	15.238595
240.233322	1311.361694	2434.047119	1501.140869	16.904037
240.607864	1313.126099	2511.899414	1533.891724	18.415960
240.982391	1314.559570	2592.618896	1565.981201	19.672140
241.356857	1316.213745	2651.063232	1592.336304	20.685671
241.731308	1315.000610	2704.435059	1613.508789	21.484150
242.105728	1317.977905	2744.684814	1634.901611	22.213652
242.480118	1312.354126	2785.926758	1657.176758	23.400450
242.854492	1310.479492	2835.880127	1675.040527	23.899363
243.228836	1309.045898	2893.442383	1696.984985	24.484976
243.603134	1312.905518	2957.290283	1731.169434	25.435890
243.977402	1312.023193	3046.721436	1766.897705	26.222113
244.351654	1310.920532	3168.241699	1814.425049	27.109179
244.725861	1310.810303	3315.235107	1880.588501	28.426020
245.100067	1311.912964	3466.970215	1939.474121	29.120396
245.474213	1311.361694	3603.377197	1998.690430	29.987961
245.848343	1316.985474	3710.341553	2041.917603	30.289356
246.222443	1318.198486	3794.700195	2082.056641	30.844240
246.596512	1318.419067	3855.019287	2118.226318	31.530680
246.970566	1321.286133	3892.181641	2144.140381	32.006523
247.344574	1320.845093	3904.862793	2155.939453	32.317673
247.718567	1317.206055	3891.740234	2162.004395	32.813637
248.092529	1318.749756	3859.430420	2161.012207	33.151054
248.466431	1315.441650	3833.075195	2157.483154	33.445755
248.840332	1313.236206	3807.051025	2152.410645	33.650230
249.214203	1311.030640	3809.476563	2156.270264	33.830616
249.588043	1313.787598	3825.797363	2169.172363	34.051807
249.961838	1310.038330	3853.696045	2185.382324	34.412807
250.335617	1313.677124	3886.888428	2197.622559	34.351837
250.709381	1313.456665	3901.664795	2202.143555	34.335991
251.083084	1318.198608	3899.569824	2206.113525	34.397026
251.456787	1314.780029	3882.367188	2196.078613	34.323997
251.830460	1316.434204	3829.656738	2181.081543	34.403931
252.204071	1313.456787	3746.069824	2150.866943	34.424305
252.577667	1310.038452	3638.995117	2105.434570	34.152466
252.951248	1310.369263	3513.615234	2057.907227	33.928936
253.324799	1308.604858	3406.099365	2015.562500	33.704861
253.698303	1305.737671	3326.152100	1988.986572	33.817265
254.071793	1305.296631	3267.817627	1964.395874	33.584316
254.445236	1304.083618	3233.853760	1944.105713	33.165718
254.818665	1300.113770	3219.959473	1933.850220	33.009758
255.192062	1300.003418	3219.077393	1934.071045	33.040291
255.565430	1300.444458	3243.888672	1944.326294	33.130966
255.938782	1301.878052	3283.365967	1960.977661	33.262863
256.312103	1304.745117	3340.266846	1977.628662	33.057056
256.685364	1306.730225	3419.442383	2007.291992	33.159355
257.058594	1304.965820	3518.357178	2037.396362	33.090874
257.431793	1302.098633	3646.714600	2077.094727	33.054287
257.804993	1302.760254	3790.178955	2126.717285	33.124985
258.178162	1299.672729	3928.240234	2171.598145	33.171127
258.551270	1298.128906	4052.517578	2224.529053	33.633602
258.924377	1294.379639	4145.587402	2264.668213	34.030792
259.297485	1293.938599	4222.999023	2295.764648	34.202980
259.670502	1293.056396	4286.625977	2311.313477	34.014812
260.043518	1295.151489	4346.063477	2332.595947	34.004402
260.416473	1298.569946	4394.473145	2354.430176	34.105076
260.789459	1297.026123	4449.830078	2374.610107	34.178593
261.162354	1297.246704	4497.467773	2392.805176	34.233837
261.535278	1298.349365	4541.796875	2402.398682	34.039375
261.908142	1298.790527	4576.092285	2415.410889	34.071331
262.280975	1301.216553	4595.279297	2425.776367	34.138992
262.653717	1302.870605	4609.834961	2429.746338	34.075836
263.026520	1300.113892	4627.809570	2428.643555	33.913246
263.399261	1297.357056	4643.688477	2418.277832	33.497002
263.771973	1296.915894	4654.495605	2413.866943	33.266556
264.144653	1298.239258	4653.502930	2408.904785	33.102184
264.517334	1301.106323	4633.103027	2396.112793	32.863373
264.889954	1302.208862	4586.678223	2383.210938	32.912533
265.262543	1305.627563	4506.179199	2358.620117	32.900345
265.635071	1308.053589	4405.610840	2313.187988	32.449261
266.007599	1311.802856	4310.224609	2278.782959	32.249634
266.380127	1312.133545	4240.201660	2242.613770	31.777956
266.752594	1315.882935	4205.575684	2221.220947	31.329905
267.125031	1315.000732	4197.084473	2211.627197	31.110353
267.497437	1313.236328	4212.963867	2214.604736	31.084589
267.869843	1316.544556	4239.098633	2217.141113	30.815393
268.242218	1313.567261	4277.473633	2221.221191	30.623571
268.614532	1311.913208	4335.697754	2240.739502	30.717342
268.986816	1312.354126	4430.973633	2265.991699	30.578836
269.359100	1311.471924	4539.150879	2296.757568	30.526134
269.731354	1310.038452	4652.510742	2322.230469	30.282736
270.103516	1311.030762	4749.219727	2349.798584	30.212645
270.475708	1311.361572	4830.049805	2375.491943	30.242247
270.847839	1314.890381	4902.499023	2401.847168	30.297529
271.219971	1318.419067	4961.053711	2423.901611	30.348433
271.592041	1320.403809	5006.596191	2434.929199	30.235140
271.964081	1321.065552	5036.369629	2444.191895	30.229727
272.336151	1316.434204	5064.048340	2449.154297	30.225098
272.708130	1316.654785	5090.182129	2448.933838	30.005852
273.080109	1313.015869	5107.385254	2448.161865	29.916592
273.452026	1311.582275	5141.238770	2455.880859	29.879927
273.823914	1310.369263	5176.085449	2462.497314	29.803740
274.195770	1310.369263	5215.893555	2474.847656	29.816185
274.567627	1309.376831	5261.987793	2481.353516	29.650698
274.939423	1310.700073	5304.332031	2489.955078	29.528385
275.311249	1312.243896	5345.464355	2501.864502	29.495552
275.682983	1310.479492	5376.120117	2514.435547	29.612947
276.054688	1309.707520	5401.151855	2520.280029	29.587902
276.426422	1307.943115	5403.577148	2512.009521	29.398779
276.798065	1312.243896	5370.495117	2498.446045	29.229391
277.169708	1313.236206	5325.172852	2483.228516	29.162783
277.541321	1317.757446	5277.536133	2472.642090	29.165382
277.912903	1316.985352	5267.832031	2465.033447	29.058281
278.284424	1316.764893	5279.741211	2463.489502	28.935944
278.655945	1315.882813	5301.685547	2467.348877	28.889189
279.027435	1312.574707	5332.010254	2473.193604	28.875172
279.398865	1310.920532	5391.226563	2490.065186	28.898436
279.770294	1307.502075	5467.424805	2514.435547	29.013361
280.141663	1310.810303	5539.763672	2543.657715	29.152544
280.513031	1313.015869	5615.631348	2573.210693	29.289043
280.884369	1315.993164	5680.912598	2600.227539	29.421721
281.255676	1314.559570	5725.462402	2618.091797	29.552504
281.626953	1313.787720	5763.727051	2632.868408	29.642666
281.998199	1316.654907	5805.189453	2649.078613	29.685049
282.369385	1313.346680	5856.245605	2667.052979	29.798292
282.740540	1313.236328	5915.572754	2690.982178	29.935791
283.111694	1311.802856	5983.280273	2713.808594	30.012041
283.482819	1310.479492	6070.064941	2737.958252	29.991661
283.853912	1314.559570	6165.339844	2772.694092	30.059793
284.224945	1315.441772	6257.858398	2816.251953	30.365919
284.595978	1313.346436	6348.502930	2857.383545	30.665129
284.966980	1311.030762	6425.914551	2894.104248	30.950331
285.337952	1309.817749	6500.238281	2926.083252	31.139395
285.708893	1306.730103	6535.746094	2952.438232	31.472616
286.079803	1305.406860	6558.352051	2976.588135	31.814177
286.450684	1304.745239	6574.893066	2996.988770	32.109982
286.821533	1307.391846	6588.677246	3025.549072	32.532940
287.192322	1306.399414	6596.506836	3048.927002	32.939362
287.563110	1307.391968	6602.571289	3059.623535	33.091072
287.933868	1303.642700	6627.272461	3092.705078	33.606064
288.304596	1299.672852	6668.735352	3125.456055	34.005623
288.675262	1300.885742	6725.304199	3169.013672	34.439228
289.045929	1301.326782	6777.683594	3214.556152	34.936169
289.416565	1300.113770	6826.645020	3255.136475	35.375221
289.787170	1296.805664	6843.957520	3286.564453	35.869919
290.157745	1293.718018	6845.170898	3324.387939	36.579071
290.528259	1293.497437	6840.870605	3356.256592	37.184433
290.898773	1294.820801	6830.614746	3385.919678	37.774147
291.269226	1294.269287	6813.852539	3414.921875	38.420521
291.639679	1290.630371	6797.202148	3447.782715	39.174145
292.010101	1294.820801	6810.876465	3482.077637	39.652554
292.380463	1293.828369	6840.539551	3522.878418	40.186878
292.750824	1298.680298	6882.332031	3576.029785	40.786026
293.121155	1300.775391	6928.756836	3628.520020	41.360203
293.491455	1307.502197	6990.068359	3689.721436	41.921539
293.861725	1310.920532	7072.000977	3747.282715	42.290024
294.231964	1313.125977	7184.479004	3811.461670	42.551277
294.602142	1314.669678	7298.721680	3877.625000	42.829765
294.972321	1314.669800	7398.077148	3944.891357	43.235996
295.342468	1316.213623	7496.991699	4018.332520	43.718102
295.712555	1317.095825	7559.295410	4065.198242	44.024586
296.082672	1318.419067	7583.776855	4108.866211	44.537716
296.452728	1315.882813	7585.761719	4127.392090	44.841526
296.822693	1319.080688	7589.400879	4145.367188	45.074039
297.192657	1321.065552	7589.180664	4159.592285	45.285175
297.562622	1322.388916	7606.824219	4179.993164	45.471138
297.932556	1326.027954	7627.886230	4194.438965	45.516911
298.302460	1328.233398	7634.833496	4199.952148	45.535133
298.672333	1327.792358	7640.347656	4210.868652	45.672096
299.042145	1329.005127	7636.597656	4218.256836	45.805931
299.411957	1330.218140	7623.033691	4218.477539	45.897728
299.781677	1326.027954	7584.768555	4208.442383	46.054226
300.151428	1326.579224	7523.125977	4188.372559	46.183681
300.521149	1326.248291	7458.727051	4157.827637	46.173489
300.890839	1322.829956	7386.829590	4124.304688	46.198463
301.260468	1317.095825	7310.961914	4086.040283	46.196301
301.630096	1318.418945	7223.515625	4050.091553	46.259575
301.999695	1319.080688	7102.436523	4008.298096	46.499252
302.369232	1316.323975	6976.063965	3956.800537	46.653671
302.738739	1314.449219	6859.727051	3900.231445	46.630344
303.108246	1310.699951	6722.106445	3839.912109	46.738537
303.477692	1311.251343	6610.841309	3781.577637	46.613537
303.847137	1311.361816	6522.182129	3729.309082	46.402431
304.216553	1311.361572	6456.680176	3693.469971	46.296619
304.585876	1310.369141	6397.794434	3663.696045	46.257721
304.955231	1309.597046	6350.267090	3639.215820	46.216450
305.324493	1306.619751	6311.010254	3617.492188	46.176903
305.693787	1306.178711	6280.244629	3602.495117	46.165783
306.063049	1306.509521	6274.399414	3600.951660	46.185448
306.432251	1307.391846	6272.414551	3602.936279	46.234322
306.801422	1305.627319	6267.783691	3599.738037	46.232136
307.170593	1304.524658	6268.334961	3607.347168	46.392231
307.539673	1303.642456	6275.171875	3611.758301	46.426674
307.908783	1304.304077	6290.831055	3621.572998	46.470600
308.277832	1302.650146	6307.150879	3631.056152	46.526237
308.646851	1300.444702	6338.357910	3649.581787	46.629173
309.015839	1303.973389	6378.717773	3665.901855	46.542809
309.384796	1298.239258	6410.586914	3683.435547	46.655598
309.753723	1295.151733	6446.205566	3696.557617	46.619701
310.122620	1294.600220	6472.339844	3710.562012	46.660553
310.491486	1296.144165	6484.690430	3722.251221	46.758896
310.860352	1299.342041	6501.231445	3731.844971	46.761909
311.229126	1299.452148	6515.456055	3735.373535	46.700912
311.597931	1298.680298	6523.726074	3746.841797	46.854355
311.966675	1300.224121	6544.016602	3757.869385	46.867706
312.335388	1300.665161	6579.523926	3774.300293	46.859280
312.704071	1298.680298	6617.236816	3799.993652	47.029930
313.072723	1301.326904	6632.564941	3813.336670	47.118690
313.441345	1301.988525	6630.139160	3819.291016	47.245335
313.809875	1302.650146	6611.061523	3809.586670	47.225742
314.178436	1298.459839	6573.018066	3792.273926	47.280056
314.546967	1304.193970	6535.194824	3776.725830	47.266895
314.915466	1304.635132	6494.283691	3744.856689	47.020943
315.283936	1308.604858	6440.911621	3720.486572	46.994110
315.652374	1309.266602	6398.125977	3697.439453	46.929432
316.020752	1307.943237	6345.084961	3673.068848	46.953724
316.389130	1313.236328	6299.542480	3646.052734	46.784458
316.757416	1313.346680	6259.072266	3629.732178	46.836109
317.125732	1312.574585	6233.378418	3612.309814	46.734955
317.494019	1313.126099	6201.399414	3595.327393	46.687263
317.862274	1315.441895	6169.530762	3575.588867	46.561714
318.230469	1314.338989	6137.441406	3558.055908	46.520195
318.598663	1315.441772	6109.211914	3542.176270	46.450588
318.966797	1315.221069	6076.571289	3524.642822	46.403263
319.334930	1314.449341	6049.113281	3501.265137	46.187351
319.703003	1310.148682	6018.347656	3485.165283	46.196358
320.071045	1307.612305	5975.341309	3463.992676	46.197636
320.439056	1306.178711	5939.722656	3441.607422	46.086296
320.807037	1306.399292	5937.627441	3433.998535	45.940281
321.175049	1305.296631	5958.910156	3432.454590	45.709812
321.542969	1301.878052	5990.778809	3447.341553	45.756210
321.910828	1306.178711	6035.219238	3469.396240	45.743263
322.278717	1304.965820	6093.112305	3493.987061	45.717506
322.646515	1308.053345	6142.183594	3513.394775	45.620228
323.014313	1307.501953	6192.908691	3534.236572	45.579308
323.382111	1304.855469	6229.739746	3545.264160	45.491600
323.749817	1304.745117	6278.259766	3562.466553	45.394890
324.117523	1303.752808	6305.828125	3576.691895	45.439919
324.485199	1301.326782	6320.052734	3577.684082	45.357277
324.852814	1304.193970	6319.501465	3582.425537	45.425556
325.220428	1306.399292	6317.957520	3578.896973	45.345131
325.588013	1305.075928	6324.794434	3577.463623	45.269222
325.955536	1308.384155	6334.498535	3578.565918	45.167728
326.323059	1308.825317	6352.804199	3583.528320	45.097393
326.690552	1309.597168	6376.622070	3591.578613	45.035923
327.058014	1311.030640	6396.030273	3600.179688	45.017681
327.425415	1314.338989	6409.152344	3604.369873	44.948277
327.792816	1317.977905	6423.708984	3607.347168	44.839203
328.160187	1320.955322	6430.545410	3603.487793	44.671539
328.527496	1321.837646	6416.541504	3597.091797	44.659203
328.894775	1322.940430	6410.255859	3593.011475	44.622181
329.262054	1325.697144	6391.839844	3580.991699	44.516994
329.629303	1323.712280	6378.275879	3567.208008	44.385548
329.996490	1321.837646	6364.161621	3556.511475	44.318329
330.363647	1317.977905	6370.558105	3559.158203	44.357143
330.730774	1316.985718	6381.474609	3564.561279	44.379124
331.097839	1316.544434	6412.020020	3578.456055	44.390591
331.464935	1316.103394	6438.044434	3588.601074	44.367897
331.831970	1312.353882	6459.437500	3596.760742	44.382545
332.198975	1311.802490	6487.336426	3603.818115	44.285587
332.565948	1311.582153	6516.007324	3609.111328	44.145687
332.932892	1304.965698	6553.610352	3623.667480	44.177151
333.299744	1305.406860	6581.950195	3639.767090	44.240334
333.666656	1301.878174	6619.553711	3656.087891	44.271404
334.033478	1300.444702	6650.540039	3667.005127	44.233990
334.400299	1300.665283	6674.027344	3692.147217	44.506248
334.767090	1298.570068	6710.527344	3708.357178	44.527092
335.133850	1299.562622	6735.669434	3721.700195	44.556477
335.500549	1296.805786	6758.166016	3732.176025	44.592739
335.867218	1291.622803	6781.985352	3751.583740	44.805077
336.233917	1292.725586	6818.154785	3770.330078	44.840038
336.600525	1292.505005	6834.694824	3777.828125	44.843704
336.967102	1293.938599	6855.757324	3780.364990	44.705273
337.333649	1296.915894	6867.004395	3781.468018	44.605259
337.700195	1294.269287	6866.563965	3783.562988	44.672684
338.066681	1296.254150	6856.970215	3778.710938	44.642757
338.433136	1295.813110	6847.266602	3769.778320	44.564281
338.799591	1296.254272	6825.983398	3759.302490	44.541935
339.165985	1296.584961	6811.758789	3747.172363	44.433548
339.532318	1300.775391	6816.390625	3746.180176	44.336029
339.898651	1300.995972	6828.851074	3751.803955	44.335609
340.264954	1300.444580	6846.163574	3759.964355	44.349884
340.631226	1305.627319	6861.712891	3768.676025	44.330650
340.997467	1305.406860	6901.410645	3779.262207	44.207535
341.363678	1306.840454	6942.652344	3795.251953	44.153561
341.729828	1308.274048	6995.914551	3815.873047	44.088566
342.095947	1305.627563	7056.674316	3833.847412	43.961037
342.462067	1306.178833	7114.677734	3860.533447	43.976154
342.828156	1305.076050	7183.377441	3890.968018	43.990467
343.194183	1304.414551	7254.171875	3917.323730	43.916229
343.560211	1309.597290	7313.718750	3937.172607	43.762859
343.926178	1311.582275	7371.282227	3956.250000	43.643539
344.292114	1310.259155	7404.143066	3976.980957	43.760624
344.658020	1307.502197	7440.643066	4000.469482	43.908455
345.023926	1307.943237	7478.025391	4016.899658	43.904709
345.389771	1309.817871	7515.187500	4023.075195	43.724346
345.755585	1307.061157	7535.036621	4033.660645	43.779869
346.121368	1309.376953	7556.099121	4045.019043	43.793240
346.487122	1309.707642	7582.233398	4059.575195	43.839878
346.852844	1309.597412	7608.037109	4071.153564	43.845085
347.218536	1308.163818	7628.216309	4088.687012	43.995255
347.584167	1309.487061	7650.822266	4099.935059	44.004108
347.949768	1309.487061	7669.127930	4109.859375	44.033501
348.315369	1310.259033	7693.718750	4121.989746	44.047127
348.680939	1312.684937	7708.384766	4126.621094	43.997314
349.046448	1312.464478	7717.426270	4133.678711	44.047325
349.411957	1310.810303	7721.727051	4139.633301	44.125092
349.777435	1313.677490	7716.654785	4136.986816	44.093693
350.142792	1315.772705	7705.848145	4138.089844	44.167198
350.508209	1317.757568	7707.170898	4137.647949	44.133793
350.873566	1320.734985	7710.369629	4148.564941	44.256523
351.238892	1324.153320	7723.822754	4166.759766	44.418018
351.604187	1317.647217	7751.722656	4187.049805	44.596970
351.969482	1319.521973	7817.224609	4208.112305	44.455563
352.334717	1317.647339	7876.330566	4236.231934	44.499550
352.699890	1318.308838	7959.255371	4272.952148	44.491299
353.065063	1317.647217	8043.062500	4323.126465	44.688385
353.430237	1317.095825	8157.305176	4373.521484	44.683220
353.795319	1313.456787	8287.425781	4427.224121	44.648426
354.160370	1313.897827	8413.466797	4484.345215	44.656898
354.525421	1315.441650	8548.000977	4555.361328	44.796307
354.890442	1315.993164	8704.146484	4613.584961	44.633507
355.255402	1310.589600	8870.106445	4688.128906	44.679302
355.620331	1311.912964	9055.035156	4773.921387	44.710754
355.985260	1311.913086	9232.242188	4857.177246	44.761578
356.350098	1310.699951	9388.499023	4939.881348	44.927849
356.714935	1313.015869	9533.837891	5005.382813	44.914814
357.079742	1313.456909	9660.432617	5069.230469	44.995621
357.444519	1311.361694	9805.770508	5136.166504	45.027317
357.809296	1311.030762	9967.540039	5211.262207	45.055473
358.173981	1309.266479	10156.877930	5290.106934	44.993389
358.538605	1307.171265	10367.388672	5379.317383	44.945343
358.903259	1303.091187	10606.127930	5474.372070	44.837837
359.267914	1305.958008	10871.113281	5584.645020	44.732018
359.632477	1302.208740	11147.125000	5712.340820	44.796032
359.997009	1303.091064	11412.661133	5837.610352	44.853733
360.361542	1299.893188	11615.783203	5927.152344	44.855648
360.726013	1303.201416	11769.945313	5994.639160	44.822319
361.090485	1304.304321	11863.676758	6048.451660	44.928310
361.454895	1310.259033	11911.866211	6078.225098	44.973991
361.819244	1311.251343	11933.588867	6093.664063	45.022221
362.183594	1308.935791	11933.038086	6095.317383	45.052105
362.547913	1305.958374	11891.907227	6086.716309	45.161354
362.912201	1310.148682	11832.580078	6060.030273	45.140533
363.276489	1311.692383	11753.514648	6014.377441	45.037014
363.640686	1309.045898	11666.289063	5968.503906	44.987434
364.004883	1308.053467	11603.984375	5929.687500	44.887966
364.369049	1307.502075	11540.247070	5896.827148	44.849403
364.733154	1305.627319	11501.651367	5868.596191	44.752430
365.097198	1305.296631	11440.780273	5840.256836	44.743401
365.461273	1304.855469	11349.916992	5801.661133	44.766335
365.825287	1303.863037	11219.022461	5750.053711	44.842350
366.189270	1305.517212	11049.423828	5676.501953	44.858650
366.553223	1306.509644	10853.798828	5581.887695	44.781067
366.917114	1304.083740	10603.810547	5471.504883	44.812294
367.281006	1309.156250	10322.946289	5346.456543	44.790264
367.644867	1308.715088	10066.894531	5226.699707	44.735149
368.008698	1311.251465	9856.163086	5139.915527	44.806358
368.372498	1305.958374	9704.648438	5070.223633	44.819668
368.736237	1305.075928	9600.442383	5010.125488	44.664085
369.099976	1302.429565	9538.358398	4968.441895	44.512432
369.463654	1301.988525	9494.360352	4937.014648	44.370861
369.827332	1302.208862	9463.153320	4908.232910	44.186356
370.190948	1304.193848	9440.435547	4888.273438	44.050800
370.554535	1302.650146	9416.837891	4878.238770	44.065887
370.918091	1301.106445	9393.791016	4882.319336	44.252472
371.281647	1303.091309	9380.999023	4876.695313	44.239227
371.645111	1305.848267	9366.443359	4876.916016	44.302780
372.008575	1305.186523	9363.686523	4878.128906	44.337563
372.371979	1305.406982	9347.367188	4872.504883	44.356075
372.735382	1308.604858	9362.143555	4871.954102	44.245758
373.098724	1308.384155	9392.909180	4875.923340	44.127998
373.462067	1307.501953	9422.242188	4893.566895	44.191986
373.825348	1305.847900	9491.492188	4924.002441	44.201218
374.188599	1304.855347	9567.139648	4968.662598	44.343758
374.551819	1305.517090	9684.690430	5026.334961	44.405544
374.915009	1303.091187	9826.390625	5093.270020	44.468445
375.278168	1303.532227	9977.463867	5155.354004	44.406872
375.641266	1299.672729	10109.459961	5213.136719	44.421776
376.004395	1302.319214	10216.204102	5257.686523	44.373100
376.367462	1305.296631	10289.535156	5292.753906	44.382809
376.730469	1302.980957	10335.959961	5326.166504	44.538860
377.093475	1300.995972	10366.173828	5335.870117	44.509598
377.456421	1299.672852	10399.367188	5357.262207	44.590393
377.819336	1303.201538	10434.763672	5378.435059	44.627998
378.182281	1304.304199	10477.661133	5392.660156	44.567719
378.545135	1306.619873	10523.974609	5400.048340	44.410015
378.907928	1304.965820	10570.621094	5417.140625	44.380833
379.270752	1303.752808	10610.319336	5433.350586	44.372944
379.633484	1304.304077	10644.283203	5448.788574	44.373592
379.996246	1308.604858	10675.931641	5469.961914	44.424164
380.358948	1305.737671	10694.016602	5488.597656	44.554062
380.721558	1306.509521	10717.394531	5501.058594	44.571247
381.084198	1307.281494	10758.856445	5509.218750	44.457535
381.446747	1309.156006	10778.814453	5515.063477	44.414562
381.809326	1310.589722	10797.670898	5517.378906	44.342289
382.171875	1312.574707	10791.716797	5509.549805	44.275894
382.534363	1312.354126	10755.877930	5490.252441	44.240887
382.896790	1311.361572	10704.710938	5471.505859	44.288189
383.259247	1315.441772	10669.204102	5456.067871	44.266956
383.621613	1316.544556	10660.161133	5454.523926	44.286701
383.983948	1316.765015	10687.950195	5471.946777	44.339977
384.346283	1317.647217	10738.124023	5498.301758	44.378372
384.708588	1315.772705	10823.144531	5541.859375	44.450630
385.070831	1320.073242	10899.012695	5577.256836	44.443161
385.433075	1315.662354	10992.963867	5619.380371	44.472290
385.795258	1316.765015	11075.448242	5662.607910	44.533085
386.157440	1312.133667	11151.536133	5702.747070	44.622765
386.519531	1312.795288	11244.496094	5743.878906	44.615555
386.881622	1310.810303	11316.504883	5771.336914	44.579880
387.243683	1310.700073	11391.710938	5804.197754	44.573879
387.605713	1307.391724	11473.091797	5839.816406	44.585464
387.967682	1309.817749	11555.907227	5871.905273	44.525154
388.329651	1307.832886	11652.283203	5913.257324	44.520725
388.691559	1308.053345	11748.441406	5961.446289	44.571075
389.053467	1303.752686	11868.749023	6026.176758	44.698776
389.415314	1301.326782	11987.513672	6082.525879	44.741867
389.777130	1303.752808	12107.820313	6137.882324	44.743607
390.138885	1299.782959	12230.442383	6187.835938	44.718739
390.500641	1300.665039	12323.181641	6224.446777	44.670216
390.862366	1296.584961	12410.408203	6264.476074	44.700108
391.224060	1296.364502	12484.620117	6298.549805	44.709251
391.585693	1297.246704	12571.514648	6331.190430	44.649853
391.947296	1298.569946	12659.623047	6364.823730	44.593174
392.308868	1304.524658	12724.023438	6402.647461	44.644016
392.670441	1304.304077	12789.525391	6429.774414	44.626656
393.031952	1307.171265	12819.077148	6439.367676	44.581638
393.393433	1306.399414	12846.205078	6452.711426	44.596176
393.754883	1308.494507	12861.644531	6463.297852	44.618160
394.116302	1307.502075	12850.395508	6464.400391	44.675961
394.477692	1311.141113	12853.373047	6467.708496	44.675652
394.839020	1310.589722	12852.491211	6465.061523	44.658775
395.200348	1310.589722	12851.718750	6453.704102	44.563354
395.561646	1308.825317	12834.958008	6452.931641	44.629944
395.922882	1312.574585	12799.230469	6431.979980	44.568283
396.284088	1313.787476	12739.682617	6405.183594	44.560150
396.645264	1316.103271	12662.161133	6363.832031	44.488831
397.006409	1316.985474	12567.545898	6321.596680	44.483219
397.367523	1312.905396	12464.992188	6278.700684	44.527946
397.728577	1317.426514	12368.834961	6239.553223	44.538460
398.089600	1319.080688	12297.267578	6203.824707	44.494999
398.450592	1319.631958	12241.248047	6171.294434	44.422569
398.811584	1319.631958	12182.804688	6139.646484	44.370228
399.172546	1317.536865	12098.225586	6102.484863	44.384441
399.533447	1316.323853	12017.835938	6060.802246	44.334656
399.894318	1310.479492	11962.148438	6023.419434	44.246025
400.255127	1308.935791	11911.533203	6004.563477	44.287525
400.615936	1307.502197	11882.752930	5999.270020	44.365543
400.976685	1307.171387	11886.833008	6000.372559	44.360596
401.337433	1305.517212	11916.826172	6010.076660	44.335339
401.698151	1304.745483	11971.852539	6048.341309	44.469372
402.058807	1301.657715	12056.542969	6091.567871	44.537067
402.419434	1299.672729	12151.487305	6148.688965	44.683922
402.780060	1297.467285	12260.105469	6203.714844	44.754257
403.140594	1296.364624	12359.020508	6243.964844	44.723438
403.501129	1292.394775	12453.856445	6283.552246	44.717773
403.861633	1291.181763	12540.641602	6332.292969	44.812031
404.222076	1289.196777	12626.102539	6363.831055	44.762074
404.582550	1287.983765	12698.000000	6400.881836	44.810608
404.942932	1289.307007	12768.574219	6432.419434	44.803490
405.303284	1293.607666	12843.891602	6459.105469	44.721825
405.663605	1292.174316	12899.579102	6494.062500	44.815258
406.023895	1293.056396	12936.077148	6521.299805	44.904526
406.384125	1290.409912	12989.669922	6553.058594	44.982746
406.744354	1290.850952	13056.826172	6588.346191	45.023849
407.104553	1291.291992	13123.429688	6616.465820	45.006016
407.464691	1296.364624	13183.198242	6648.996094	45.029915
407.824829	1296.916016	13253.110352	6679.210449	45.016785
408.184906	1296.805664	13333.279297	6706.227539	44.941917
408.544922	1298.129028	13397.016602	6726.627930	44.867752
408.904938	1299.562500	13444.985352	6754.526855	44.913746
409.264923	1300.224121	13466.709961	6754.306641	44.828739
409.624847	1298.239258	13452.485352	6751.438965	44.866623
409.984802	1301.437256	13428.113281	6730.045898	44.765842
410.344666	1303.091187	13393.708008	6713.835449	44.751595
410.704529	1305.076050	13355.223633	6702.256836	44.789333
411.064331	1307.612305	13323.023438	6695.640625	44.842648
411.424133	1306.399414	13317.508789	6678.769531	44.728344
411.783875	1306.509644	13312.107422	6684.172852	44.792965
412.143555	1310.369263	13321.479492	6689.907227	44.788017
412.503235	1308.274048	13338.792969	6705.014160	44.858749
412.862885	1304.635010	13348.716797	6720.783691	44.969376
413.222473	1305.406860	13404.625000	6744.602051	44.954933
413.582062	1303.642578	13483.800781	6774.927246	44.919651
413.941559	1302.870605	13553.383789	6805.252441	44.915520
414.301086	1304.855591	13638.513672	6835.798340	44.844303
414.660522	1306.399414	13709.198242	6872.959961	44.881489
415.019958	1303.863037	13795.209961	6910.893555	44.887318
415.379364	1302.429688	13906.364258	6953.127441	44.832809
415.738708	1300.555054	14027.223633	7006.939941	44.838009
416.098053	1300.996216	14169.366211	7083.027344	44.932117
416.457336	1300.996094	14353.409180	7165.953125	44.933891
416.816559	1302.870728	14553.443359	7256.597656	44.931847
417.175812	1306.840454	14794.830078	7354.520996	44.837524
417.535004	1302.319336	15084.958008	7474.717773	44.783867
417.894135	1306.289063	15413.351563	7630.974609	44.833469
418.253265	1303.091187	15806.914063	7798.036621	44.780918
418.612335	1300.775513	16211.945313	7986.603516	44.837715
418.971405	1302.870728	16630.541016	8183.990234	44.893448
419.330414	1304.304077	17066.005859	8380.054688	44.892044
419.689423	1303.642334	17500.701172	8571.819336	44.873436
420.048370	1306.178711	17901.873047	8756.525391	44.893250
420.407257	1306.619751	18312.748047	8929.102539	44.821976
420.766144	1307.281372	18696.716797	9106.751953	44.851776
421.125000	1310.479370	19089.509766	9266.536133	44.749664
421.483795	1311.692383	19479.652344	9448.265625	44.785286
421.842560	1309.817749	19892.181641	9641.132813	44.834530
422.201324	1305.627563	20295.669922	9825.176758	44.863243
422.560028	1306.730225	20666.406250	9991.799805	44.861645
422.918671	1310.259033	21005.935547	10145.960938	44.861126
423.277283	1307.281494	21295.291016	10276.414063	44.872566
423.635925	1306.950806	21519.697266	10374.556641	44.860828
423.994476	1306.178833	21684.664063	10448.217773	44.861233
424.353027	1301.437134	21815.447266	10505.339844	44.866425
424.711487	1299.562500	21918.664063	10561.357422	44.918518
425.069946	1303.422119	21966.853516	10588.152344	44.933147
425.428375	1300.003662	21932.335938	10569.295898	44.926052
425.786743	1302.980957	21839.044922	10526.620117	44.914345
426.145081	1302.650146	21688.634766	10455.163086	44.896103
426.503418	1303.201538	21511.423828	10363.857422	44.836483
426.861725	1303.642578	21295.402344	10258.768555	44.794086
427.219971	1305.958252	21063.716797	10155.882813	44.792152
427.578186	1305.737671	20870.742188	10061.710938	44.753242
427.936371	1306.509521	20683.941406	9986.174805	44.792648
428.294495	1304.524658	20465.931641	9886.929688	44.790058
428.652618	1305.406982	20213.738281	9794.080078	44.893822
429.010712	1308.604858	19949.083984	9676.199219	44.889378
429.368744	1307.502197	19655.095703	9532.624023	44.829433
429.726746	1309.266479	19377.318359	9402.062500	44.790638
430.084717	1308.163818	19099.431641	9276.241211	44.786449
430.442688	1307.060913	18835.882813	9156.705078	44.781353
430.800568	1309.376709	18608.390625	9059.775391	44.802544
431.158417	1306.840454	18434.820313	8980.489258	44.801830
431.516235	1306.068604	18281.431641	8906.606445	44.773933
431.874023	1311.692505	18144.582031	8847.720703	44.769669
432.231812	1313.567261	18015.671875	8790.048828	44.763706
432.589508	1312.574707	17917.308594	8752.776367	44.807713
432.947205	1313.015869	17823.136719	8714.622070	44.830723
433.304840	1313.015747	17743.410156	8685.729492	44.872410
433.662476	1316.213623	17696.322266	8661.360352	44.841866
434.020050	1314.890381	17657.066406	8656.398438	44.923687
434.377594	1312.795166	17623.541016	8644.377930	44.949402
434.735138	1308.825195	17599.613281	8626.073242	44.916477
435.092621	1308.935669	17586.931641	8618.244141	44.903000
435.450043	1307.612305	17582.742188	8608.980469	44.862118
435.807465	1309.707520	17606.451172	8615.376953	44.829014
436.164856	1308.053345	17642.402344	8641.510742	44.895927
436.522156	1303.973267	17711.433594	8659.596680	44.830967
436.879486	1305.737671	17791.822266	8698.081055	44.839897
437.236755	1306.840454	17887.759766	8743.623047	44.851448
437.593994	1306.730225	17994.613281	8802.178711	44.915512
437.951172	1304.635010	18134.107422	8854.888672	44.863281
438.308380	1308.053467	18255.406250	8906.276367	44.834274
438.665497	1306.840454	18378.800781	8967.367188	44.871979
439.022583	1309.266602	18541.562500	9030.663086	44.807705
439.379608	1306.399414	18692.748047	9100.354492	44.828018
439.736633	1303.973389	18803.460938	9150.418945	44.838142
440.093628	1303.311646	18901.603516	9188.682617	44.807594
440.450562	1302.098633	18996.988281	9224.301758	44.771133
440.807495	1300.003540	19074.402344	9256.390625	44.763187
441.164368	1297.687866	19164.937500	9291.567383	44.740402
441.521210	1294.820679	19226.908203	9316.379883	44.732990
441.878021	1295.813232	19294.947266	9355.527344	44.778339
442.234833	1294.820801	19409.521484	9410.442383	44.801300
442.591522	1293.056274	19506.119141	9448.487305	44.777924
442.948242	1294.379517	19605.806641	9499.211914	44.807167
443.304901	1289.748169	19723.906250	9549.497070	44.806759
443.661530	1290.961060	19876.414063	9594.157227	44.675781
444.018127	1295.372070	20038.294922	9666.164063	44.661083
444.374664	1293.717773	20193.007813	9733.541016	44.656830
444.731201	1294.710327	20324.121094	9795.734375	44.673084
445.087738	1294.159058	20459.091797	9840.284180	44.592510
445.444183	1294.048950	20529.777344	9886.158203	44.667450
445.800598	1288.535278	20607.960938	9929.716797	44.727943
446.156982	1294.710449	20632.111328	9945.263672	44.734829
446.513336	1294.379639	20623.511719	9949.012695	44.775070
446.869598	1296.143921	20639.279297	9943.278320	44.703896
447.225891	1296.254272	20655.710938	9950.556641	44.703232
447.582153	1298.569946	20644.904297	9962.025391	44.780861
447.938354	1298.900757	20658.910156	9977.904297	44.829544
448.294495	1300.113892	20673.464844	9981.984375	44.813465
448.650665	1300.775269	20647.441406	9980.661133	44.865021
449.006775	1304.304199	20650.308594	9973.824219	44.812973
449.362823	1304.634888	20653.947266	9971.288086	44.790497
449.718842	1306.068604	20646.886719	9974.596680	44.819862
450.074860	1303.201416	20633.435547	9970.737305	44.839272
450.430817	1299.121338	20615.460938	9968.641602	44.881798
450.786713	1303.091187	20522.720703	9924.642578	44.858055
451.142578	1302.429443	20414.103516	9882.739258	44.895645
451.498444	1299.672852	20259.611328	9811.723633	44.894932
451.854248	1298.790649	20091.447266	9735.964844	44.896122
452.210022	1296.364624	19887.664063	9638.815430	44.872879
452.565765	1297.687866	19641.093750	9528.873047	44.872723
452.921478	1298.790527	19413.382813	9422.019531	44.843567
453.277191	1300.665039	19194.601563	9318.915039	44.809868
453.632813	1293.717896	19016.619141	9229.484375	44.776905
453.988434	1291.953491	18836.214844	9154.057617	44.812965
454.343964	1291.512451	18654.484375	9084.585938	44.883289
454.699524	1291.512451	18502.417969	9001.331055	44.796120
455.054993	1289.858398	18362.921875	8928.331055	44.739910
455.410400	1292.946045	18256.728516	8876.172852	44.702450
455.765839	1292.505005	18209.533203	8848.163086	44.663036
456.121216	1291.843384	18214.494141	8841.436523	44.612358
456.476593	1290.850952	18258.162109	8871.540039	44.678200
456.831909	1292.505005	18381.447266	8932.961914	44.709949
457.187195	1290.299438	18541.011719	8987.658203	44.620525
457.542450	1292.725586	18748.433594	9073.008789	44.571571
457.897644	1294.049072	18936.558594	9159.791992	44.584038
458.252808	1294.710571	19188.201172	9278.004883	44.615635
458.607971	1291.733398	19381.619141	9364.568359	44.626232
458.963013	1290.079224	19505.677734	9420.367188	44.633659
459.318085	1288.755859	19596.982422	9461.278320	44.638527
459.673096	1285.116821	19666.013672	9495.792969	44.669617
460.028076	1286.440063	19745.630859	9537.698242	44.699997
460.383057	1284.786133	19806.941406	9571.000000	44.736767
460.737976	1287.983887	19834.839844	9586.216797	44.741993
461.092865	1292.725586	19855.791016	9595.149414	44.725498
461.447723	1296.916016	19856.453125	9594.046875	44.705482
461.802551	1298.239258	19856.453125	9582.246094	44.637951
462.157288	1297.467407	19858.546875	9590.517578	44.679779
462.512054	1300.224121	19875.419922	9596.251953	44.661858
462.866760	1298.349487	19855.460938	9580.813477	44.632290
463.221405	1300.224121	19807.162109	9560.302734	44.632336
463.576019	1303.091187	19712.216797	9523.582031	44.654438
463.930603	1302.539917	19614.736328	9474.841797	44.627640
464.285156	1299.121338	19475.904297	9387.946289	44.500862
464.639709	1298.128906	19264.953125	9302.925781	44.553211
464.994171	1297.908203	19023.126953	9192.432617	44.538376
465.348633	1296.584961	18747.886719	9061.979492	44.497513
465.703033	1295.923462	18464.816406	8932.079102	44.476692
466.057434	1298.790649	18214.716797	8816.623047	44.442337
466.411774	1299.562622	18037.949219	8733.808594	44.414352
466.766083	1301.106445	17885.222656	8660.148438	44.374035
467.120331	1305.737793	17779.470703	8605.122070	44.309231
467.474548	1301.106445	17689.046875	8553.845703	44.256561
467.828735	1303.752930	17619.908203	8518.337891	44.217434
468.182922	1304.083740	17569.181641	8486.580078	44.158947
468.537048	1303.752808	17523.308594	8468.934570	44.176189
468.891144	1301.878296	17492.320313	8445.226563	44.120773
469.245178	1301.878174	17462.218750	8443.901367	44.194759
469.599213	1302.539917	17443.248047	8435.523438	44.192505
469.953186	1298.680298	17429.464844	8414.349609	44.112358
470.307129	1296.805664	17448.871094	8420.083984	44.101345
470.661041	1296.364624	17470.375000	8439.051758	44.161507
471.014923	1294.159180	17540.398438	8460.002930	44.107708
471.368713	1291.402344	17554.513672	8456.253906	44.055847
471.722504	1291.733154	17527.056641	8460.665039	44.156384
472.076294	1294.159180	17506.875000	8447.100586	44.119328
472.429993	1294.820679	17450.636719	8421.187500	44.110222
472.783722	1298.680298	17445.673828	8416.003906	44.078323
473.137329	1298.900757	17468.169922	8424.715820	44.070110
473.490967	1297.136353	17501.912109	8427.583008	44.002132
473.844543	1299.893188	17586.824219	8465.736328	43.997505
474.198090	1304.304077	17671.072266	8507.639648	44.011959
474.551605	1302.319214	17800.201172	8564.320313	44.017776
474.905060	1308.384155	17940.027344	8633.902344	44.045670
475.258484	1308.935547	18086.910156	8697.198242	44.035484
475.611877	1306.178711	18251.660156	8774.940430	44.075245
475.965240	1308.273926	18447.281250	8855.770508	44.036953
476.318573	1309.266235	18634.302734	8947.077148	44.085396
476.671844	1309.597168	18851.650391	9040.477539	44.070557
477.025116	1311.912964	19080.025391	9137.077148	44.040489
477.378326	1311.582275	19312.589844	9250.988281	44.105343
477.731506	1315.882690	19547.250000	9353.210938	44.085163
478.084656	1316.323975	19827.232422	9467.564453	44.034794
478.437744	1317.867554	20118.792969	9593.164063	44.015369
478.790833	1320.844971	20460.417969	9746.552734	44.022446
479.143890	1321.506836	20876.585938	9918.798828	43.964497
479.496826	1319.191040	21361.125000	10146.401367	44.043705
479.849823	1318.308838	22011.734375	10430.022461	44.031925
480.202728	1315.441650	22825.765625	10775.064453	43.977131
480.555603	1315.110840	23823.623047	11211.194336	43.965961
480.908478	1315.441772	25161.562500	11819.458008	44.049164
481.261292	1316.985596	26807.597656	12605.370117	44.284481
481.614075	1312.574707	28644.851563	13527.470703	44.690372
481.966797	1312.464355	30482.433594	14493.897461	45.188370
482.319489	1309.045898	32214.595703	15354.465820	45.446270
482.672150	1305.296631	33764.917969	16090.091797	45.548267
483.024780	1306.730103	35107.265625	16705.634766	45.558167
483.377350	1302.870605	36224.988281	17206.162109	45.539310
483.729919	1298.018677	37244.351563	17669.417969	45.544006
484.082428	1299.011108	38192.691406	18098.488281	45.534836
484.434937	1295.702881	39178.636719	18542.445313	45.526417
484.787384	1295.151489	40234.167969	19016.617188	45.510818
485.139771	1292.725586	41388.390625	19546.478516	45.525505
485.492157	1292.835815	42569.632813	20077.882813	45.509945
485.844482	1293.387207	43648.093750	20581.716797	45.539993
486.196777	1294.710449	44636.695313	21020.492188	45.511948
486.549072	1296.033813	45404.960938	21368.621094	45.506863
486.901276	1296.695313	45975.839844	21619.052734	45.485107
487.253448	1298.239258	46288.355469	21772.222656	45.507736
487.605591	1302.208984	46303.132813	21785.234375	45.516903
487.957703	1299.672607	46083.031250	21694.259766	45.540550
488.309784	1299.562378	45554.933594	21454.083984	45.541412
488.661835	1296.033691	44797.800781	21059.197266	45.430717
489.013855	1298.349365	44004.054688	20612.152344	45.225342
489.365814	1299.231567	43266.445313	20151.103516	44.920471
489.717743	1303.532349	42634.578125	19776.837891	44.695953
490.069611	1305.186401	42050.355469	19481.968750	44.610893
490.421509	1304.965820	41502.742188	19210.806641	44.544353
490.773315	1302.981079	41014.894531	18974.050781	44.498158
491.125092	1306.619995	40491.542969	18734.539063	44.476086
491.476807	1304.524780	39882.945313	18453.123047	44.451267
491.828522	1307.612305	39140.375000	18116.130859	44.428474
492.180176	1309.707520	38236.800781	17709.445313	44.411125
492.531830	1309.156128	37205.195313	17242.109375	44.386383
492.883423	1306.178711	36045.132813	16727.689453	44.392559
493.234985	1304.745239	34956.851563	16223.963867	44.333687
493.586487	1304.965698	33935.281250	15761.040039	44.302586
493.937988	1305.296509	33071.078125	15382.915039	44.316929
494.289429	1307.391846	32372.283203	15061.031250	44.273903
494.640869	1306.950562	31790.261719	14793.729492	44.243156
494.992218	1303.752808	31337.705078	14590.718750	44.239819
495.343567	1308.053345	30892.642578	14385.391602	44.203209
495.694855	1309.266479	30385.390625	14164.404297	44.212006
496.046112	1310.589722	29761.578125	13885.084961	44.197041
496.397339	1310.479492	28948.871094	13519.309570	44.173447
496.748535	1314.008179	28032.728516	13098.289063	44.104961
497.099670	1311.030884	27087.691406	12675.834961	44.089512
497.450806	1309.817871	26246.529297	12286.241211	44.017128
497.801880	1306.840576	25569.789063	11970.862305	43.951878
498.152924	1311.582275	24976.521484	11714.588867	43.959576
498.503937	1313.897827	24514.037109	11501.653320	43.912479
498.854889	1314.449219	24176.052734	11338.449219	43.846443
499.205841	1312.243774	23892.431641	11206.563477	43.818588
499.556702	1311.140991	23686.552734	11103.677734	43.764725
499.907562	1307.943115	23485.634766	10997.265625	43.689499
500.258362	1310.148560	23315.595703	10920.845703	43.674175
500.609161	1309.707520	23158.457031	10843.434570	43.635113
500.959900	1308.494507	22990.400391	10783.004883	43.697777
501.310608	1307.171265	22819.037109	10693.021484	43.631039
501.661255	1307.171265	22611.285156	10606.237305	43.649158
502.011902	1309.266602	22391.291016	10520.555664	43.692623
502.362488	1311.913086	22170.857422	10422.193359	43.675652
502.713043	1309.487061	21960.457031	10340.370117	43.731033
503.063568	1309.817871	21776.964844	10251.932617	43.690094
503.414063	1310.369263	21571.416016	10167.682617	43.715973
503.764496	1309.487061	21409.425781	10090.711914	43.687817
504.114899	1307.722656	21250.632813	10023.887695	43.705582
504.465271	1306.950684	21128.449219	9971.397461	43.712372
504.815613	1310.699951	21029.423828	9914.829102	43.634308
505.165894	1314.559570	20931.613281	9893.657227	43.732853
505.516174	1314.890381	20892.464844	9876.455078	43.731487
505.866394	1313.125977	20881.437500	9869.067383	43.723450
506.216583	1311.802856	20873.714844	9857.488281	43.685329
506.566711	1311.802734	20907.458984	9873.477539	43.691696
506.916840	1310.810303	20949.033203	9888.695313	43.679539
507.266907	1311.251343	21002.847656	9925.748047	43.747074
507.616882	1312.464355	21083.457031	9941.515625	43.645008
507.966858	1310.589966	21133.298828	9969.083984	43.679672
508.316803	1311.251587	21188.214844	10003.489258	43.730209
508.666748	1311.030884	21251.291016	10029.732422	43.724110
509.016632	1309.707642	21313.376953	10054.102539	43.713951
509.366486	1309.046021	21402.917969	10077.920898	43.639549
509.716309	1306.840454	21490.474609	10118.392578	43.656914
510.066040	1308.715088	21588.066406	10149.157227	43.593319
510.415771	1308.935669	21689.849609	10196.683594	43.608192
510.765503	1303.863037	21797.253906	10238.367188	43.597000
511.115173	1302.870483	21897.271484	10273.654297	43.559338
511.464752	1302.650024	21996.625000	10317.983398	43.565014
511.814270	1304.965820	22078.666016	10346.104492	43.522045
512.163818	1302.980835	22163.134766	10395.176758	43.586430
512.513306	1300.444580	22225.990234	10414.364258	43.554039
512.862793	1297.797974	22280.796875	10432.228516	43.532532
513.212219	1294.931030	22320.494141	10450.203125	43.543533
513.561646	1295.482178	22372.982422	10484.498047	43.596325
513.911011	1294.710449	22402.203125	10499.495117	43.609089
514.260315	1298.128906	22437.380859	10535.002930	43.695370
514.609558	1299.893188	22506.414063	10558.932617	43.661282
514.958801	1300.665283	22600.585938	10602.159180	43.669151
515.308044	1304.193970	22745.705078	10667.110352	43.667240
515.657227	1303.311890	22949.488281	10739.449219	43.592632
516.006348	1307.171387	23197.712891	10842.113281	43.557358
516.355408	1308.935669	23468.322266	10955.251953	43.531513
516.704529	1306.950684	23702.210938	11072.471680	43.605305
517.053467	1310.810181	23927.384766	11173.039063	43.606201
517.402466	1309.817627	24100.404297	11244.937500	43.593086
517.751404	1310.589600	24227.660156	11317.497070	43.665733
518.100281	1315.882813	24354.253906	11375.610352	43.665100
518.449219	1316.764893	24445.224609	11422.475586	43.693836
518.798035	1314.228638	24541.933594	11449.491211	43.634369
519.146851	1311.471924	24637.761719	11491.173828	43.640469
519.495544	1311.582275	24703.267578	11512.897461	43.610863
519.844299	1311.582031	24792.478516	11552.706055	43.614708
520.192932	1310.589600	24892.824219	11601.335938	43.637707
520.541626	1311.912964	24987.878906	11642.580078	43.633560
520.890198	1313.236084	25089.660156	11691.208984	43.648167
521.238770	1315.993042	25211.404297	11740.060547	43.623718
521.587280	1313.897827	25350.234375	11798.945313	43.621655
521.935791	1315.000488	25468.556641	11849.560547	43.614944
522.284180	1312.905273	25587.652344	11907.564453	43.644779
522.632629	1310.810181	25735.308594	11970.640625	43.644009
522.981018	1313.346436	25881.085938	12032.172852	43.629681
523.329346	1309.376709	26049.583984	12102.307617	43.625061
523.677551	1312.795288	26239.253906	12200.339844	43.678665
524.025818	1310.810303	26502.146484	12304.767578	43.641819
524.374023	1305.848267	26813.333984	12438.307617	43.643890
524.722229	1304.304443	27208.441406	12616.619141	43.669914
525.070374	1302.760376	27733.115234	12837.494141	43.641991
525.418457	1301.878174	28432.574219	13131.480469	43.602283
525.766541	1303.532227	29419.845703	13557.352539	43.582600
526.114563	1305.406860	30673.535156	14132.976563	43.678539
526.462585	1304.414429	32059.880859	14789.317383	43.845551
526.810547	1302.319214	33429.792969	15450.732422	44.038361
527.158447	1303.311523	34649.191406	16021.394531	44.137638
527.506348	1306.509521	35670.535156	16482.775391	44.163235
527.854065	1305.406860	36507.835938	16864.208984	44.198090
528.201904	1305.296631	37179.289063	17152.460938	44.174522
528.549622	1304.965820	37700.105469	17386.019531	44.184616
528.897339	1304.965820	38087.820313	17545.140625	44.151478
529.245056	1305.848022	38392.945313	17684.525391	44.162739
529.592712	1304.965942	38621.097656	17783.109375	44.158226
529.940369	1302.209106	38808.785156	17869.453125	44.171574
530.287903	1298.239258	39002.093750	17966.933594	44.209526
530.635437	1300.003662	39242.042969	18091.212891	44.254894
530.982910	1296.254272	39534.929688	18214.716797	44.244373
531.330383	1298.349487	39778.742188	18329.732422	44.259895
531.677795	1296.364624	39893.535156	18393.578125	44.296543
532.025208	1296.805664	39896.734375	18385.529297	44.271381
532.372498	1296.144043	39700.453125	18275.367188	44.211765
532.719788	1294.379639	39259.023438	18101.246094	44.269787
533.067078	1295.261841	38522.738281	17767.449219	44.247391
533.414307	1297.577637	37499.183594	17303.423828	44.213081
533.761536	1299.782959	36364.812500	16762.097656	44.096107
534.108643	1298.790649	35301.566406	16236.315430	43.930305
534.455811	1298.349487	34402.292969	15810.332031	43.837624
534.802856	1298.459717	33658.390625	15480.065430	43.824585
535.149902	1300.996094	33076.042969	15186.520508	43.699463
535.496887	1300.665161	32572.203125	14962.776367	43.688648
535.843811	1298.790527	32153.277344	14775.314453	43.677677
536.190796	1300.113892	31807.683594	14624.239258	43.674816
536.537659	1300.885742	31473.228516	14481.326172	43.683846
536.884460	1301.216553	31187.402344	14353.741211	43.674107
537.231323	1303.973267	30885.589844	14223.176758	43.673080
537.578064	1306.950806	30573.738281	14060.193359	43.575821
537.924805	1308.274048	30209.177734	13886.406250	43.521587
538.271423	1307.502197	29892.691406	13736.326172	43.479942
538.618164	1308.935547	29722.433594	13640.386719	43.399975
538.964783	1312.795288	29751.984375	13641.489258	43.351074
539.311279	1312.354126	29938.345703	13745.477539	43.432987
539.657776	1313.787720	30217.447266	13892.029297	43.517815
540.004333	1312.023193	30474.714844	14000.539063	43.509411
540.350769	1311.030762	30722.937500	14126.360352	43.571911
540.697144	1310.920410	30910.619141	14210.386719	43.579723
541.043518	1307.501953	31016.039063	14269.051758	43.629040
541.389893	1307.832764	30991.449219	14260.340820	43.635208
541.736145	1312.243652	30870.919922	14211.489258	43.639458
542.082458	1311.030762	30728.115234	14131.983398	43.583359
542.428711	1313.677490	30558.958984	14064.276367	43.598824
542.774902	1311.030884	30414.613281	14010.133789	43.634155
543.121033	1314.559570	30309.851563	13966.354492	43.633961
543.467102	1315.772705	30228.580078	13917.613281	43.585670
543.813171	1314.449341	30173.115234	13887.400391	43.567333
544.159180	1314.118530	30124.265625	13861.264648	43.551136
544.505127	1316.103394	30064.390625	13824.764648	43.510979
544.851135	1315.882813	29946.505859	13798.079102	43.597363
545.197021	1314.228760	29733.347656	13708.979492	43.614128
545.542908	1312.574585	29327.765625	13532.434570	43.618694
545.888733	1313.125977	28734.279297	13278.364258	43.635067
546.234558	1312.574585	27955.421875	12940.709961	43.644493
546.580322	1314.449219	27086.472656	12542.625000	43.567303
546.926025	1314.449219	26190.398438	12135.167969	43.498718
547.271667	1315.331421	25366.664063	11776.230469	43.494053
547.617371	1312.464233	24569.062500	11433.834961	43.520428
547.962952	1309.376709	23836.634766	11109.632813	43.503990
548.308533	1316.875244	23176.984375	10805.281250	43.405117
548.654053	1318.749878	22597.058594	10557.939453	43.420696
548.999573	1316.985596	22105.242188	10330.226563	43.357372
549.344971	1317.426514	21676.394531	10155.333008	43.410381
549.690430	1313.456787	21303.451172	9999.959961	43.454254
550.035767	1313.897827	20995.458984	9856.273438	43.402939
550.381104	1314.338867	20720.439453	9722.182617	43.325775
550.726440	1308.715088	20440.898438	9607.719727	43.377197
551.071655	1308.053345	20193.007813	9491.713867	43.334286
551.416931	1305.737671	19905.525391	9370.744141	43.360744
551.762085	1305.958130	19601.064453	9237.424805	43.352943
552.107178	1303.752686	19293.402344	9083.484375	43.245594
552.452332	1302.539795	18985.742188	8947.408203	43.232372
552.797424	1304.304077	18713.041016	8832.172852	43.241901
553.142395	1299.011108	18451.914063	8722.561523	43.278683
553.487366	1300.113770	18255.408203	8635.666992	43.264084
553.832336	1301.106323	18065.296875	8546.125977	43.217232
554.177185	1299.782959	17916.652344	8480.512695	43.213493
554.522095	1301.326782	17807.810547	8432.323242	43.201183
554.866943	1304.745361	17704.042969	8372.335938	43.096912
555.211731	1306.068604	17624.757813	8334.511719	43.069901
555.556396	1300.885742	17547.566406	8293.931641	43.042919
555.901123	1302.760376	17476.771484	8264.599609	43.043369
556.245789	1303.201538	17389.656250	8226.003906	43.034977
556.590454	1305.406860	17291.294922	8174.727051	42.971153
556.934998	1303.642700	17206.494141	8138.116211	42.976402
557.279541	1307.722656	17093.353516	8088.493164	42.955334
557.624023	1306.620117	16953.750000	8042.840820	43.050838
557.968567	1311.361694	16822.525391	7988.476074	43.047150
558.312988	1313.567017	16687.994141	7935.215820	43.069241
558.657349	1316.213745	16581.359375	7886.475586	43.040936
559.001770	1315.000732	16496.228516	7854.937500	43.079102
559.346069	1317.757568	16420.470703	7825.053711	43.086933
559.690308	1318.970459	16366.767578	7805.313965	43.104939
560.034485	1318.529541	16310.417969	7767.821289	43.018543
560.378723	1321.727173	16279.982422	7749.295898	42.970043
560.722900	1318.970459	16237.306641	7724.816406	42.939411
561.067017	1315.662354	16214.701172	7716.986816	42.964680
561.411072	1315.110962	16186.361328	7704.414551	42.964134
561.755127	1317.206055	16158.242188	7687.653809	42.924549
562.099182	1316.213745	16149.860352	7687.542969	42.951874
562.443115	1316.103394	16154.382813	7691.953125	42.968929
562.787048	1318.198486	16166.845703	7702.649414	42.996853
563.130920	1317.536865	16204.117188	7703.642090	42.898407
563.474792	1314.559570	16275.242188	7742.348145	42.964542
563.818604	1309.817749	16366.658203	7779.290039	42.966995
564.162354	1314.890259	16455.423828	7824.942871	42.997513
564.506042	1312.133545	16567.021484	7871.147949	42.996151
564.849731	1311.582153	16664.722656	7905.441406	42.947952
565.193420	1309.376709	16735.189453	7937.641602	42.968658
565.537048	1304.304077	16789.001953	7961.791016	42.993973
565.880615	1304.965820	16818.666016	7982.302246	43.041546
566.224121	1303.201416	16827.597656	7987.815430	43.058769
566.567627	1303.642578	16828.146484	7993.439941	43.091858
566.911072	1306.509766	16823.736328	7994.873535	43.102829
567.254517	1305.848022	16856.265625	8010.201660	43.113655
567.597839	1307.612305	16881.408203	8024.427246	43.128952
567.941223	1305.847900	16914.271484	8032.477051	43.096146
568.284485	1305.186401	16938.753906	8050.892090	43.148857
568.627808	1306.289063	17000.615234	8080.224609	43.161686
568.970947	1304.855591	17070.197266	8107.461914	43.149120
569.314148	1310.589600	17146.837891	8145.174805	43.157856
569.657288	1314.449341	17232.078125	8164.472656	43.034195
570.000366	1315.772461	17313.900391	8203.288086	43.052010
570.343445	1316.213745	17378.958984	8237.914063	43.091640
570.686462	1319.301392	17399.359375	8239.458008	43.035645
571.029419	1319.521851	17410.937500	8250.374023	43.071735
571.372314	1314.559570	17389.546875	8233.834961	43.043739
571.715210	1314.780029	17336.173828	8214.867188	43.067959
572.058105	1315.441650	17284.566406	8205.051758	43.143318
572.400879	1318.308716	17266.921875	8191.598145	43.096470
572.743713	1316.985474	17250.712891	8182.116211	43.085529
573.086426	1315.882813	17256.779297	8177.153320	43.041935
573.429077	1315.993042	17280.599609	8170.427246	42.935188
573.771790	1313.456787	17288.978516	8179.248535	42.976952
574.114441	1308.825317	17280.158203	8172.302246	42.973728
574.457031	1309.376709	17246.634766	8161.054199	42.991573
574.799561	1306.399414	17192.378906	8135.911621	42.990814
575.142029	1312.684937	17144.080078	8119.039551	42.992764
575.484436	1316.103271	17057.294922	8075.151855	42.938610
575.826904	1311.471802	16940.076172	8017.258301	42.907135
576.169250	1314.890381	16794.847656	7946.241699	42.838306
576.511597	1309.266357	16627.013672	7875.778320	42.868652
576.853943	1303.863037	16422.126953	7793.955566	42.928825
577.196167	1302.980835	16207.315430	7692.285156	42.868763
577.538391	1300.885742	15981.145508	7596.458496	42.884613
577.880554	1295.923462	15774.605469	7504.711426	42.882275
578.222717	1297.798096	15546.340820	7400.394531	42.829620
578.564819	1298.459717	15335.276367	7308.427246	42.815746
578.906860	1297.798096	15149.357422	7214.805176	42.717262
579.248901	1294.489990	14957.482422	7121.073730	42.645008
579.590942	1292.505005	14756.014648	7040.133301	42.690418
579.932861	1296.474854	14573.073242	6955.113281	42.621147
580.274780	1295.813232	14376.127930	6872.628906	42.635178
580.616638	1297.577515	14177.304688	6794.115234	42.675884
580.958496	1300.665161	13971.095703	6698.066895	42.598408
581.300232	1301.988525	13802.267578	6620.104980	42.543980
581.641968	1302.760376	13638.404297	6545.339355	42.499435
581.983704	1300.885620	13495.599609	6483.256836	42.496864
582.325317	1296.915771	13360.736328	6426.355469	42.519196
582.666992	1296.474731	13243.408203	6383.018066	42.576141
583.008606	1298.018555	13132.584961	6340.893555	42.611404
583.350098	1295.482300	13037.419922	6307.481445	42.684601
583.691589	1294.710449	12956.919922	6265.467773	42.622776
584.033081	1295.813232	12896.602539	6238.561523	42.606998
584.374512	1293.276978	12835.179688	6211.765137	42.614189
584.715881	1293.607666	12787.429688	6182.322266	42.533413
585.057190	1291.512451	12741.335938	6153.541016	42.463783
585.398499	1289.086548	12694.800781	6134.022949	42.478153
585.739807	1291.071655	12657.087891	6122.775879	42.510094
586.081055	1291.622803	12628.416992	6117.151367	42.565193
586.422180	1291.622803	12602.281250	6104.690918	42.553391
586.763367	1289.637939	12593.017578	6094.104492	42.504692
587.104431	1289.196777	12593.017578	6083.187500	42.410358
587.445496	1290.189331	12597.098633	6078.445801	42.348057
587.786499	1287.211914	12592.797852	6080.651367	42.398861
588.127502	1283.021484	12621.468750	6085.613770	42.356701
588.468445	1284.234619	12627.754883	6088.260254	42.350391
588.809326	1284.124390	12634.040039	6093.222656	42.371223
589.150208	1287.322266	12639.332031	6091.347656	42.318722
589.491028	1290.740723	12626.099609	6088.591309	42.326408
589.831848	1290.299683	12624.998047	6084.069824	42.292877
590.172546	1291.291992	12613.971680	6077.783691	42.273487
590.513245	1289.307251	12605.810547	6070.726074	42.251736
590.853943	1289.307251	12610.994141	6065.653809	42.187592
591.194458	1290.189331	12623.235352	6064.771484	42.129734
591.535095	1288.645508	12624.227539	6066.536133	42.149494
591.875610	1289.527588	12644.406250	6076.019531	42.153618
592.216125	1291.622803	12648.376953	6084.620605	42.203945
592.556580	1291.071411	12667.343750	6096.641113	42.242043
592.897034	1287.763184	12700.867188	6104.028809	42.199440
593.237366	1287.652954	12718.510742	6118.915527	42.265095
593.577698	1288.535156	12771.110352	6141.080566	42.260078
593.918030	1289.307007	12819.409180	6152.217773	42.175781
594.258301	1292.284302	12873.332031	6188.828125	42.280663
594.598511	1292.063843	12952.838867	6228.967773	42.337696
594.938721	1294.379639	13037.417969	6265.688477	42.334091
595.278809	1299.231567	13118.026367	6298.438965	42.298794
595.618958	1298.790527	13172.391602	6325.345215	42.333866
595.958984	1299.011108	13228.298828	6342.327148	42.276756
596.299011	1302.098633	13252.007813	6350.488281	42.246258
596.638977	1299.011108	13278.141602	6360.082031	42.249065
596.978943	1297.908447	13289.832031	6359.750977	42.210430
597.318848	1300.665161	13285.533203	6352.032227	42.147873
597.658630	1300.113770	13271.526367	6339.019531	42.091156
597.998474	1298.128662	13238.885742	6328.433105	42.127186
598.338257	1297.356934	13184.189453	6312.333984	42.189350
598.677979	1298.680298	13151.439453	6297.558105	42.174805
599.017700	1297.026245	13096.192383	6273.958984	42.180378
599.357361	1300.444580	13052.415039	6260.836914	42.209026
599.696960	1305.737671	13013.156250	6235.033691	42.104034
600.036560	1307.171265	12965.298828	6214.191406	42.090977
600.376038	1303.973389	12926.591797	6194.121582	42.074413
600.715576	1303.422119	12884.029297	6176.257324	42.077541
601.055054	1302.870850	12840.801758	6172.839355	42.208340
601.394409	1301.878174	12806.395508	6153.982910	42.175644
601.733826	1303.752930	12760.414063	6135.346680	42.172791
602.073120	1301.878296	12756.113281	6121.121094	42.073891
602.412415	1297.577515	12743.873047	6120.569336	42.135830
602.751587	1296.915894	12771.220703	6124.870605	42.076229
603.090820	1298.459839	12801.544922	6141.521973	42.102287
603.429993	1293.166748	12848.080078	6161.481445	42.131989
603.769104	1292.063965	12883.807617	6169.420410	42.076122
604.108154	1293.828369	12909.392578	6190.592773	42.156925
604.447205	1296.144165	12946.553711	6221.689941	42.277878
604.786194	1298.349487	12976.877930	6245.287109	42.359253
605.125183	1302.319336	13007.534180	6263.592773	42.385155
605.464111	1300.665039	13028.486328	6274.950684	42.414406
605.802979	1299.562378	13050.870117	6282.339844	42.401897
606.141846	1300.113770	13074.911133	6295.352051	42.423138
606.480652	1297.908325	13114.829102	6303.291504	42.357761
606.819336	1295.702881	13167.648438	6328.543945	42.392723
607.158020	1295.261719	13228.960938	6357.436035	42.419155
607.496765	1300.003296	13292.807617	6379.710449	42.356289
607.835388	1301.216431	13331.182617	6401.654785	42.397781
608.173950	1305.076050	13348.386719	6400.332031	42.307766
608.512512	1303.201416	13325.559570	6389.525391	42.307209
608.851013	1301.216431	13280.789063	6362.728516	42.251194
609.189514	1304.965820	13184.080078	6328.323730	42.287312
609.527893	1305.186279	13073.698242	6282.008789	42.289310
609.866333	1304.414673	12945.449219	6225.549316	42.274033
610.204712	1303.091309	12806.505859	6168.538574	42.295681
610.542969	1304.304321	12678.920898	6112.520508	42.271461
610.881226	1305.627563	12564.238281	6062.456543	42.250587
611.219482	1303.532349	12470.395508	6011.620605	42.161243
611.557678	1301.547363	12383.722656	5962.549316	42.058544
611.895813	1299.011108	12310.279297	5923.512695	41.997898
612.233948	1298.018555	12237.611328	5883.594238	41.917244
612.571960	1302.098633	12167.256836	5861.980469	41.967930
612.910034	1306.619873	12098.998047	5830.553223	41.917858
613.247986	1306.730103	12027.210938	5800.558594	41.918163
613.585938	1308.935547	11942.411133	5771.336914	41.965595
613.923828	1305.737671	11822.654297	5728.330078	42.052174
614.261658	1308.715088	11693.414063	5667.790527	41.975941
614.599487	1306.730103	11548.295898	5611.993164	42.037159
614.937317	1307.943115	11424.239258	5552.886719	41.961441
615.275024	1307.612305	11309.556641	5510.763184	42.023338
615.612732	1306.399414	11213.178711	5464.558594	41.972866
615.950378	1305.627441	11119.227539	5436.549316	42.093849
616.288025	1302.429443	11032.443359	5402.916016	42.142658
616.625549	1303.421997	10971.901367	5374.686523	42.108635
616.963074	1304.414307	10919.523438	5353.403320	42.110691
617.300537	1305.517212	10871.445313	5329.143066	42.062057
617.638000	1305.296631	10823.035156	5315.579590	42.134830
617.975464	1309.266357	10790.614258	5304.000977	42.132561
618.312744	1310.369141	10753.563477	5287.349609	42.114780
618.650024	1309.486938	10720.259766	5275.109863	42.139187
618.987305	1308.274048	10683.428711	5269.264648	42.249874
619.324585	1305.958374	10658.507813	5258.348145	42.260021
619.661743	1302.429565	10644.723633	5238.167969	42.128178
619.998901	1299.783081	10616.824219	5232.324219	42.208046
620.336060	1298.018799	10589.255859	5217.216309	42.181652
620.673096	1295.151611	10567.752930	5203.873535	42.153454
621.010193	1298.459717	10548.125000	5185.347656	42.021931
621.347168	1296.254272	10527.833984	5179.503418	42.064835
621.684082	1297.908447	10493.208984	5166.822266	42.074902
622.020996	1297.356934	10457.591797	5149.178711	42.049381
622.357849	1298.128906	10433.993164	5131.535156	41.959972
622.694641	1299.562500	10412.929688	5118.963867	41.909882
623.031433	1303.863037	10391.095703	5103.856934	41.816845
623.368164	1305.296631	10386.905273	5099.335449	41.777168
623.704895	1306.619873	10376.759766	5097.130371	41.791092
624.041504	1307.832886	10383.927734	5099.556152	41.777035
624.378174	1305.737671	10402.343750	5107.936523	41.797993
624.714783	1311.692505	10445.901367	5121.610840	41.710438
625.051331	1308.715210	10478.101563	5133.299316	41.710358
625.387756	1309.156250	10514.711914	5145.318848	41.672256
625.724304	1309.486938	10534.119141	5153.369629	41.669769
626.060669	1310.589600	10552.314453	5150.833008	41.553322
626.397034	1310.369141	10560.364258	5153.479492	41.547161
626.733337	1310.369141	10564.333984	5160.206543	41.602032
627.069641	1307.502075	10570.950195	5162.081055	41.610630
627.405884	1309.486938	10560.474609	5161.309082	41.636879
627.742126	1308.935669	10550.439453	5156.898438	41.637844
628.078308	1308.053467	10538.639648	5154.362305	41.669174
628.414429	1304.524780	10513.057617	5143.996094	41.694710
628.750488	1304.414551	10493.319336	5130.983887	41.643368
629.086548	1301.767944	10460.126953	5117.200195	41.660652
629.422546	1299.121338	10419.546875	5098.232910	41.654980
629.758545	1297.798096	10365.293945	5084.559082	41.761925
630.094421	1294.710571	10318.648438	5057.321289	41.695889
630.430298	1293.497437	10264.283203	5027.217285	41.620876
630.766113	1293.276855	10200.986328	4996.671875	41.575169
631.101929	1292.615479	10124.567383	4970.868164	41.647110
631.437622	1293.166626	10043.185547	4940.101563	41.679169
631.773376	1288.865967	9950.115234	4905.255371	41.753670
632.109070	1292.725586	9856.714844	4870.629883	41.778477
632.444641	1292.946167	9763.423828	4840.194824	41.877789
632.780273	1293.387329	9687.446289	4811.634277	41.913540
633.115784	1294.489990	9618.195313	4785.168945	41.936600
633.451294	1297.246826	9549.165039	4757.049316	41.927254
633.786682	1299.121338	9481.458008	4722.092773	41.833664
634.122131	1302.650146	9403.604492	4686.916016	41.776138
634.457458	1301.106323	9351.556641	4661.333008	41.739609
634.792847	1303.311768	9290.575195	4632.662598	41.683247
635.128113	1303.201538	9227.279297	4605.865234	41.678841
635.463318	1304.414429	9176.002930	4579.289551	41.603737
635.798584	1300.775513	9127.813477	4557.565918	41.609489
636.133728	1301.657715	9074.221680	4541.686523	41.685455
636.468872	1304.965820	9012.358398	4523.822754	41.763241
636.803955	1305.737793	8963.067383	4495.152344	41.651787
637.139038	1303.201416	8913.554688	4479.272461	41.733555
637.473999	1305.406860	8849.266602	4457.549316	41.784214
637.808899	1305.958374	8783.101563	4433.289551	41.825214
638.143799	1307.391846	8715.173828	4402.192383	41.777695
638.478638	1309.156128	8654.302734	4373.521484	41.719593
638.813538	1309.156006	8589.573242	4340.770020	41.640663
639.148315	1305.516968	8517.233398	4306.916504	41.618378
639.483032	1306.509521	8454.048828	4270.526367	41.469055
639.817749	1303.421875	8386.782227	4229.615234	41.310806
640.152405	1302.098633	8323.044922	4204.252930	41.335659
640.487000	1301.547363	8252.250000	4179.662109	41.407536
640.821594	1301.326782	8187.410156	4161.688477	41.538296
641.156128	1299.121338	8138.338379	4141.618652	41.561737
641.490662	1297.687744	8078.791504	4117.689453	41.586178
641.825134	1298.569946	8018.140625	4090.781982	41.553425
642.159546	1298.459717	7977.560059	4075.564697	41.579025
642.493896	1302.760376	7925.291016	4054.282471	41.547894
642.828186	1301.216553	7883.938477	4036.748779	41.556248
643.162537	1299.562622	7849.974609	4016.017578	41.469986
643.496765	1293.718140	7814.246094	4002.454346	41.541672
643.830994	1292.505005	7780.061523	3992.198730	41.613415
644.165100	1293.387329	7751.059570	3973.011230	41.495201
644.499268	1292.615479	7734.409180	3963.527588	41.462242
644.833313	1291.071655	7720.955566	3952.389893	41.389835
645.167358	1288.535278	7705.075684	3944.891846	41.398575
645.501343	1287.652954	7682.139648	3934.636475	41.394775
645.835327	1287.873535	7662.069824	3927.248535	41.407181
646.169189	1289.638062	7648.727539	3918.757080	41.344273
646.503052	1289.417358	7636.818359	3919.859863	41.441254
646.836914	1293.387207	7626.342285	3916.110107	41.413887
647.170654	1295.041260	7611.676270	3904.090332	41.304417
647.504395	1296.584961	7607.376465	3893.835205	41.155697
647.838074	1296.695435	7601.641602	3884.241455	41.039936
648.171753	1299.562500	7598.995605	3881.264404	40.983082
648.505371	1300.665283	7600.097656	3879.830811	40.942822
648.838928	1301.988525	7603.184570	3885.895752	41.006615
649.172424	1304.635010	7610.131836	3879.389404	40.833488
649.505920	1302.870728	7606.382324	3877.073730	40.837605
649.839294	1308.274048	7598.001465	3873.876221	40.790352
650.172729	1310.920532	7596.127441	3877.956055	40.842499
650.506104	1314.890381	7600.207520	3876.302002	40.752304
650.839355	1317.536987	7584.989746	3877.956055	40.852627
651.172668	1318.308838	7565.913086	3878.066650	40.971828
651.505859	1316.875244	7542.977051	3876.853516	41.116875
651.839111	1319.080688	7527.979980	3870.788574	41.097591
652.172241	1321.175903	7515.959961	3866.487793	41.087986
652.505371	1319.521729	7502.616211	3860.312500	41.092541
652.838379	1320.845093	7475.930176	3850.828857	41.103962
653.171387	1319.632202	7461.924805	3842.227295	41.069279
653.504333	1318.088379	7438.988281	3830.208008	41.041672
653.837280	1318.970459	7418.918945	3831.862061	41.195293
654.170227	1319.080811	7399.731934	3828.553955	41.269810
654.503052	1315.662354	7379.772461	3824.584473	41.373291
654.835876	1315.441895	7365.657715	3820.063232	41.397224
655.168579	1312.243896	7348.234375	3813.336670	41.436329
655.501343	1312.574707	7332.906250	3807.602783	41.443367
655.833984	1310.920532	7323.863770	3807.712402	41.523624
656.166626	1312.464233	7319.673340	3815.541748	41.667896
656.499268	1313.456787	7342.720215	3830.979492	41.755062
656.831787	1312.684937	7376.904785	3847.409912	41.798042
657.164307	1311.912964	7422.889160	3861.304688	41.718239
657.496765	1311.140991	7469.424316	3878.947998	41.696800
657.829224	1311.361572	7518.275391	3892.401367	41.583302
658.161621	1315.110718	7566.463379	3914.125000	41.575230
658.493958	1317.095703	7605.831055	3923.057373	41.438564
658.826233	1310.920410	7635.494629	3941.142090	41.587334
659.158508	1310.479370	7661.739746	3946.545410	41.504612
659.490723	1311.140991	7680.155273	3951.728516	41.459908
659.822876	1310.479492	7699.012695	3959.116699	41.459240
660.154968	1306.399414	7700.555664	3959.888428	41.498657
660.487061	1307.943115	7699.343750	3960.108887	41.495846
660.819153	1303.642700	7693.719727	3949.853760	41.411251
661.151123	1305.406982	7679.934570	3943.788574	41.389446
661.483093	1308.935791	7668.576660	3933.864502	41.274796
661.815002	1310.479614	7652.807129	3926.365723	41.244892
662.146851	1312.354126	7623.915039	3917.433838	41.274727
662.478760	1314.008057	7595.354980	3910.487061	41.336342
662.810486	1311.802612	7558.523926	3889.424805	41.263599
663.142212	1309.597168	7505.482910	3862.849365	41.208832
663.473938	1306.730103	7453.654785	3832.634766	41.092171
663.805603	1306.840332	7388.263184	3795.914063	40.929134
664.137207	1307.060913	7295.854980	3755.664551	40.886421
664.468689	1306.730103	7208.187500	3716.186279	40.828152
664.800293	1304.965820	7131.107910	3680.017090	40.765419
665.131775	1304.083496	7048.623535	3639.436279	40.653435
665.463196	1302.539795	6980.255859	3610.434570	40.648296
665.794617	1304.965820	6923.795410	3580.330078	40.495342
666.125916	1309.156250	6865.902344	3555.077637	40.417923
666.457275	1308.715210	6822.564941	3544.933105	40.556381
666.788574	1305.627563	6776.801270	3527.950928	40.618767
667.119812	1306.730225	6747.910645	3521.333984	40.700794
667.450928	1307.612305	6727.731445	3515.269287	40.730782
667.782104	1311.582153	6713.063965	3506.337402	40.632465
668.113159	1308.384155	6691.230469	3496.744141	40.654327
668.444214	1304.414307	6669.286621	3496.302734	40.856304
668.775208	1303.311523	6650.980469	3488.914551	40.870201
669.106201	1304.414307	6636.645996	3481.967285	40.837555
669.437134	1303.311646	6629.367676	3469.727051	40.675793
669.768005	1302.870605	6622.200195	3467.742188	40.698204
670.098877	1300.444702	6610.951660	3470.278320	40.859253
670.429688	1303.201416	6591.874023	3464.764404	40.871559
670.760437	1299.893311	6567.504395	3460.684570	41.020325
671.091187	1298.349487	6559.564941	3459.361572	41.074390
671.421814	1296.033813	6542.692871	3454.068848	41.131607
671.752441	1295.261963	6521.189941	3446.790527	41.170269
672.083008	1292.946167	6507.185059	3442.599609	41.226601
672.413574	1293.607788	6493.731934	3437.196533	41.221878
672.744080	1296.033813	6466.936035	3425.287109	41.177597
673.074524	1293.828369	6440.581055	3419.884033	41.308678
673.404968	1297.467407	6416.541504	3400.696533	41.086121
673.735352	1301.437256	6396.582520	3386.471436	40.921974
674.065613	1303.752930	6375.410156	3380.516113	40.948414
674.395935	1302.429688	6351.700684	3370.040527	40.948700
674.726196	1301.657837	6320.494141	3367.503662	41.161846
675.056335	1304.414551	6304.504395	3365.078125	41.212532
675.386536	1304.745361	6292.815430	3356.697510	41.137196
675.716614	1306.840454	6281.346680	3351.404297	41.100838
676.046692	1308.274048	6279.913086	3347.544922	41.018078
676.376770	1310.259033	6268.334961	3347.655029	41.092472
676.706726	1312.023315	6257.638184	3345.339355	41.113514
677.036621	1310.038452	6262.820801	3340.928467	41.005035
677.366516	1310.258911	6260.616211	3344.567627	41.094177
677.696411	1314.338989	6274.068359	3345.119141	40.945381
678.026184	1313.787720	6291.381836	3354.051270	40.988949
678.355957	1312.464355	6305.166016	3368.166260	41.174137
678.685669	1312.464355	6330.639160	3376.767578	41.136536
679.015320	1309.817749	6346.187500	3384.266113	41.189358
679.344971	1306.730103	6362.838379	3391.213135	41.227020
679.674561	1305.406860	6371.991211	3405.107422	41.442135
680.004150	1301.547241	6394.928711	3415.031982	41.494732
680.333618	1299.231689	6410.145996	3421.758545	41.529301
680.663086	1299.672729	6424.701660	3431.131592	41.589211
680.992493	1298.680298	6430.987305	3427.382080	41.476505
681.321899	1298.569824	6429.002930	3423.632813	41.420734
681.651184	1298.128784	6429.994629	3421.317383	41.372643
681.980530	1296.585083	6419.849609	3419.442627	41.435638
682.309753	1295.372070	6412.682129	3417.678223	41.473080
682.638977	1290.850952	6387.650391	3410.510498	41.588055
682.968079	1288.314697	6361.735840	3401.357910	41.649281
683.297241	1288.976318	6340.563965	3384.265625	41.477837
683.626343	1288.865845	6318.619629	3370.040527	41.377270
683.955383	1293.056396	6279.803711	3356.477295	41.378094
684.284363	1294.048950	6252.235352	3338.502686	41.233902
684.613281	1292.284546	6209.890137	3327.365234	41.383572
684.942139	1296.144043	6166.111816	3306.854248	41.287956
685.271057	1299.231567	6128.619629	3283.145752	41.080032
685.599792	1301.657593	6088.370117	3266.163574	41.040821
685.928589	1305.737671	6056.721191	3249.181885	40.906147
686.257324	1310.810181	6019.118164	3233.853760	40.843624
686.585999	1310.699951	5994.527344	3216.100098	40.680412
686.914612	1310.810303	5948.323242	3195.920410	40.649162
687.243164	1310.369141	5912.043457	3178.166260	40.589512
687.571777	1307.281494	5879.072754	3162.507813	40.579857
687.900269	1308.825317	5843.344727	3149.936768	40.602127
688.228699	1309.707520	5811.365234	3133.836670	40.521275
688.557129	1305.186401	5783.466309	3118.839600	40.498882
688.885498	1306.950806	5757.552246	3101.085693	40.312187
689.213867	1310.920532	5727.668457	3089.837891	40.276630
689.542114	1311.140991	5706.827148	3076.164063	40.153530
689.870361	1310.369141	5686.095703	3061.387207	40.016624
690.198608	1305.737671	5651.470215	3054.109131	40.231918
690.526794	1305.296631	5620.042969	3041.648438	40.242271
690.854858	1302.870605	5598.098633	3026.320557	40.124760
691.182922	1300.775513	5560.605957	3014.190430	40.222607
691.510986	1300.224121	5533.919922	2996.656982	40.069786
691.838928	1297.908447	5499.404785	2978.792969	40.006809
692.166931	1297.687866	5463.015137	2957.620605	39.851196
692.494812	1296.695557	5415.708496	2939.535889	39.884323
692.822632	1295.702881	5372.591309	2922.113037	39.893417
693.150452	1293.056396	5328.923828	2906.564453	39.979214
693.478149	1296.144043	5291.430664	2886.936279	39.816723
693.805908	1294.379639	5266.067871	2881.643311	39.964458
694.133606	1294.710449	5228.244141	2873.262451	40.130634
694.461243	1296.585083	5198.580078	2862.014893	40.118702
694.788818	1295.261841	5180.605957	2851.318359	40.049385
695.116333	1293.938477	5170.019531	2852.862305	40.219070
695.443848	1295.261719	5164.505371	2855.178223	40.315800
695.771301	1292.284302	5178.620605	2864.882324	40.464794
696.098755	1289.748047	5203.322266	2871.829346	40.425484
696.426147	1293.166626	5236.514160	2891.568115	40.534126
696.753418	1293.717896	5275.661133	2922.664551	40.908333
697.080688	1297.687744	5332.451660	2947.034912	40.878407
697.407898	1298.569946	5386.485352	2974.272217	40.991608
697.735107	1301.768066	5424.308594	2995.334473	41.080650
698.062317	1303.201660	5465.219727	3013.750000	41.099014
698.389404	1306.289307	5499.735352	3033.267822	41.182796
698.716492	1305.407104	5531.273438	3041.207520	41.075611
699.043457	1303.863281	5551.122559	3056.094482	41.255573
699.370483	1305.406982	5568.545410	3068.885742	41.365738
699.697388	1309.597412	5572.294434	3070.098877	41.300175
700.024292	1313.677490	5568.766113	3068.555176	41.241856
700.351135	1314.008423	5560.936523	3070.650391	41.362648
700.677917	1318.860352	5549.137695	3060.284668	41.165726
701.004639	1319.191162	5533.699219	3057.748047	41.251717
701.331299	1319.963013	5514.731934	3047.823730	41.190842
701.658020	1321.286133	5491.244629	3034.480713	41.084213
701.984619	1319.963013	5453.972168	3013.859619	40.974670
702.311218	1319.742432	5411.186523	2996.987793	40.993969
702.637756	1319.191040	5359.027344	2972.507324	40.925327
702.964233	1319.411621	5287.901855	2943.836914	40.933079
703.290649	1316.213867	5216.665527	2905.020752	40.733921
703.617065	1319.080933	5132.086914	2863.006836	40.491043
703.943481	1320.624756	5047.287109	2819.669922	40.224873
704.269775	1320.735107	4959.289551	2781.515625	40.147278
704.596008	1319.522095	4881.105957	2745.897217	40.048897
704.922241	1317.095947	4814.500977	2714.359375	39.951431
705.248474	1316.323975	4747.565430	2683.924316	39.857304
705.574585	1315.882935	4687.687500	2669.699219	40.151089
705.900696	1316.103271	4637.072266	2646.431641	40.058441
706.226746	1314.559570	4597.925781	2630.883301	40.090675
706.552734	1311.692505	4570.799316	2623.494873	40.250362
706.878723	1306.068604	4551.612305	2611.805908	40.231697
707.204651	1302.649902	4529.888672	2603.315186	40.302727
707.530518	1301.547363	4516.986328	2596.588623	40.275723
707.856323	1302.098633	4510.700684	2586.774658	40.038498
708.182068	1301.988403	4514.008789	2581.040283	39.820789
708.507813	1299.341797	4509.597656	2587.436035	40.124348
708.833496	1301.106201	4522.278809	2595.596436	40.186924
709.159180	1301.878052	4538.268066	2594.934814	39.953674
709.484802	1303.091187	4550.949219	2598.022217	39.870312
709.810303	1303.752563	4569.696289	2602.984863	39.781219
710.135864	1306.178711	4579.620117	2610.483154	39.845051
710.461304	1306.288818	4591.309570	2611.475830	39.731468
710.786743	1305.627319	4600.352051	2616.217529	39.778446
711.112122	1305.847900	4608.181152	2617.320313	39.713509
711.437500	1305.406860	4615.128418	2622.172363	39.784779
711.762817	1308.825195	4614.136230	2624.929199	39.817856
712.088013	1307.171143	4618.546875	2628.016846	39.888126
712.413269	1309.266357	4613.364258	2622.282471	39.739021
712.738403	1312.133423	4616.562012	2618.753662	39.541485
713.063538	1313.125977	4610.276855	2609.159912	39.307693
713.388611	1312.243652	4604.983398	2609.049561	39.383797
713.713623	1309.817749	4597.154297	2607.836426	39.485424
714.038574	1312.243652	4596.713379	2612.026611	39.573601
714.363525	1310.258789	4590.096680	2607.836182	39.562241
714.688477	1305.847900	4579.951660	2605.851318	39.705627
715.013306	1306.730103	4555.581543	2603.094727	39.902241
715.338135	1307.391724	4534.299316	2595.155029	39.907040
715.662842	1306.068604	4507.282227	2582.804443	39.882870
715.987549	1306.950684	4475.633789	2578.724609	40.135723
716.312195	1308.274048	4442.441406	2561.191406	39.976082
716.636841	1303.863037	4403.735840	2544.871094	40.034161
716.961426	1300.003540	4372.087891	2527.778809	39.965546
717.285950	1297.687744	4341.210938	2516.972168	40.061611
717.610474	1293.497437	4300.630371	2510.135010	40.458393
717.934937	1293.056396	4265.012695	2494.035400	40.410385
718.259277	1292.615234	4230.827637	2479.038086	40.379070
718.583679	1291.291992	4202.046875	2464.592529	40.309151
718.908020	1288.535156	4169.406738	2449.595459	40.302399
719.232239	1286.881104	4142.720703	2440.663330	40.400806
719.556519	1287.542725	4115.262695	2431.951904	40.471092
719.880737	1287.322144	4084.717285	2421.365723	40.539272
720.204834	1284.344727	4055.274902	2405.155762	40.448910
720.528931	1288.755615	4025.060303	2389.276123	40.219223
720.852966	1286.440063	3988.890625	2367.442383	40.000816
721.176941	1288.424805	3950.295410	2353.548096	40.014091
721.500916	1289.307129	3919.970703	2339.653564	39.927052
721.824829	1284.675537	3898.798096	2330.059814	39.989872
722.148743	1284.785767	3867.370117	2315.173096	39.897526
722.472534	1288.535034	3844.874268	2307.123047	39.845570
722.796326	1289.417236	3823.701660	2292.236328	39.570107
723.119995	1288.424805	3799.882813	2288.928223	39.837555
723.443665	1293.056396	3787.201172	2279.003662	39.530476
723.767334	1294.820801	3769.006348	2280.216797	39.827087
724.090942	1294.600220	3758.751221	2272.718262	39.693920
724.414551	1299.231689	3752.686035	2268.858643	39.520889
724.737976	1300.223999	3747.503418	2269.409912	39.602589
725.061462	1302.539795	3747.393555	2269.851074	39.565201
725.384888	1302.870728	3747.834717	2267.645508	39.459675
725.708252	1303.311768	3747.503662	2269.520264	39.530796
726.031616	1303.863159	3752.465820	2269.189453	39.423561
726.354858	1302.981079	3753.017090	2269.079346	39.431999
726.678162	1301.878296	3762.721436	2272.166992	39.429115
727.001404	1305.517334	3766.580811	2270.181885	39.197060
727.324463	1307.281860	3771.102051	2273.269531	39.206905
727.647583	1309.928345	3778.269775	2275.584961	39.121681
727.970642	1306.179077	3790.069092	2279.224121	39.174240
728.293701	1308.715210	3792.384766	2283.303955	39.239872
728.616699	1309.707642	3797.126221	2284.627197	39.194031
728.939575	1309.928223	3815.431152	2290.140869	39.122391
729.262512	1305.958252	3825.686768	2291.243408	39.102829
729.585266	1305.627441	3834.950195	2300.616943	39.338177
729.908142	1304.193848	3854.909180	2303.042725	39.159557
730.230896	1302.098633	3868.252197	2314.180176	39.439632
730.553467	1304.193848	3887.329346	2311.533936	38.996796
730.876160	1301.106201	3901.333740	2314.621582	38.977951
731.198792	1296.695313	3912.360840	2316.826904	39.000843
731.521362	1294.159058	3927.357910	2315.503662	38.787220
731.843872	1293.056152	3925.152832	2316.165283	38.870499
732.166321	1289.968506	3925.152832	2315.834717	38.929581
732.488770	1291.732910	3926.476074	2311.754639	38.714275
732.811157	1289.196655	3919.639404	2306.792236	38.685333
733.133484	1288.755615	3912.250732	2307.012695	38.812996
733.455811	1290.299438	3894.386475	2306.681885	39.030281
733.778015	1290.961182	3877.845947	2306.020264	39.238667
734.100281	1289.527710	3869.685547	2300.837646	39.195663
734.422424	1286.660522	3857.666016	2298.190918	39.343769
734.744507	1290.189331	3842.668945	2294.221191	39.335552
735.066589	1288.645508	3832.192627	2289.699951	39.356632
735.388611	1291.512695	3820.062988	2280.878174	39.127777
735.710571	1290.630493	3804.293945	2271.946289	39.039265
736.032532	1292.505005	3794.038574	2263.344971	38.809792
736.354431	1292.284424	3781.467529	2255.625977	38.701111
736.676270	1293.276733	3765.367920	2251.545654	38.763493
736.998108	1298.900879	3751.914551	2244.708984	38.556984
737.319824	1297.687866	3736.807373	2244.267822	38.808262
737.641541	1301.547485	3717.729980	2238.092529	38.761353
737.963135	1302.209106	3696.888672	2228.168213	38.667347
738.284790	1303.311890	3671.305176	2227.727051	39.037914
738.606323	1303.532227	3660.498047	2218.574219	38.822880
738.927856	1305.517334	3650.022217	2213.942627	38.746998
739.249390	1307.391968	3639.436279	2212.178467	38.797997
739.570740	1311.913086	3628.740234	2203.136230	38.467400
739.892212	1310.810303	3617.933350	2196.629883	38.394985
740.213562	1308.604858	3610.214355	2186.926270	38.161186
740.534790	1310.479614	3603.818359	2178.435303	37.846813
740.856079	1306.730347	3588.931641	2172.149658	37.920380
741.177246	1304.304443	3578.455322	2165.974365	37.889744
741.498413	1306.399536	3569.964600	2157.704102	37.609020
741.819580	1307.943237	3562.245605	2150.866943	37.391777
742.140625	1309.707642	3551.989990	2147.007324	37.341404
742.461670	1307.722534	3536.992920	2146.676514	37.633564
742.782654	1306.950562	3515.489990	2141.383301	37.782104
743.103577	1309.155884	3498.728760	2130.466309	37.510078
743.424438	1309.707275	3477.335938	2127.268311	37.716839
743.745300	1305.847900	3448.003418	2120.982910	38.052094
744.066101	1304.745117	3421.758545	2112.712646	38.165443
744.386902	1303.421875	3399.924561	2104.331543	38.202179
744.707581	1302.649902	3381.399170	2096.281982	38.178345
745.028198	1302.429443	3367.504395	2085.364990	37.913177
745.348816	1299.562378	3355.815430	2082.828613	38.091919
745.669373	1297.357056	3337.620605	2075.330078	38.131008
745.989929	1295.261963	3316.558350	2069.816406	38.319687
746.310364	1293.497437	3301.892090	2072.904297	38.807457
746.630798	1294.159180	3289.431641	2070.147217	38.891331
746.951172	1290.409912	3286.343750	2068.603516	38.988949
747.271545	1286.109375	3276.529297	2065.515625	39.157879
747.591858	1290.299683	3275.537109	2066.508301	39.099033
747.912109	1295.261841	3266.936035	2064.082275	38.993279
748.232300	1291.512695	3258.555176	2064.854248	39.314938
748.552429	1294.159180	3245.542725	2063.089844	39.404385
748.872559	1289.637817	3235.066895	2060.663818	39.632698
749.192627	1293.387329	3235.287598	2060.884521	39.522999
749.512695	1293.166626	3236.941162	2063.310547	39.621052
749.832642	1293.938477	3234.956543	2059.781738	39.455750
750.152588	1295.592651	3234.625732	2051.952637	39.007069
750.472473	1295.592651	3243.116455	2046.769775	38.570885
750.792358	1297.246704	3246.204346	2043.571777	38.293549
751.112122	1298.570068	3241.242188	2042.248535	38.281216
751.431824	1300.775391	3249.181641	2042.028076	38.044052
751.751587	1300.334351	3246.093750	2044.122925	38.226131
752.071228	1299.452148	3243.447510	2041.586670	38.175735
752.390869	1300.665161	3240.911133	2044.233276	38.323395
752.710327	1303.752808	3238.595215	2035.411865	37.814919
753.029846	1303.201416	3238.595215	2029.125977	37.507847
753.349304	1304.524780	3236.610596	2021.848022	37.126884
753.668762	1305.186279	3230.545654	2017.106201	36.975948
753.988098	1304.965820	3223.157471	2012.585205	36.889919
754.307434	1304.193848	3213.674072	2006.299683	36.769474
754.626770	1303.862915	3210.917480	2003.653076	36.694817
754.946045	1302.760376	3209.262939	1999.793335	36.560818
755.265259	1299.011108	3208.050293	1995.382446	36.477581
755.584351	1300.885742	3207.277832	1996.595459	36.493526
755.903442	1299.562500	3202.756592	1994.610718	36.520092
756.222534	1298.459839	3192.391357	1990.861206	36.558945
756.541565	1296.033813	3191.288330	1992.294800	36.737072
756.860535	1295.813354	3191.178223	1990.971558	36.676750
757.179443	1294.820923	3185.995605	1995.603027	37.055386
757.498291	1297.467529	3183.789795	1997.588135	37.115643
757.817139	1300.665405	3188.752197	1999.242432	36.999203
758.135925	1302.540039	3184.892822	1999.021729	37.000591
758.454651	1301.657837	3183.569092	1994.831299	36.833485
758.773376	1305.958374	3179.820313	1996.154419	36.832813
759.092041	1306.178955	3185.002930	1990.971680	36.447945
759.410645	1302.540039	3189.193359	1996.375000	36.775967
759.729187	1301.547485	3180.482178	1994.169434	36.862480
760.047607	1301.768188	3185.223633	1997.588013	36.943790
760.366089	1305.406982	3187.319092	2000.675537	36.944794
760.684509	1305.186523	3201.543945	2008.504883	37.087860
761.002869	1305.627563	3227.237305	2016.995850	37.019394
761.321228	1304.193970	3265.833008	2031.111084	37.056618
761.639465	1306.840576	3313.470703	2053.386230	37.203949
761.957642	1306.730225	3365.739990	2077.645996	37.441093
762.275879	1304.965820	3409.297607	2096.943359	37.635582
762.593994	1303.752930	3447.561768	2109.514648	37.585522
762.912109	1302.539673	3483.180176	2121.755127	37.567650
763.230103	1305.296387	3503.359863	2132.451172	37.631069
763.548157	1302.649780	3515.710449	2145.242676	38.073650
763.866150	1302.980713	3529.274170	2149.653564	38.030605
764.184021	1301.326660	3539.860596	2155.387939	38.152706
764.501892	1298.018555	3546.587158	2162.224854	38.433620
764.819702	1295.923340	3544.491699	2166.084473	38.698452
765.137451	1296.474731	3548.792725	2163.989502	38.516533
765.455200	1292.504883	3554.416748	2159.688721	38.338535
765.772888	1293.607666	3544.161377	2161.343018	38.556526
766.090515	1293.828247	3534.347168	2160.129883	38.665222
766.408081	1295.371948	3534.897949	2163.548096	38.766068
766.725586	1293.938477	3525.415283	2160.239990	38.821892
767.043091	1294.269287	3515.600342	2155.939453	38.790714
767.360535	1294.820679	3500.824463	2144.802002	38.530365
767.677917	1293.497437	3468.404053	2134.436279	38.665512
767.995239	1291.512573	3422.089355	2115.028076	38.652237
768.312500	1292.174194	3362.983643	2086.357422	38.351341
768.629822	1290.299561	3302.553467	2063.199951	38.409687
768.947021	1290.520142	3246.204346	2035.742188	38.105438
769.264160	1294.379639	3190.406738	2015.782959	38.048153
769.581299	1294.379639	3148.392822	1993.618286	37.714870
769.898376	1292.505005	3111.230713	1974.761719	37.512897
770.215393	1292.174072	3077.928467	1953.479004	37.032246
770.532349	1292.504883	3049.698975	1938.702515	36.774403
770.849304	1291.512451	3019.925293	1920.728027	36.404240
771.166199	1290.740601	2998.863281	1907.385010	36.100708
771.483032	1287.542725	2981.770752	1895.144897	35.863068
771.799866	1288.645508	2961.260010	1889.410767	35.917736
772.116577	1291.622803	2940.528564	1885.330566	36.006168
772.433350	1293.938599	2928.509033	1877.059937	35.674286
772.749939	1294.931030	2919.025391	1869.230469	35.361210
773.066589	1294.048828	2905.131348	1861.842285	35.242977
773.383057	1297.357178	2888.811035	1859.416260	35.317333
773.699646	1298.680420	2876.460205	1854.343994	35.218067
774.016113	1300.885864	2860.029785	1852.028320	35.349045
774.332520	1303.201660	2851.208008	1848.499634	35.225822
774.648804	1308.494751	2842.055176	1843.868164	34.910488
774.965149	1307.943359	2831.689697	1843.096191	35.120861
775.281433	1313.126099	2820.993164	1834.825684	34.598515
775.597656	1313.677490	2814.156494	1829.532593	34.379360
775.913879	1312.905640	2807.540283	1823.247070	34.144894
776.229980	1314.449463	2797.836426	1821.261963	34.165901
776.546082	1312.023315	2787.691162	1818.725830	34.337166
776.862122	1315.882935	2780.854248	1822.034058	34.550240
777.178162	1317.978149	2771.812012	1814.976563	34.185364
777.494141	1315.331421	2767.621582	1812.109375	34.206524
777.809998	1314.780151	2755.822266	1806.816406	34.144474
778.125854	1316.544556	2750.309082	1806.595825	34.179340
778.441711	1317.426758	2744.133789	1800.971680	33.892376
778.757446	1316.323975	2737.847900	1799.538330	33.992699
779.073181	1313.567017	2733.547363	1797.222900	34.060745
779.388855	1316.323853	2727.702637	1794.906982	33.908909
779.704468	1315.552124	2723.623047	1793.804077	33.965046
780.020020	1310.258911	2717.888672	1788.511108	33.975708
780.335571	1311.251343	2708.736328	1785.202881	33.914608
780.651062	1310.479492	2703.222168	1782.446289	33.887581
780.966553	1307.722656	2697.708740	1778.696777	33.883369
781.281860	1301.657471	2686.020020	1773.293335	34.068810
781.597290	1301.767944	2678.631592	1769.985107	34.006065
781.912476	1299.231812	2675.102783	1768.220825	34.086700
782.227722	1300.775635	2666.060547	1769.213501	34.310631
782.542908	1299.011108	2654.923096	1765.795166	34.425838
782.858093	1299.452148	2642.682373	1763.258789	34.529198
783.173218	1302.539917	2640.256836	1755.539429	33.863628
783.488281	1300.003662	2639.595215	1745.284180	33.240021
783.803345	1299.562622	2630.883789	1742.637695	33.280857
784.118225	1301.547485	2618.202148	1738.888428	33.216072
784.433167	1302.208862	2609.821533	1735.138916	33.108433
784.748047	1303.532227	2603.425537	1728.633057	32.702747
785.062866	1306.619995	2590.193115	1723.229736	32.457031
785.377686	1305.958374	2579.276123	1712.974487	31.965008
785.692444	1306.619995	2568.689697	1714.408081	32.311058
786.007141	1305.517334	2564.830078	1712.533447	32.320496
786.321716	1308.825439	2558.765137	1709.335327	32.042336
786.636353	1311.141113	2562.073242	1710.989624	31.964045
786.950928	1309.487061	2567.256104	1714.628662	32.211128
787.265442	1308.715088	2574.313721	1716.833862	32.247093
787.579834	1304.414551	2570.674561	1715.841553	32.491508
787.894226	1308.163696	2576.850098	1717.826416	32.290306
788.208618	1304.193970	2578.834961	1718.047119	32.468212
788.522949	1305.517212	2574.424072	1715.290405	32.293404
788.837219	1302.870605	2574.424072	1715.290161	32.434307
789.151367	1303.752808	2579.937500	1712.312866	32.014179
789.465515	1301.657593	2579.937744	1712.533325	32.142857
789.779602	1299.893188	2571.005615	1711.099731	32.350132
790.093689	1303.973267	2559.427002	1710.548340	32.384712
790.407776	1300.554688	2555.016113	1712.422852	32.832272
790.721741	1299.672607	2549.943848	1715.731079	33.277458
791.035645	1298.018555	2541.562988	1712.202393	33.306717
791.349548	1296.695190	2534.615967	1706.468140	33.101711
791.663391	1293.938477	2536.270020	1707.901611	33.321468
791.977173	1296.805664	2532.630859	1710.989624	33.514771
792.290894	1296.254150	2521.714111	1704.042358	33.276340
792.604614	1298.790771	2510.466064	1701.175171	33.208931
792.918274	1299.231812	2501.754639	1697.536255	33.122402
793.231812	1298.680542	2485.764893	1688.383545	32.828587
793.545410	1298.459839	2473.083496	1682.649536	32.707470
793.858948	1300.113892	2456.983398	1679.561768	32.799541
794.172363	1304.524780	2451.690186	1678.348755	32.586754
794.485840	1302.209106	2442.427490	1678.128296	32.969051
794.799194	1308.494629	2439.449951	1671.181152	32.069042
795.112488	1307.171265	2438.126953	1672.504272	32.303036
795.425781	1309.156128	2435.370117	1664.895508	31.587193
795.738953	1305.958374	2428.533203	1663.572388	31.856586
796.052185	1307.061035	2428.753906	1657.396973	31.232786
796.365234	1307.171265	2428.754150	1662.248901	31.658617
796.678284	1305.627441	2429.966797	1660.704956	31.580992
796.991333	1308.825317	2427.540771	1657.727661	31.187765
797.304382	1309.927979	2429.305176	1652.765625	30.627535
797.617310	1312.023193	2428.974121	1654.309326	30.644688
797.930115	1312.574463	2422.468262	1655.412231	30.889240
798.242981	1314.890259	2417.726318	1652.434692	30.606945
798.555786	1313.236084	2413.425781	1646.921143	30.329775
798.868530	1317.205933	2412.764160	1643.281982	29.763462
799.181213	1313.346436	2411.110352	1638.319702	29.603201
799.493896	1313.125854	2406.479004	1636.004150	29.531015
799.806519	1316.985474	2406.037842	1632.696045	28.989475
800.119080	1318.198608	2402.068115	1628.505615	28.629555
800.431580	1315.000610	2392.033203	1621.448120	28.452948
800.744080	1313.897949	2382.329346	1616.485840	28.320761
801.056458	1315.000732	2373.948486	1610.310669	27.887112
801.368835	1312.133667	2360.054199	1607.664063	28.201603
801.681152	1314.890381	2348.144531	1601.819702	27.769482
801.993408	1316.765015	2338.440430	1601.599121	27.879120
802.305664	1319.962891	2329.397949	1598.732178	27.616367
802.617798	1320.845093	2318.812012	1599.945068	27.966856
802.929993	1320.403809	2310.431396	1595.975220	27.834721
803.242065	1321.396240	2301.058105	1595.534180	27.982914
803.554016	1318.418945	2295.985596	1592.336182	28.020313
803.865967	1318.639404	2289.479492	1590.682129	28.021374
804.177979	1316.103271	2288.045898	1587.263428	27.898783
804.489807	1314.890381	2288.045654	1586.822510	27.943344
804.801697	1311.251343	2286.281494	1590.792358	28.669987
805.113464	1310.369263	2280.547363	1592.446411	29.074780
805.425232	1306.730225	2282.311523	1595.313477	29.580647
805.736938	1305.627563	2277.900879	1592.887451	29.545179
806.048584	1300.554932	2273.269287	1591.894897	29.951235
806.360168	1297.467285	2267.535400	1588.145874	29.964760
806.671753	1296.915771	2257.280029	1583.073242	29.796764
806.983276	1298.790527	2257.831299	1584.727295	29.814871
807.294739	1300.223999	2252.979248	1584.727295	29.861111
807.606140	1301.437012	2248.568359	1584.286255	29.863783
807.917542	1301.326782	2247.906738	1584.176025	29.881178
808.228760	1301.216431	2242.393311	1580.095947	29.630936
808.540100	1300.223999	2231.917236	1579.544434	29.979872
808.851318	1297.026123	2225.080322	1579.434326	30.430141
809.162476	1297.356934	2217.361328	1575.464478	30.228937
809.473633	1297.246704	2212.840088	1571.053589	29.904856
809.784668	1291.071411	2206.113525	1570.833374	30.573671
810.095703	1295.813110	2194.975830	1572.156616	30.733425
810.406738	1298.570068	2186.594971	1568.076294	30.348949
810.717590	1302.870605	2174.465332	1566.091309	30.199896
811.028503	1303.311890	2163.548096	1567.524902	30.714008
811.339294	1303.201416	2153.733887	1563.114014	30.558809
811.650085	1302.209106	2148.661377	1560.246826	30.484615
811.960876	1299.231812	2137.082764	1558.151611	30.902847
812.271545	1301.988525	2129.143311	1561.900879	31.422457
812.582153	1309.045898	2126.496582	1561.459595	30.878157
812.892761	1307.281616	2116.902832	1561.900879	31.449184
813.203308	1302.980957	2115.579590	1561.128906	31.768198
813.513855	1303.973511	2111.058594	1557.379761	31.397713
813.824280	1303.311768	2107.530029	1559.585205	31.866156
814.134705	1301.988525	2105.765869	1556.276978	31.636679
814.445068	1301.437012	2096.943604	1551.535400	31.438883
814.755371	1301.437012	2098.156738	1554.071655	31.709349
815.065613	1299.562378	2102.016113	1549.440186	31.139217
815.375854	1302.980835	2101.354492	1548.337402	30.732046
815.686035	1302.208984	2104.111328	1549.329956	30.816841
815.996155	1303.311646	2104.442139	1550.873779	30.901600
816.306152	1308.053467	2105.544922	1549.219727	30.240608
816.616211	1306.840454	2114.036133	1548.447754	29.931688
816.926208	1303.091187	2117.675049	1552.086548	30.567186
817.236145	1303.752930	2126.166016	1550.873657	30.048248
817.546021	1304.524780	2139.619141	1552.748291	29.724007
817.855774	1305.186401	2151.638916	1555.725708	29.598743
818.165588	1305.958252	2168.951660	1563.003906	29.785355
818.475281	1309.928101	2192.218750	1568.627563	29.321342
818.784973	1305.406860	2222.102783	1574.472046	29.351629
819.094604	1299.231689	2250.112061	1587.594360	30.325863
819.404175	1298.790405	2295.434082	1608.766968	31.102045
819.713684	1298.680298	2358.620117	1641.407593	32.334599
820.023254	1297.577515	2484.661865	1702.277954	34.091969
820.332642	1295.923340	2704.766113	1795.348022	35.449284
820.642090	1295.923584	2994.231445	1922.382080	36.887215
820.951416	1296.144043	3298.804688	2059.230225	38.103619
821.260681	1292.725586	3552.982910	2167.076904	38.683708
821.569946	1293.497559	3751.914551	2252.648438	39.014980
821.879150	1294.159180	3915.779785	2319.583740	39.114147
822.188293	1295.592773	4045.460449	2373.065918	39.182728
822.497437	1298.018799	4152.204102	2419.159912	39.280602
822.806458	1298.018799	4247.811035	2454.557373	39.207458
823.115479	1298.790649	4328.861328	2486.757080	39.205898
823.424438	1300.334473	4405.721191	2512.891846	39.046906
823.733337	1295.813232	4468.245605	2543.988770	39.344433
824.042236	1296.144043	4520.073730	2566.374023	39.400051
824.351013	1295.372192	4567.932129	2587.656738	39.488491
824.659790	1297.467407	4607.079102	2603.756592	39.469559
824.968445	1297.908447	4665.522949	2631.765869	39.608376
825.277100	1301.106445	4735.656250	2664.957764	39.709755
825.585693	1304.635010	4822.220703	2697.377686	39.593708
825.894287	1309.376709	4879.562012	2724.063721	39.625031
826.202820	1314.890381	4901.395996	2725.387207	39.327885
826.511292	1313.787720	4834.019531	2685.027344	38.953106
826.819702	1316.213745	4662.435059	2608.829102	38.629108
827.128113	1320.073242	4409.911133	2497.233154	38.097790
827.436401	1319.962769	4141.618164	2373.396973	37.333908
827.744751	1321.506592	3911.148438	2272.166748	36.710102
828.052917	1322.057983	3731.293945	2198.063721	36.360313
828.361145	1319.521729	3583.308105	2138.516357	36.178089
828.669312	1320.183350	3465.977295	2093.083984	36.019333
828.977356	1315.993164	3366.732178	2050.298340	35.806858
829.285400	1312.464233	3275.867920	2012.033813	35.630451
829.593384	1310.920532	3197.353516	1979.834229	35.459183
829.901306	1307.833008	3122.257813	1951.273682	35.462517
830.209167	1312.133667	3057.858887	1922.713013	34.975685
830.517029	1312.795288	2998.532471	1898.011719	34.715759
830.824829	1314.669922	2946.704346	1876.618896	34.432423
831.132568	1311.802856	2898.073975	1859.636719	34.535954
831.440247	1308.935791	2841.724609	1834.053589	34.258980
831.747925	1308.384399	2783.059814	1807.918945	33.874203
832.055481	1305.848022	2716.786133	1780.020142	33.606869
832.363037	1306.178833	2668.706787	1756.642334	33.060863
832.670532	1304.635010	2628.898438	1741.865723	33.016899
832.977966	1306.178833	2611.034180	1735.359741	32.891071
833.285400	1308.825317	2591.847168	1726.317383	32.539745
833.592712	1306.840454	2572.659668	1721.244751	32.738033
833.900085	1307.391724	2552.700195	1712.092285	32.498016
834.207275	1302.760254	2539.798096	1707.571045	32.724205
834.514526	1301.767822	2527.668213	1704.152710	32.823620
834.821716	1302.760376	2517.964111	1695.000244	32.277706
835.128784	1303.091187	2508.921631	1690.037598	32.089619
835.435852	1306.399292	2503.297852	1685.957642	31.711823
835.742798	1308.163696	2494.696533	1685.296143	31.784409
836.049805	1307.722534	2485.323730	1679.231079	31.547909
836.356750	1309.597168	2474.847656	1676.253662	31.465895
836.663574	1306.950562	2463.930664	1670.519531	31.423960
836.970398	1307.060913	2452.021484	1664.013550	31.175976
837.277161	1304.524658	2437.244629	1655.081299	30.948217
837.583923	1305.075928	2424.122314	1644.825928	30.360672
837.890564	1308.053345	2396.774658	1630.931519	29.656641
838.197205	1308.604858	2354.650391	1615.162598	29.306347
838.503784	1311.692505	2308.005371	1596.636719	28.599873
838.810303	1309.376709	2257.059326	1575.905518	28.124269
839.116699	1306.509766	2211.626953	1556.277100	27.595028
839.423096	1309.046021	2160.791260	1539.625854	27.071455
839.729492	1308.715210	2120.541992	1523.195190	26.419426
840.035828	1304.745361	2089.996582	1512.057861	26.400787
840.342102	1302.760620	2067.500732	1509.962402	27.094404
840.648315	1308.494751	2039.601807	1502.463989	26.530893
840.954529	1311.692505	2021.517090	1491.546997	25.337879
841.260620	1313.015747	2003.432251	1485.261475	24.948090
841.566711	1310.258911	1989.207275	1473.682861	24.070158
841.872803	1309.707397	1968.365845	1466.845947	23.857365
842.178772	1312.795044	1954.250977	1462.104126	23.276592
842.484680	1310.920532	1935.394165	1454.605591	23.008987
842.790588	1312.574585	1921.830688	1447.107056	22.081432
843.096436	1313.567017	1911.354858	1443.247681	21.693426
843.402222	1314.118286	1899.996826	1438.064819	21.155670
843.707947	1315.551880	1889.300415	1433.654053	20.584309
844.013611	1315.993042	1878.162720	1428.140381	19.949020
844.319275	1313.125977	1861.070679	1422.185547	19.903389
844.624817	1314.118530	1844.529785	1411.819824	18.419914
844.930359	1311.913086	1820.380005	1399.800171	17.284719
845.235901	1311.030884	1800.530884	1389.655151	16.062159
845.541321	1315.993164	1778.035400	1379.179199	13.675381
845.846680	1311.913086	1765.354004	1374.547852	13.813214
846.152039	1311.472046	1751.459839	1370.136963	13.333305
846.457275	1316.323975	1736.793335	1362.969360	11.093647
846.762512	1318.308838	1724.553223	1354.588501	8.930502
847.067749	1316.654785	1716.392822	1350.398193	8.441381
847.372925	1315.110840	1705.365479	1347.090088	8.194457
847.677979	1313.125977	1699.410889	1344.002563	7.993216
847.983032	1314.669922	1687.391235	1340.804688	7.011878
848.288025	1310.369263	1681.767456	1334.960205	6.621180
848.592957	1309.045898	1679.782349	1333.967651	6.722229
848.897888	1312.905518	1675.812744	1333.967651	5.803724
849.202759	1312.133667	1675.151001	1333.305908	5.832295
849.507507	1308.715210	1670.739990	1330.218262	5.939663
849.812317	1308.825439	1668.093506	1329.666870	5.801081
850.117004	1308.163818	1667.211182	1329.115479	5.835347
850.421631	1305.958374	1663.682617	1328.343506	6.257650
850.726257	1304.745361	1661.146240	1327.351074	6.342777
851.030823	1304.635010	1660.154053	1327.792114	6.513605
851.335327	1303.421875	1660.264282	1328.894897	7.138452
851.639771	1301.326782	1656.404785	1328.674438	7.701873
851.944153	1296.805664	1654.419800	1333.195557	10.175742
852.248535	1297.136353	1657.507446	1328.453857	8.690349
852.552856	1295.041260	1663.792725	1326.138062	8.432998
852.857056	1291.733032	1663.131104	1326.910156	9.471542
853.161255	1286.770874	1662.579834	1328.233398	11.032873
853.465393	1284.124268	1660.594727	1323.160889	10.369106
853.769531	1279.382568	1652.765381	1324.815063	12.167806
854.073547	1280.044189	1649.788086	1322.719727	11.541918
854.377563	1280.375000	1644.715576	1321.947876	11.410443
854.681580	1280.485474	1645.156616	1319.742432	10.765030
854.985474	1280.926392	1640.194336	1315.993164	9.760618
855.289307	1279.492920	1640.525269	1315.441772	9.957238
855.593140	1276.736084	1639.312134	1315.441650	10.675159
855.896851	1277.066895	1640.525269	1316.544434	10.861640
856.200623	1276.736084	1638.981445	1315.331421	10.654473
856.504272	1275.633423	1635.783691	1315.000610	10.930767
856.807922	1278.169678	1635.452759	1312.574585	9.629593
857.111389	1280.044312	1639.312256	1313.125977	9.208076
857.414978	1278.390259	1637.768555	1311.251343	9.143870
857.718445	1279.382568	1635.121826	1306.950684	7.749528
858.021790	1284.565308	1632.585693	1305.186401	5.925254
858.325195	1287.322144	1635.452881	1299.562378	3.515988
858.628479	1291.071655	1630.380371	1300.995850	2.924827
858.931763	1289.637817	1624.315308	1300.885742	3.360825
859.234985	1288.866089	1626.410522	1295.813110	2.058106
859.538147	1291.071533	1623.763916	1296.584961	1.657215
859.841248	1294.710571	1626.410522	1297.577515	0.864318
860.144287	1297.687866	1629.828857	1297.467163	-0.066449
860.447266	1298.459717	1628.615723	1298.128784	-0.100235
860.750305	1296.915894	1632.585571	1297.246704	0.098552
861.053223	1299.121338	1634.680786	1298.900757	-0.065735
861.356018	1295.592651	1635.342407	1298.128784	0.746471
861.658813	1294.489746	1634.460205	1292.725586	-0.518916
861.961609	1299.672607	1630.049316	1295.813110	-1.168211
862.264343	1299.562256	1629.056885	1293.938599	-1.706752
862.567017	1301.216309	1630.821289	1293.056396	-2.475664
862.869629	1302.539673	1627.843994	1291.071533	-3.525357
863.172180	1302.429443	1623.322754	1294.379639	-2.508561
863.474670	1302.980713	1619.463135	1294.931030	-2.543485
863.777161	1304.083496	1617.037231	1297.467407	-2.114079
864.079590	1303.973267	1616.044800	1300.223999	-1.201413
864.381958	1302.760254	1622.330322	1300.334351	-0.759115
864.684265	1300.665161	1622.991943	1301.326904	0.205302
864.986511	1297.246704	1621.889160	1301.988525	1.460629
865.288757	1299.341797	1621.338013	1304.524658	1.609603
865.590942	1301.988281	1621.117432	1304.635010	0.829360
865.893066	1303.642578	1622.661133	1299.121338	-1.417234
866.195068	1301.988403	1619.352905	1299.452148	-0.799161
866.497131	1300.223999	1619.353027	1293.387329	-2.142290
866.799133	1304.193848	1623.874023	1294.489990	-3.035489
867.100952	1304.965698	1619.794067	1296.805664	-2.591899
867.402832	1306.619751	1616.816650	1297.356934	-2.986109
867.704651	1309.597168	1615.272827	1297.798096	-3.859997
868.006409	1309.045898	1617.808960	1303.311768	-1.857130
868.308105	1307.612305	1620.345459	1298.680298	-2.856111
868.609802	1310.810303	1620.896973	1299.672607	-3.591801
868.911438	1310.148682	1618.360474	1296.143921	-4.543876
869.213013	1310.479370	1617.478394	1294.710449	-5.136473
869.514465	1310.258911	1621.117432	1287.542725	-7.307564
869.815979	1312.133545	1620.345459	1283.793457	-9.195001
870.117371	1311.802734	1622.771362	1278.720947	-10.638304
870.418701	1315.000610	1624.425537	1279.492798	-11.475421
870.720093	1317.536987	1622.440674	1279.713257	-12.405141
871.021301	1319.080811	1621.558350	1283.021362	-11.921364
871.322571	1320.955322	1622.550781	1282.249390	-12.833725
871.623718	1319.301392	1625.638550	1279.933838	-12.851054
871.924805	1318.088379	1625.417969	1283.793457	-11.159004
872.225891	1318.970581	1625.528442	1287.101563	-10.395760
872.526917	1321.396484	1629.277588	1288.535034	-10.673422
872.827881	1323.491699	1626.631104	1291.512451	-10.549354
873.128784	1318.970459	1619.242920	1292.063843	-8.960734
873.429626	1317.867798	1620.345581	1294.489990	-7.728768
873.730408	1317.757568	1618.691406	1297.026245	-6.888997
874.031189	1314.338989	1621.338013	1299.672852	-4.777259
874.331848	1314.780151	1621.227661	1303.091187	-3.814345
874.632568	1311.692627	1620.786499	1303.752930	-2.568701
874.933167	1311.251343	1620.896973	1301.767944	-3.062662
875.233704	1309.156250	1623.102295	1305.958374	-1.018607
875.534241	1308.494629	1626.630981	1308.163818	-0.103984
875.834717	1307.171509	1627.513184	1315.221313	2.512881
876.135071	1303.752930	1634.570679	1319.080811	4.633331
876.435425	1302.539917	1634.019165	1323.160889	6.220894
876.735779	1304.635132	1635.893799	1322.499146	5.392769
877.036011	1298.901001	1636.004150	1322.609497	7.033010
877.336182	1297.246948	1638.650635	1321.837524	7.202786
877.636353	1294.931152	1645.928589	1321.837402	7.665654
877.936462	1294.931030	1651.001099	1325.476440	8.578483
878.236511	1297.908447	1661.366821	1331.982544	9.374966
878.536560	1297.798218	1679.782349	1342.127563	11.605022
878.836487	1297.246826	1703.049805	1357.124634	14.755389
879.136414	1294.379639	1762.486816	1385.575073	19.481743
879.436279	1291.843506	1852.138428	1425.714233	23.892904
879.736084	1293.276855	1963.513550	1471.366943	26.571222
880.035828	1290.961182	2086.908691	1522.643799	29.107777
880.335510	1293.938477	2202.694824	1568.627441	30.226910
880.635193	1293.276855	2303.594238	1610.751709	31.423279
880.934753	1297.797852	2393.576904	1654.860840	32.585308
881.234314	1296.474854	2473.193359	1686.839844	33.174034
881.533752	1298.569946	2539.467529	1717.054688	33.724358
881.833252	1297.798096	2600.889404	1740.652954	33.984943
882.132629	1298.570068	2658.892822	1758.296509	33.795395
882.431946	1298.680298	2704.766113	1775.278442	33.895382
882.731323	1299.893433	2746.559326	1791.709106	33.996494
883.030579	1298.459839	2780.192627	1806.816406	34.308250
883.329712	1298.018677	2813.053955	1818.725952	34.369316
883.628845	1298.790527	2833.675049	1826.996460	34.413399
883.927979	1298.900879	2847.128174	1831.076416	34.373219
884.226990	1299.452148	2858.045166	1834.384521	34.321491
884.526001	1296.144043	2861.684082	1829.201416	34.049423
884.824951	1296.695435	2855.398682	1822.695313	33.745991
885.123840	1295.702881	2838.306396	1808.911255	33.268974
885.422729	1297.687744	2793.645996	1786.636475	32.684650
885.721497	1300.223999	2709.948975	1747.930786	31.758450
886.020203	1301.216553	2605.962158	1701.285156	30.662575
886.318909	1302.760376	2484.331299	1649.126465	29.314034
886.617554	1302.980835	2367.773193	1604.576294	28.324345
886.916138	1302.980957	2268.858643	1559.364746	26.544127
887.214661	1300.554932	2181.522705	1516.248047	24.483656
887.513184	1301.106323	2099.369629	1485.040771	23.041826
887.811523	1298.018677	2028.905518	1452.730957	21.167747
888.109924	1303.752808	1794.686401	1352.383057	9.905667
888.408264	1292.174194	1871.105347	1449.643433	27.199993
888.706543	1294.489868	1690.478760	1363.961670	17.543877
889.004761	1331.541504	1743.740479	1333.857178	0.561785
889.302979	1313.015747	1655.742920	1319.962891	2.027019
889.601135	1329.225830	1637.217163	1368.593140	12.781954
889.899170	1282.911255	1678.900146	1301.437134	4.678383
890.197205	1313.015747	1667.321533	1303.752808	-2.614391
890.495178	1299.121338	1597.849854	1278.279907	-6.976713
890.793091	1271.332642	1570.061157	1264.385498	-2.325571
>>>>>End Processed Spectral Data<<<<<
