Jaz Data File
++++++++++++++++++++++++++++++++++++
Date: Fri Jun 21 02:23:21 2019
User: jaz
Dark Spectrum Present: Yes
Reference Spectrum Present: Yes
Processed Spectrum Present: Yes
Spectrometers: JAZA3541
Integration Time (usec): 119000 (JAZA3541)
Spectra Averaged: 1 (JAZA3541)
Boxcar Smoothing: 10 (JAZA3541)
Correct for Electrical Dark: No (JAZA3541)
Strobe/Lamp Enabled: Yes (JAZA3541)
Correct for Detector Non-linearity: No (JAZA3541)
Correct for Stray Light: No (JAZA3541)
Number of Pixels in Processed Spectrum: 2048
>>>>>Begin Processed Spectral Data<<<<<
W	D	R	S	P
190.543274	0.000000	0.000000	0.000000	0.000000
190.921555	0.000000	0.000000	0.000000	0.000000
191.299805	1558.482544	1405.644653	1630.270020	-46.969685
191.678024	1533.009521	1440.380615	1614.059937	-87.500130
192.056229	1539.956665	1535.325317	1586.271240	-1000.023743
192.434387	1519.115234	1551.535278	1618.691284	307.143463
192.812531	1604.796997	1597.849854	1651.111450	-666.669006
193.190659	1556.166748	1542.272461	1653.427246	-700.003540
193.568741	1623.322754	1530.693848	1600.165527	25.000000
193.946793	0.000000	0.000000	0.000000	0.000000
194.324829	1410.165894	1403.770142	1484.489868	-1162.083496
194.702835	1483.938232	1477.322021	1558.813599	-1131.695557
195.080811	1555.725708	1551.645752	1636.004517	-1967.639038
195.458755	1552.307251	1560.467407	1635.232544	1016.221863
195.836685	1553.520386	1565.540039	1636.445557	689.913147
196.214569	1554.953857	1568.627808	1637.768555	605.638428
196.592422	1551.425171	1571.164063	1638.430420	440.780823
196.970261	1549.219727	1570.833130	1637.768799	409.695190
197.348068	1548.999146	1571.274170	1632.806396	376.238647
197.725861	1545.690796	1573.810425	1636.334961	322.351929
198.103622	1539.625854	1573.589844	1632.585693	273.701172
198.481323	1540.287598	1569.399536	1627.403076	299.243134
198.859039	1539.846436	1568.958374	1625.528320	294.318726
199.236694	1536.758789	1568.296631	1629.056885	292.658264
199.614334	1539.295166	1566.201660	1627.513062	327.868408
199.991959	1540.728760	1571.604858	1625.528320	274.644684
200.369553	1537.751465	1570.502075	1621.889160	256.904205
200.747101	1536.759033	1571.935669	1620.676147	238.559235
201.124619	1535.215210	1570.502197	1618.140015	235.001083
201.502136	1531.796631	1571.274048	1611.082397	200.838287
201.879623	1529.922119	1568.517334	1612.405640	213.714371
202.257065	1525.621216	1569.730225	1610.531006	192.499878
202.634476	1525.621216	1573.589600	1610.972290	177.931931
203.011871	1524.187744	1573.258911	1612.075195	179.102020
203.389221	1524.408203	1571.715088	1610.420898	181.818558
203.766571	1523.415649	1570.722656	1609.318237	181.585342
204.143875	1523.305542	1567.635010	1609.538696	194.527832
204.521164	1526.613770	1564.878296	1606.892090	209.798279
204.898392	1524.408203	1563.444702	1604.796875	205.932068
205.275620	1523.856812	1563.665405	1612.074951	221.605774
205.652817	1524.297852	1562.783081	1607.884521	217.191559
206.029984	1529.370483	1566.422241	1610.310669	218.451675
206.407135	1528.378052	1568.848267	1611.964600	206.538437
206.784225	1530.473389	1569.950928	1612.515991	207.820969
207.161301	1530.252808	1570.281616	1611.302979	202.479599
207.538376	1528.929443	1571.274170	1613.398193	199.478790
207.915405	1529.260376	1568.517456	1610.310669	206.460327
208.292404	1529.480835	1568.737671	1609.318237	203.371979
208.669373	1525.952148	1570.833008	1610.972290	189.435196
209.046310	1524.628784	1571.053589	1611.302979	186.698029
209.423218	1528.267822	1569.509644	1612.074951	203.209091
209.800095	1530.032227	1570.612549	1614.611206	208.423630
210.176956	1530.032227	1570.833130	1620.014648	220.540268
210.553787	1531.686279	1566.201660	1625.748901	272.523773
210.930603	1535.435425	1566.091553	1626.520508	297.118683
211.307358	1536.648438	1565.760620	1626.741089	309.467194
211.684113	1538.412842	1570.391968	1626.630737	275.860870
212.060837	1534.773804	1573.920776	1626.630737	234.646332
212.437531	1533.340210	1574.802856	1630.049316	233.243927
212.814178	1532.458130	1578.772705	1630.049438	210.714035
213.190826	1532.788940	1580.426758	1626.520630	196.758987
213.567413	1530.914307	1580.095947	1628.064575	197.533600
213.943985	1528.267822	1576.015869	1631.703735	216.628571
214.320541	1528.488281	1577.669800	1633.578369	213.678009
214.697052	1527.716431	1577.228760	1633.137085	212.917984
215.073563	1529.591064	1581.198486	1630.270142	195.086426
215.449997	1529.921875	1582.852661	1628.946777	187.083755
215.826431	1528.708862	1588.586670	1630.931519	170.718765
216.202850	1529.370483	1590.792236	1634.019165	170.377228
216.579224	1533.119751	1588.807495	1631.703491	177.029510
216.955582	1533.560791	1588.586914	1632.254883	179.358612
217.331894	1531.135010	1586.932861	1634.239990	184.783066
217.708191	1532.017090	1588.035400	1630.380249	175.591080
218.084442	1537.420532	1591.674438	1626.851563	164.837952
218.460678	1534.443115	1598.180420	1621.889282	137.197784
218.836899	1532.678711	1603.694214	1625.638550	130.900772
219.213074	1532.127563	1606.892090	1628.285156	128.613922
219.589233	1531.024658	1605.348389	1631.483032	135.163254
219.965347	1533.891846	1609.869385	1634.129639	131.930817
220.341431	1535.987061	1615.713867	1630.821411	118.949142
220.717499	1535.435669	1614.721558	1633.578369	123.783310
221.093552	1534.002075	1619.242554	1632.255005	115.265579
221.469543	1535.104858	1625.197510	1633.026978	108.690460
221.845535	1536.207642	1630.380249	1631.924072	101.639359
222.221466	1537.310303	1634.350098	1630.490723	96.022896
222.597397	1535.435547	1642.069214	1633.688599	92.140739
222.973297	1537.420532	1647.362183	1636.114624	89.769524
223.349167	1536.979492	1655.853271	1639.643188	86.363617
223.725006	1537.530640	1662.359375	1638.540527	80.918777
224.100800	1538.082153	1671.952881	1637.768433	74.464584
224.476578	1538.854004	1682.097900	1645.818237	74.672806
224.852325	1537.971680	1701.726563	1648.024048	67.205551
225.228058	1541.279907	1724.332397	1649.567505	59.156582
225.603760	1540.838867	1750.246460	1654.971191	54.502476
225.979416	1536.317749	1779.248169	1660.925537	51.293613
226.355057	1535.325195	1813.322388	1668.313965	47.838169
226.730652	1533.671143	1852.028076	1666.990723	41.877392
227.106232	1534.773926	1886.543335	1670.409180	38.558002
227.481796	1531.575928	1920.286865	1673.717285	36.567368
227.857315	1528.378052	1946.972900	1676.253662	35.326668
228.232788	1528.819214	1971.673950	1684.634277	35.184238
228.608246	1531.465698	1999.903687	1685.737183	32.933170
228.983704	1534.112305	2022.950684	1687.721924	31.423395
229.359100	1531.575928	2040.263428	1686.619385	30.479116
229.734482	1528.378052	2061.546143	1687.501465	29.844887
230.109833	1529.039795	2075.881592	1687.722046	29.017944
230.485153	1528.488403	2087.349609	1686.729492	28.314917
230.860443	1521.541260	2101.575195	1685.626831	28.288961
231.235703	1520.879517	2121.534668	1684.524048	27.244339
231.610931	1519.225464	2137.523926	1687.942749	27.287354
231.986145	1517.240479	2152.079834	1689.596680	27.149578
232.361313	1516.468506	2165.532959	1688.162964	26.452606
232.736465	1519.115112	2169.833984	1686.950195	25.792257
233.111572	1517.571289	2172.921387	1687.501465	25.929678
233.486664	1518.894653	2171.708252	1693.125366	26.689198
233.861725	1517.350586	2169.944092	1693.897339	27.053097
234.236755	1520.107422	2156.931885	1689.927490	26.666700
234.611771	1522.313110	2138.516357	1690.258179	27.254818
234.986740	1523.415771	2132.671875	1689.596558	27.276014
235.361679	1526.062256	2128.922607	1691.030273	27.364218
235.736588	1526.393188	2124.952881	1689.486450	27.247618
236.111496	1527.936890	2122.196045	1689.265869	27.147917
236.486343	1528.819092	2122.857666	1691.912354	27.454994
236.861160	1527.716309	2128.371582	1694.999756	27.850159
237.235962	1529.370483	2138.626465	1699.962280	28.000021
237.610733	1532.016968	2152.962158	1705.034790	27.863623
237.985474	1532.016968	2177.111572	1711.099731	27.760698
238.360199	1533.009521	2207.988037	1715.510376	27.038025
238.734879	1534.994385	2240.628662	1721.575562	26.441626
239.109543	1532.347900	2281.539551	1734.367188	26.964968
239.484177	1533.450562	2334.360352	1742.086182	26.049828
239.858749	1535.325195	2397.105469	1755.649780	25.566214
240.233322	1530.804199	2464.923096	1763.258545	24.884878
240.607864	1528.709106	2528.660889	1779.027710	25.033068
240.982391	1529.370728	2583.025391	1790.165405	24.751438
241.356857	1527.826904	2627.685547	1794.245483	24.222984
241.731308	1533.340454	2665.288574	1799.428223	23.507065
242.105728	1529.150024	2699.583252	1807.367554	23.770473
242.480118	1528.708984	2736.414307	1809.793701	23.274281
242.854492	1529.480957	2770.378418	1817.513062	23.211596
243.228836	1527.606323	2818.898193	1823.357544	22.903515
243.603134	1531.245361	2883.187256	1838.574829	22.732447
243.977402	1529.150146	2971.956787	1849.050537	22.172091
244.351654	1526.724121	3079.692871	1868.568970	22.012346
244.725861	1527.495972	3195.809814	1888.638794	21.647175
245.100067	1529.260376	3309.391113	1907.605713	21.253796
245.474213	1530.693970	3406.872070	1920.397095	20.771116
245.848343	1529.150146	3476.453857	1929.770264	20.573069
246.222443	1528.378174	3532.362061	1940.135742	20.546949
246.596512	1530.252808	3565.884766	1946.752075	20.460440
246.970566	1530.804077	3581.543457	1943.002808	20.100006
247.344574	1531.134888	3573.714355	1944.987671	20.261282
247.718567	1528.157471	3552.431641	1940.797485	20.384592
248.092529	1533.561035	3529.936035	1941.128296	20.415365
248.466431	1533.891724	3510.307617	1941.238647	20.610386
248.840332	1534.002197	3506.668945	1941.679932	20.666327
249.214203	1533.891846	3516.923828	1943.885376	20.675083
249.588043	1529.811768	3538.868408	1943.995483	20.615831
249.961838	1525.952148	3566.656982	1948.516724	20.706795
250.335617	1524.629028	3592.460938	1953.148071	20.723106
250.709381	1522.423584	3603.377930	1950.942505	20.592422
251.083084	1521.320801	3591.468262	1950.721924	20.742538
251.456787	1521.982422	3561.474365	1940.577026	20.524454
251.830460	1521.762085	3509.425293	1933.409424	20.710115
252.204071	1522.203125	3429.367188	1916.978760	20.699615
252.577667	1521.761963	3337.069092	1901.761353	20.933064
252.951248	1521.541260	3250.725830	1891.395630	21.388947
253.324799	1517.020142	3177.835449	1878.273193	21.751549
253.698303	1516.248169	3130.969482	1870.774536	21.955885
254.071793	1518.233032	3092.374268	1862.393799	21.863398
254.445236	1520.769287	3078.479736	1863.386108	21.994898
254.818665	1521.541260	3072.855957	1863.716919	22.057140
255.192062	1521.320801	3089.396729	1867.576416	22.081560
255.565430	1525.511108	3120.272949	1876.508423	22.009388
255.938782	1522.092651	3155.891113	1879.596191	21.881741
256.312103	1523.636475	3214.445801	1883.455688	21.280886
256.685364	1522.202881	3288.438721	1894.041626	21.052610
257.058594	1520.107666	3374.341064	1904.076660	20.707695
257.431793	1523.195435	3472.593750	1924.477295	20.584909
257.804993	1527.716431	3583.969238	1939.694702	20.035389
258.178162	1529.150024	3682.222412	1957.338379	19.887320
258.551270	1530.032227	3768.455322	1972.225220	19.754665
258.924377	1529.370483	3840.132080	1979.944336	19.498932
259.297485	1525.290405	3899.569580	1986.229736	19.413862
259.670502	1529.149780	3942.906982	1994.169434	19.265385
260.043518	1533.891602	3992.750732	2002.550049	19.059996
260.416473	1530.362793	4040.167725	2006.740356	18.980661
260.789459	1527.606079	4078.542725	2008.174072	18.838884
261.162354	1530.803955	4110.521484	2016.665039	18.833887
261.535278	1529.149902	4134.229980	2022.840454	18.951071
261.908142	1529.370483	4159.372070	2028.574463	18.981129
262.280975	1526.613647	4174.479004	2029.677246	18.998837
262.653717	1530.583374	4190.909668	2033.426514	18.901560
263.026520	1530.914307	4200.062012	2030.008179	18.698624
263.399261	1525.952148	4207.781250	2029.015625	18.758223
263.771973	1526.834351	4219.911133	2031.110840	18.724922
264.144653	1523.084961	4213.735840	2029.787720	18.831978
264.517334	1525.290405	4186.388184	2020.855469	18.622581
264.889954	1525.952148	4137.316406	2015.010986	18.728098
265.262543	1526.393188	4074.020508	2000.344727	18.603643
265.635071	1529.480835	3996.830078	1992.294678	18.757534
266.007599	1528.047363	3930.997070	1979.723633	18.796743
266.380127	1524.408325	3887.770752	1972.556030	18.962294
266.752594	1526.503418	3869.796143	1968.145264	18.847063
267.125031	1525.952148	3869.355225	1968.806763	18.897928
267.497437	1520.879517	3888.873535	1973.327881	19.106819
267.869843	1518.674072	3911.148438	1973.438232	19.008110
268.242218	1521.430908	3946.104980	1985.016968	19.119520
268.614532	1521.872070	4017.010498	1998.580322	19.105484
268.986816	1519.004883	4098.060547	2007.071289	18.924229
269.359100	1521.871948	4188.152832	2017.657349	18.594643
269.731354	1522.092407	4275.819824	2030.007813	18.444651
270.103516	1523.084961	4346.615234	2036.182983	18.172216
270.475708	1518.784424	4407.816406	2042.248169	18.119001
270.847839	1522.092529	4464.496094	2054.929688	18.108908
271.219971	1526.944702	4510.920898	2056.032471	17.730965
271.592041	1529.921875	4535.180664	2057.135254	17.543028
271.964081	1532.237671	4553.485840	2056.583984	17.355288
272.336151	1532.237671	4574.547852	2058.017334	17.282251
272.708130	1531.686279	4593.956055	2057.466064	17.169611
273.080109	1530.804077	4614.908203	2060.443115	17.173189
273.452026	1530.252686	4644.680664	2060.553467	17.027229
273.823914	1533.560913	4678.535156	2067.169922	16.967039
274.195770	1535.435425	4714.483887	2070.147217	16.819870
274.567627	1536.979126	4748.447754	2074.006592	16.722176
274.939423	1537.420288	4784.065918	2079.961426	16.710821
275.311249	1538.853882	4807.002441	2078.086914	16.499649
275.682983	1536.979370	4827.954590	2078.417480	16.452209
276.054688	1534.443115	4832.806641	2077.094482	16.452139
276.426422	1536.648560	4815.052734	2073.455566	16.374033
276.798065	1537.530640	4785.389648	2070.257568	16.402403
277.169708	1537.199951	4757.159668	2066.729004	16.445208
277.541321	1539.515625	4739.075195	2060.663818	16.288122
277.912903	1539.074585	4743.375977	2063.641357	16.370707
278.284424	1539.736206	4756.277344	2069.927002	16.483259
278.655945	1535.656250	4777.670410	2067.611084	16.408159
279.027435	1538.523315	4811.523926	2073.455566	16.343788
279.398865	1537.971924	4872.173828	2082.828613	16.341442
279.770294	1538.412964	4936.683105	2093.415039	16.331900
280.141663	1538.082275	4996.009766	2101.685303	16.298868
280.513031	1541.500610	5055.887695	2112.602295	16.250391
280.884369	1538.523193	5092.829102	2118.557129	16.319191
281.255676	1540.177368	5132.637207	2127.489258	16.348461
281.626953	1538.412964	5166.601074	2130.245850	16.312078
281.998199	1539.736206	5202.770996	2138.626465	16.349566
282.369385	1540.508057	5250.519043	2148.991943	16.401134
282.740540	1542.603271	5308.743164	2157.041992	16.314814
283.111694	1540.397827	5362.334961	2167.628174	16.411322
283.482819	1541.059326	5430.263184	2185.602539	16.572626
283.853912	1542.382813	5511.203613	2197.512207	16.506903
284.224945	1538.743774	5583.652832	2206.885254	16.518084
284.595978	1542.272461	5653.455566	2212.950195	16.313498
284.966980	1541.941650	5715.318359	2223.756836	16.337254
285.337952	1537.861450	5756.670410	2237.541016	16.584764
285.708893	1539.405273	5777.953613	2242.613770	16.590786
286.079803	1540.949097	5798.574219	2240.849365	16.438749
286.450684	1543.154785	5811.917480	2244.268311	16.424280
286.821533	1537.861572	5818.423340	2243.495850	16.484619
287.192322	1536.097412	5819.305176	2249.450928	16.654655
287.563110	1538.082275	5831.985840	2250.222412	16.584913
287.933868	1538.854126	5849.850098	2259.816162	16.723793
288.304596	1538.523315	5884.034668	2266.101807	16.743219
288.675262	1538.743896	5930.018555	2276.357178	16.797249
289.045929	1537.641113	5962.328613	2283.194092	16.849844
289.416565	1536.869141	5990.999023	2289.589844	16.899387
289.787170	1538.302734	5998.938477	2296.757568	17.003290
290.157745	1535.545898	6001.916016	2298.301514	17.077751
290.528259	1536.317749	5993.204102	2302.381592	17.188320
290.898773	1539.736084	6004.672852	2304.035645	17.117815
291.269226	1537.751221	6002.908691	2304.807373	17.178703
291.639679	1538.192261	5995.741211	2308.556885	17.282248
292.010101	1540.397827	6016.803223	2311.754883	17.231619
292.380463	1537.199829	6050.877441	2327.413574	17.507093
292.750824	1539.625854	6085.503418	2334.360596	17.482538
293.121155	1537.640869	6131.597168	2338.440674	17.431595
293.491455	1534.884155	6201.399414	2349.688477	17.460659
293.861725	1532.458130	6279.141602	2366.008545	17.560690
294.231964	1532.458130	6366.808594	2383.652344	17.607208
294.602142	1535.766235	6463.296875	2403.721924	17.614414
294.972321	1533.009399	6543.686035	2418.498291	17.672041
295.342468	1527.716309	6605.217773	2434.598145	17.860788
295.712555	1525.731445	6647.011230	2444.743408	17.944967
296.082672	1529.370483	6671.602051	2446.617920	17.837538
296.452728	1529.811523	6675.351074	2446.948730	17.823927
296.822693	1528.378052	6675.020020	2445.735596	17.824390
297.192657	1527.495850	6668.844727	2452.682861	17.995026
297.562622	1525.510986	6691.009766	2454.447266	17.983477
297.932556	1531.355469	6707.330566	2458.858154	17.919380
298.302460	1530.693848	6710.307129	2461.945801	17.979179
298.672333	1529.260376	6708.653320	2462.938232	18.026781
299.042145	1529.260376	6706.778809	2462.827881	18.031176
299.411957	1527.716553	6705.897461	2461.394287	18.031000
299.781677	1527.716553	6663.441406	2456.432129	18.083439
300.151428	1527.496094	6619.552734	2445.184570	18.021961
300.521149	1524.629028	6556.917969	2433.495361	18.060694
300.890839	1525.842041	6491.747559	2424.122314	18.088953
301.260468	1526.503662	6415.769531	2411.882080	18.108618
301.630096	1525.621338	6328.434570	2400.744629	18.221056
301.999695	1525.290527	6236.907715	2386.960449	18.288198
302.369232	1523.526245	6126.966309	2366.780518	18.317917
302.738739	1525.952148	6024.302246	2349.136963	18.299706
303.108246	1529.922119	5926.270020	2331.052246	18.222630
303.477692	1530.363159	5852.166504	2316.716797	18.195036
303.847137	1526.724121	5775.858398	2308.226074	18.392027
304.216553	1530.363037	5724.691406	2301.940186	18.395727
304.585876	1531.465820	5688.742188	2296.206055	18.395222
304.955231	1535.215088	5666.687988	2289.258789	18.251209
305.324493	1534.443115	5638.126953	2286.832764	18.334496
305.693787	1530.252686	5612.212891	2282.752686	18.434771
306.063049	1530.032227	5607.581055	2277.680176	18.335720
306.432251	1528.708740	5606.588379	2278.231689	18.380213
306.801422	1529.260132	5598.097656	2275.916016	18.350595
307.170593	1532.568481	5595.450684	2276.577637	18.312347
307.539673	1528.819092	5608.573730	2280.547363	18.425821
307.908783	1531.575928	5615.080078	2284.848145	18.446711
308.277832	1531.355347	5644.522949	2295.544434	18.579090
308.646851	1534.773926	5681.133301	2302.270996	18.510143
309.015839	1536.207520	5715.649414	2308.777100	18.484993
309.384796	1538.082153	5746.415039	2315.173096	18.465528
309.753723	1535.766357	5771.998047	2314.401123	18.380363
310.122620	1533.891724	5793.611816	2321.237793	18.483517
310.491486	1532.899292	5812.357422	2325.869141	18.529680
310.860352	1530.914307	5821.179199	2327.192627	18.560122
311.229126	1534.332886	5826.031250	2326.090332	18.448582
311.597931	1529.701416	5843.123535	2326.862061	18.480934
311.966675	1526.613892	5869.699219	2333.698730	18.583214
312.335388	1526.834351	5896.274414	2339.874023	18.607412
312.704071	1522.974854	5922.739746	2340.535645	18.581921
313.072723	1524.959717	5931.230957	2337.447998	18.439360
313.441345	1523.526245	5931.341309	2336.786377	18.450415
313.809875	1523.195313	5911.823242	2336.676270	18.536112
314.178436	1523.195190	5885.688477	2334.691162	18.601656
314.546967	1521.982178	5851.614258	2331.052002	18.686804
314.915466	1519.446045	5811.254883	2325.428467	18.779552
315.283936	1523.967163	5773.100586	2314.511230	18.604832
315.652374	1523.195557	5733.402344	2306.571777	18.606596
316.020752	1523.416016	5692.822266	2294.110840	18.484522
316.389130	1525.842041	5654.116699	2286.281738	18.420280
316.757416	1525.621460	5628.202637	2282.642578	18.452314
317.125732	1523.085205	5605.376465	2274.151855	18.398165
317.494019	1524.739258	5578.800781	2277.459717	18.567070
317.862274	1526.062378	5549.468262	2271.174316	18.519434
318.230469	1529.922119	5524.436523	2263.455322	18.363514
318.598663	1533.671265	5506.020996	2262.352539	18.343836
318.966797	1531.245239	5488.487793	2262.021729	18.466810
319.334930	1533.781494	5473.932129	2261.470215	18.468552
319.703003	1532.678711	5446.804688	2254.412842	18.439217
320.071045	1530.583374	5422.875000	2250.553223	18.497326
320.439056	1532.127197	5403.687988	2247.796387	18.485289
320.807037	1537.199829	5414.494629	2250.773926	18.403915
321.175049	1538.192261	5435.997559	2256.508301	18.428732
321.542969	1539.074463	5475.586426	2262.021729	18.365173
321.910828	1539.956665	5513.740234	2266.542480	18.284483
322.278717	1543.375122	5567.442871	2273.930908	18.154659
322.646515	1543.375122	5607.582031	2282.642578	18.189709
323.014313	1543.595581	5643.199707	2292.346436	18.263981
323.382111	1542.492798	5687.860352	2297.198486	18.206001
323.749817	1541.941650	5724.360840	2305.799805	18.263550
324.117523	1535.876587	5743.216797	2308.998047	18.375540
324.485199	1533.781372	5748.399414	2306.240967	18.328104
324.852814	1537.971680	5759.096191	2306.351318	18.203197
325.220428	1539.736084	5759.537598	2301.719971	18.057339
325.588013	1537.751221	5774.203125	2302.602051	18.054041
325.955536	1536.317627	5782.694336	2303.925293	18.076767
326.323059	1532.678711	5803.094727	2303.484375	18.049896
326.690552	1531.465698	5815.775879	2305.358887	18.063427
327.058014	1530.914307	5817.209473	2305.028320	18.060213
327.425415	1534.773804	5825.149414	2306.792480	17.994198
327.792816	1535.986938	5825.590332	2303.815186	17.899748
328.160187	1538.082031	5828.567871	2303.484131	17.839521
328.527496	1530.032227	5812.688477	2300.065674	17.980276
328.894775	1529.039673	5795.044434	2295.765137	17.972916
329.262054	1528.929443	5777.400879	2289.479492	17.901733
329.629303	1532.678711	5770.233398	2288.045654	17.825539
329.996490	1530.473267	5766.263672	2288.486816	17.895445
330.363647	1532.237549	5787.656738	2282.863037	17.639286
330.730774	1527.826660	5805.520996	2288.817627	17.789745
331.097839	1528.157593	5829.229004	2297.308350	17.882772
331.464935	1527.936890	5850.953125	2299.624268	17.850672
331.831970	1528.488159	5875.543457	2305.248291	17.868650
332.198975	1526.503296	5903.552734	2311.203125	17.927599
332.565948	1526.613647	5927.261230	2313.959717	17.891596
332.932892	1525.069824	5965.636719	2323.664063	17.984060
333.299744	1527.716431	5998.608398	2330.831543	17.963196
333.666656	1527.936890	6036.652344	2336.565918	17.934799
334.033478	1526.062256	6062.897461	2341.969238	17.984056
334.400299	1526.282837	6098.184570	2346.269775	17.935358
334.767090	1527.385620	6137.110352	2347.703369	17.795374
335.133850	1523.746704	6170.633301	2354.099365	17.869011
335.500549	1522.423462	6201.068848	2358.399902	17.867916
335.867218	1517.681763	6233.599121	2367.662842	18.023663
336.233917	1517.791992	6266.350586	2374.278809	18.036776
336.600525	1517.902222	6286.419434	2377.477051	18.026041
336.967102	1518.453491	6298.108398	2383.873047	18.106319
337.333649	1514.814697	6301.747070	2389.937988	18.281504
337.700195	1515.365967	6302.960449	2386.960693	18.205275
338.066681	1514.814697	6287.301270	2384.645020	18.225937
338.433136	1514.924805	6274.620605	2382.329102	18.223944
338.799591	1517.791992	6256.425781	2377.808105	18.149031
339.165985	1518.674072	6243.192871	2376.815430	18.163572
339.532318	1518.233032	6246.500977	2380.123779	18.228466
339.898651	1522.864380	6259.623535	2384.093262	18.181816
340.264954	1521.320679	6270.540039	2389.276123	18.275751
340.631226	1519.446045	6293.697754	2392.804932	18.293104
340.997467	1514.042603	6324.463379	2400.854492	18.435225
341.363678	1512.278320	6352.583984	2407.912109	18.503662
341.729828	1514.704224	6393.384766	2417.285400	18.500517
342.095947	1517.902100	6440.028809	2426.658691	18.462681
342.462067	1519.335693	6484.028320	2443.199707	18.608686
342.828156	1520.769165	6534.422852	2451.690430	18.567720
343.194183	1523.526001	6589.118164	2461.284180	18.512310
343.560211	1529.811523	6630.911621	2467.239014	18.376966
343.926178	1529.590942	6675.130859	2478.155762	18.434698
344.292114	1528.598511	6720.674316	2484.551758	18.411774
344.658020	1526.723877	6756.071289	2492.270752	18.464003
345.023926	1530.252563	6774.155273	2490.727051	18.316023
345.389771	1530.473267	6798.194824	2495.689209	18.323214
345.755585	1531.024414	6824.880859	2503.518555	18.370239
346.121368	1537.089478	6843.737305	2505.172607	18.242836
346.487122	1534.443115	6866.122559	2511.237549	18.320576
346.852844	1536.869019	6899.425781	2520.610840	18.344643
347.218536	1538.853882	6923.574219	2525.462891	18.322382
347.584167	1539.184814	6951.252930	2530.314697	18.313330
347.949768	1540.177246	6975.071289	2537.813477	18.356131
348.315369	1540.838867	6981.578125	2538.916016	18.344513
348.680939	1544.477905	6995.692871	2538.916016	18.242504
349.046448	1547.786133	7005.065430	2540.790771	18.195965
349.411957	1546.793701	7011.351074	2540.791016	18.189896
349.777435	1543.706055	7011.021484	2541.231689	18.245255
350.142792	1546.903931	7013.336914	2538.695313	18.143301
350.508209	1547.675903	7017.306641	2540.128906	18.144789
350.873566	1545.911499	7036.273926	2542.444580	18.150589
351.238892	1545.470459	7057.776855	2546.745361	18.164354
351.604187	1549.109253	7084.462891	2548.399658	18.052874
351.969482	1553.079102	7127.248535	2559.206055	18.049809
352.334717	1553.851196	7176.099609	2570.012939	18.073938
352.699890	1551.535400	7256.376465	2583.135498	18.082890
353.065063	1551.976318	7340.295410	2602.433350	18.147877
353.430237	1551.314819	7438.216309	2615.114502	18.070621
353.795319	1548.778442	7545.511719	2629.670654	18.024683
354.160370	1548.668213	7656.886230	2643.454590	17.923172
354.525421	1547.014282	7778.847656	2663.854980	17.921543
354.890442	1547.786133	7926.062500	2684.586182	17.822998
355.255402	1544.367676	8060.375000	2709.838623	17.886274
355.620331	1547.345093	8211.227539	2731.893066	17.775644
355.985260	1548.006714	8359.985352	2757.476074	17.755037
356.350098	1549.440186	8488.122070	2778.538330	17.713713
356.714935	1547.455322	8615.155273	2799.490234	17.714884
357.079742	1548.116943	8735.904297	2824.301270	17.754898
357.444519	1544.588135	8862.386719	2847.017578	17.798103
357.809296	1537.530762	9007.835938	2873.152100	17.879074
358.173981	1534.663574	9175.340820	2898.294189	17.846987
358.538605	1535.104736	9362.474609	2930.163086	17.822823
358.903259	1535.104736	9576.954102	2967.214600	17.808214
359.267914	1535.214966	9815.033203	3008.125977	17.789171
359.632477	1534.001831	10056.529297	3044.405762	17.722488
359.997009	1532.237549	10270.126953	3076.384521	17.671852
360.361542	1533.671021	10432.007813	3102.960205	17.635757
360.726013	1533.009399	10550.330078	3122.368408	17.625624
361.090485	1533.119751	10621.235352	3136.483154	17.642420
361.454895	1537.640869	10669.645508	3146.628418	17.619215
361.819244	1538.081787	10689.494141	3155.119385	17.669815
362.183594	1538.964233	10671.849609	3148.613037	17.624756
362.547913	1538.523071	10616.161133	3146.408203	17.712595
362.912201	1539.515625	10574.367188	3135.711426	17.667095
363.276489	1536.097168	10510.079102	3121.155029	17.662815
363.640686	1532.568359	10443.033203	3115.862061	17.768923
364.004883	1531.686279	10386.685547	3110.458984	17.829168
364.369049	1529.701416	10336.401367	3102.739746	17.861835
364.733154	1531.024780	10286.117188	3089.617188	17.802124
365.097198	1537.200073	10230.098633	3081.126465	17.760778
365.461273	1542.272461	10137.360352	3064.585449	17.711430
365.825287	1545.580688	10013.523438	3049.919189	17.765100
366.189270	1546.132080	9845.798828	3032.826904	17.912704
366.553223	1545.690796	9649.182617	2995.885498	17.895924
366.917114	1546.132080	9422.791992	2957.621094	17.919891
367.281006	1547.014282	9187.691406	2919.136230	17.958120
367.644867	1549.991577	8990.744141	2888.369873	17.987137
368.008698	1548.337524	8831.179688	2868.520752	18.127308
368.372498	1548.999146	8707.012695	2846.686768	18.129158
368.736237	1547.124634	8622.102539	2838.416260	18.251528
369.099976	1540.728760	8559.579102	2832.902832	18.410053
369.463654	1538.854126	8522.858398	2825.845459	18.427700
369.827332	1534.994629	8489.886719	2821.103760	18.492151
370.190948	1534.884277	8472.683594	2816.582520	18.474133
370.554535	1533.450684	8443.021484	2814.928467	18.546417
370.918091	1534.002075	8424.715820	2825.073486	18.736395
371.281647	1538.854126	8421.626953	2821.655029	18.637850
371.645111	1536.427979	8420.744141	2822.868164	18.686535
372.008575	1536.648560	8415.342773	2826.507324	18.751505
372.371979	1535.876465	8419.863281	2830.807617	18.810774
372.735382	1531.906738	8436.183594	2839.739746	18.942360
373.098724	1531.686157	8473.456055	2846.135742	18.935366
373.462067	1529.149902	8530.798828	2855.729248	18.946671
373.825348	1528.708740	8601.592773	2863.558594	18.872780
374.188599	1525.731445	8696.095703	2884.289795	18.946852
374.551819	1522.643677	8812.875000	2908.329346	19.007431
374.915009	1517.130005	8930.976563	2935.456055	19.130772
375.278168	1514.152588	9048.197266	2955.856689	19.135857
375.641266	1512.829468	9160.785156	2974.382324	19.110373
376.004395	1510.624023	9243.048828	2989.710205	19.128361
376.367462	1513.491211	9303.587891	2996.877686	19.041952
376.730469	1516.689209	9354.423828	3004.707275	18.985310
377.093475	1522.092529	9382.984375	3012.316162	18.957438
377.456421	1522.864380	9423.675781	3018.160889	18.925859
377.819336	1524.298096	9463.595703	3024.446533	18.895227
378.182281	1526.172607	9498.992188	3035.253418	18.927818
378.545135	1521.872070	9540.673828	3038.230713	18.910040
378.907928	1522.864502	9571.441406	3045.839600	18.922291
379.270752	1523.305542	9599.780273	3051.794189	18.925196
379.633484	1526.282959	9631.869141	3055.763916	18.869469
379.996246	1524.077393	9659.878906	3061.608398	18.898335
380.358948	1525.069824	9686.673828	3058.741211	18.791298
380.721558	1521.430786	9715.344727	3068.114502	18.876005
381.084198	1523.305298	9733.429688	3067.562988	18.809189
381.446747	1525.951782	9744.015625	3072.745850	18.821880
381.809326	1527.275146	9746.000977	3079.031006	18.880735
382.171875	1527.495850	9729.791016	3073.627686	18.849991
382.534363	1528.488403	9709.280273	3063.372314	18.762045
382.896790	1533.229858	9671.567383	3058.520020	18.742037
383.259247	1531.245117	9648.851563	3057.637939	18.803484
383.621613	1532.017090	9663.408203	3060.284424	18.794661
383.983948	1527.716431	9692.850586	3070.760498	18.897963
384.346283	1523.195068	9736.739258	3078.589844	18.936951
384.708588	1519.225342	9811.723633	3092.263672	18.969414
385.070831	1519.887085	9891.341797	3106.488770	18.952520
385.433075	1519.335693	9960.373047	3122.808838	18.996162
385.795258	1517.020142	10042.305664	3130.087158	18.920975
386.157440	1518.784424	10104.719727	3143.871338	18.927313
386.519531	1514.042603	10178.823242	3154.016357	18.926893
386.881622	1519.335815	10246.749023	3166.808105	18.876984
387.243683	1517.350830	10314.126953	3181.805176	18.921185
387.605713	1519.556274	10383.047852	3189.193359	18.837240
387.967682	1522.643921	10443.366211	3200.551758	18.809103
388.329651	1525.069824	10513.719727	3217.974365	18.833801
388.691559	1523.746704	10610.648438	3238.816162	18.874084
389.053467	1521.431030	10715.627930	3257.121338	18.878105
389.415314	1519.887085	10810.132813	3270.574707	18.844362
389.777130	1518.784180	10914.560547	3295.827393	18.913214
390.138885	1520.328125	10994.397461	3314.242676	18.934996
390.500641	1518.012329	11088.901367	3330.232178	18.934708
390.862366	1521.872070	11165.982422	3338.281738	18.834393
391.224060	1525.510864	11220.676758	3351.404785	18.833035
391.585693	1529.921875	11295.551758	3363.534180	18.776180
391.947296	1536.317749	11367.119141	3379.523926	18.749296
392.308868	1535.766235	11409.905273	3395.623535	18.835640
392.670441	1535.656006	11454.014648	3408.084473	18.878410
393.031952	1533.119751	11484.449219	3410.289795	18.863510
393.393433	1537.310059	11495.697266	3415.803467	18.863432
393.754883	1537.089600	11506.393555	3419.773438	18.884808
394.116302	1538.523071	11496.689453	3420.986572	18.903717
394.477692	1529.701294	11492.830078	3419.663330	18.969563
394.839020	1527.936890	11479.376953	3415.142578	18.964146
395.200348	1526.834229	11463.718750	3422.089600	19.072933
395.561646	1529.480835	11443.759766	3421.097168	19.079716
395.922882	1529.150024	11409.354492	3407.753662	19.013815
396.284088	1529.480835	11337.236328	3398.711670	19.058701
396.645264	1527.275513	11269.638672	3384.155762	19.059855
397.006409	1530.914429	11181.641602	3368.386963	19.039730
397.367523	1533.450684	11090.887695	3352.066650	19.028280
397.728577	1538.964355	11024.392578	3341.479980	19.002998
398.089600	1539.074707	10949.627930	3331.444824	19.046385
398.450592	1539.625977	10886.000000	3322.843750	19.079247
398.811584	1539.074463	10829.209961	3315.234863	19.118778
399.172546	1537.971680	10760.399414	3306.082520	19.171860
399.533447	1528.819214	10692.691406	3294.724365	19.270294
399.894318	1532.127441	10638.768555	3278.734863	19.179493
400.255127	1532.237671	10596.091797	3277.191162	19.251781
400.615936	1531.355469	10585.175781	3284.469238	19.363249
400.976685	1529.150146	10593.115234	3294.062988	19.471752
401.337433	1531.575928	10626.307617	3303.215820	19.479849
401.698151	1531.355591	10702.835938	3314.684082	19.444283
402.058807	1537.861572	10785.099609	3330.894043	19.389923
402.419434	1539.736206	10877.398438	3354.492188	19.434801
402.780060	1538.633423	10977.195313	3374.782715	19.453699
403.140594	1534.663696	11064.090820	3394.741699	19.519306
403.501129	1535.986938	11144.919922	3415.472900	19.559778
403.861633	1537.420532	11224.757813	3431.131348	19.548311
404.222076	1539.625977	11293.236328	3444.584717	19.530806
404.582550	1535.986938	11374.728516	3463.110596	19.587095
404.942932	1535.656128	11422.916992	3473.365967	19.598045
405.303284	1530.804077	11480.369141	3486.267822	19.653761
405.663605	1531.245117	11533.189453	3498.508545	19.668810
406.023895	1532.568481	11582.260742	3512.733154	19.703733
406.384125	1530.914307	11629.016602	3522.768311	19.725033
406.744354	1529.811523	11684.814453	3534.126465	19.737217
407.104553	1536.317627	11746.566406	3545.925293	19.682259
407.464691	1536.868896	11813.392578	3559.599365	19.683023
407.824829	1537.420288	11876.467773	3569.634277	19.655718
408.184906	1538.522949	11926.201172	3569.744385	19.554144
408.544922	1538.633423	11974.169922	3572.831787	19.492992
408.904938	1537.971680	12007.030273	3576.691162	19.473761
409.264923	1536.317627	11999.752930	3586.726074	19.595940
409.624847	1534.112183	11979.573242	3588.380127	19.666611
409.984802	1533.560791	11956.416016	3582.866699	19.661655
410.344666	1535.656006	11935.685547	3578.676270	19.644371
410.704529	1534.774048	11906.352539	3572.391113	19.646162
411.064331	1531.355591	11896.317383	3570.295654	19.671467
411.424133	1532.017090	11892.458008	3563.789551	19.610868
411.783875	1531.245117	11887.385742	3568.311035	19.670126
412.143555	1536.317749	11895.656250	3567.759277	19.609760
412.503235	1535.986938	11932.376953	3571.067383	19.574877
412.862885	1536.317749	11957.078125	3584.189697	19.651848
413.222473	1535.876587	12000.966797	3591.247314	19.640257
413.582062	1530.473267	12055.992188	3601.723145	19.678366
413.941559	1529.480713	12132.080078	3618.595215	19.703794
414.301086	1532.237549	12203.647461	3631.607178	19.672842
414.660522	1531.796509	12282.932617	3653.330811	19.733116
415.019958	1529.150024	12364.093750	3674.282715	19.798285
415.379364	1530.142456	12462.125977	3695.014160	19.803101
415.738708	1528.708984	12566.443359	3718.833008	19.842152
416.098053	1529.591187	12702.960938	3753.017822	19.899338
416.457336	1526.503540	12866.385742	3782.791016	19.896923
416.816559	1528.047363	13056.165039	3820.283447	19.883873
417.175812	1526.834351	13278.144531	3863.510498	19.884388
417.535004	1528.488525	13530.667969	3915.448975	19.887724
417.894135	1528.157715	13808.997070	3971.357422	19.894402
418.253265	1528.047363	14142.681641	4044.357910	19.947550
418.612335	1530.583618	14503.713867	4112.175293	19.899529
418.971405	1528.378174	14871.801758	4185.395996	19.912563
419.330414	1527.054810	15239.122070	4257.514160	19.912821
419.689423	1521.871948	15591.002930	4331.617676	19.970997
420.048370	1521.210327	15940.676758	4404.066406	19.992805
420.407257	1519.997314	16263.223633	4466.371094	19.984592
420.766144	1519.887085	16600.767578	4533.416016	19.982445
421.125000	1524.518555	16922.103516	4594.286621	19.936686
421.483795	1525.180176	17245.310547	4654.385254	19.905720
421.842560	1520.769287	17599.064453	4728.819336	19.952675
422.201324	1520.328125	17935.947266	4786.271484	19.895340
422.560028	1519.887085	18241.623047	4837.217773	19.838434
422.918671	1520.769287	18531.310547	4892.574219	19.821856
423.277283	1524.077515	18778.761719	4942.086426	19.809166
423.635925	1525.841919	18955.306641	4974.947754	19.788939
423.994476	1527.385742	19096.347656	5005.272461	19.795631
424.353027	1529.921997	19197.578125	5015.748535	19.729990
424.711487	1530.914429	19260.099609	5023.798828	19.701324
425.069946	1529.701416	19272.009766	5027.216797	19.712854
425.428375	1529.701538	19241.906250	5020.269531	19.707134
425.786743	1531.576050	19143.101563	4995.348145	19.667643
426.145081	1531.796509	18994.343750	4970.757324	19.693352
426.503418	1530.914307	18822.097656	4940.101563	19.716333
426.861725	1533.561035	18640.148438	4909.225098	19.733124
427.219971	1537.751343	18467.904297	4872.834961	19.699076
427.578186	1539.405396	18302.933594	4843.833496	19.712009
427.936371	1542.051880	18152.521484	4810.862305	19.679218
428.294495	1545.249756	17946.314453	4775.575195	19.695827
428.652618	1543.485352	17745.066406	4740.618164	19.733461
429.010712	1544.477905	17538.191406	4699.156250	19.724489
429.368744	1549.991455	17290.296875	4648.099609	19.682642
429.726746	1550.432617	17043.066406	4605.864746	19.721838
430.084717	1548.999023	16817.117188	4568.924316	19.779289
430.442688	1548.337280	16581.134766	4524.925781	19.800629
430.800568	1549.660645	16415.947266	4491.072266	19.785786
431.158417	1548.668213	16272.815430	4462.291016	19.788057
431.516235	1546.903809	16145.229492	4439.133301	19.812063
431.874023	1542.492920	16049.514648	4429.208496	19.898748
432.231812	1543.816162	15953.795898	4421.159180	19.967710
432.589508	1543.706055	15895.242188	4409.470703	19.968348
432.947205	1543.595825	15808.457031	4397.009766	20.003098
433.304840	1542.052002	15756.189453	4392.157715	20.051205
433.662476	1541.831421	15700.720703	4384.769531	20.078819
434.020050	1545.029541	15676.790039	4388.628906	20.122046
434.377594	1544.147339	15649.995117	4382.563965	20.122269
434.735138	1536.869263	15624.854492	4381.350586	20.190832
435.092621	1536.648682	15592.102539	4374.733887	20.192057
435.450043	1536.979492	15602.911133	4381.791504	20.224838
435.807465	1532.789063	15644.480469	4387.635742	20.230366
436.164856	1532.017090	15690.354492	4403.846191	20.283659
436.522156	1531.576050	15735.567383	4414.873047	20.299202
436.879486	1527.936890	15802.060547	4437.148438	20.381016
437.236755	1525.510986	15877.817383	4453.358398	20.399839
437.593994	1529.701416	15964.602539	4464.716309	20.332767
437.951172	1528.267822	16095.165039	4489.969238	20.331724
438.308380	1526.944458	16181.729492	4509.046387	20.348999
438.665497	1526.503296	16304.906250	4527.351563	20.305632
439.022583	1530.252686	16441.642578	4553.155273	20.272440
439.379608	1531.906860	16545.410156	4575.650879	20.273378
439.736633	1532.568604	16637.816406	4591.089355	20.248068
440.093628	1535.104736	16715.669922	4607.079102	20.236231
440.450562	1534.773926	16800.359375	4616.782227	20.189257
440.807495	1534.222534	16869.169922	4631.338379	20.196455
441.164368	1534.773926	16950.664063	4647.989746	20.194849
441.521210	1534.773926	17015.833984	4661.552734	20.197445
441.878021	1532.899292	17084.865234	4673.462891	20.193996
442.234833	1536.979492	17175.837891	4696.840332	20.205189
442.591522	1538.854126	17250.492188	4719.776855	20.245647
442.948242	1535.766479	17338.599609	4731.135254	20.220226
443.304901	1538.082275	17434.316406	4752.749023	20.222818
443.661530	1541.169800	17547.126953	4774.582520	20.201307
444.018127	1542.382935	17676.144531	4803.364258	20.212158
444.374664	1544.367798	17807.478516	4830.711914	20.207354
444.731201	1552.197021	17927.343750	4856.735840	20.180210
445.087738	1551.535400	18043.792969	4888.383789	20.232817
445.444183	1552.307251	18093.746094	4895.441406	20.210661
445.800598	1548.888794	18151.085938	4913.305664	20.264891
446.156982	1546.352539	18172.921875	4928.412598	20.341297
446.513336	1545.359985	18160.902344	4932.602539	20.385988
446.869598	1546.793579	18160.683594	4935.249023	20.395317
447.225891	1546.021606	18175.570313	4939.108398	20.403963
447.582153	1546.352417	18179.318359	4936.682617	20.383196
447.938354	1548.999023	18181.964844	4943.850586	20.410381
448.294495	1548.006592	18183.066406	4940.321289	20.392559
448.650665	1544.147095	18170.828125	4943.299805	20.443964
449.006775	1537.971924	18154.617188	4940.542480	20.476881
449.362823	1539.405396	18162.666016	4942.968262	20.474703
449.718842	1541.610718	18152.962891	4934.698242	20.426317
450.074860	1540.838867	18172.703125	4927.310059	20.361345
450.430817	1544.918945	18136.753906	4930.507813	20.405149
450.786713	1541.831299	18068.271484	4919.039551	20.435184
451.142578	1537.861450	17979.615234	4898.859375	20.441847
451.498444	1534.001831	17847.619141	4876.474121	20.488848
451.854248	1533.119629	17694.558594	4840.635742	20.465479
452.210022	1529.039551	17510.074219	4805.017090	20.499157
452.565765	1527.385376	17293.279297	4767.193848	20.549477
452.921478	1529.370361	17109.785156	4738.302734	20.595936
453.277191	1531.796387	16919.673828	4701.802246	20.600670
453.632813	1531.906738	16753.052734	4672.249023	20.631443
453.988434	1531.245117	16601.978516	4643.137695	20.648581
454.343964	1528.819214	16476.490234	4620.090332	20.680620
454.699524	1529.591187	16350.117188	4600.461914	20.720388
455.054993	1527.385742	16251.754883	4586.567383	20.776318
455.410400	1526.282959	16187.574219	4572.342773	20.776205
455.765839	1523.636475	16166.403320	4573.665527	20.829596
456.121216	1525.400879	16186.471680	4573.996094	20.793810
456.476593	1529.591187	16245.579102	4582.928711	20.748436
456.831909	1529.480957	16359.379883	4615.349121	20.808424
457.187195	1528.267822	16504.277344	4658.795898	20.903620
457.542450	1528.157593	16688.544922	4699.707520	20.919979
457.897644	1528.267944	16878.652344	4732.679199	20.875120
458.252808	1531.024780	17079.128906	4774.692871	20.862144
458.607971	1536.317749	17244.759766	4809.318848	20.835936
458.963013	1539.956787	17343.453125	4827.513184	20.802715
459.318085	1542.934204	17441.373047	4842.289551	20.752701
459.673096	1541.831421	17513.933594	4857.948242	20.761930
460.028076	1541.610718	17581.533203	4872.283691	20.764893
460.383057	1541.059570	17632.478516	4888.273926	20.801237
460.737976	1542.272461	17654.751953	4892.022949	20.789789
461.092865	1543.265015	17668.205078	4894.669434	20.783979
461.447723	1543.375244	17674.822266	4898.308594	20.797472
461.802551	1546.573120	17650.451172	4895.661621	20.796782
462.157288	1547.786133	17647.472656	4891.802246	20.770691
462.512054	1548.337646	17629.390625	4886.729492	20.759785
462.866760	1545.911621	17608.216797	4883.420898	20.778521
463.221405	1547.676025	17561.681641	4868.313965	20.735836
463.576019	1547.896484	17482.503906	4857.286621	20.768570
463.930603	1548.447876	17383.810547	4846.700684	20.828402
464.285156	1546.242432	17249.832031	4813.619629	20.806562
464.639709	1547.345093	17084.640625	4778.442383	20.795750
464.994171	1543.706055	16863.326172	4737.531250	20.847940
465.348633	1542.603271	16613.998047	4689.562500	20.880346
465.703033	1539.295044	16373.494141	4639.388184	20.898285
466.057434	1532.899170	16159.786133	4598.807617	20.960772
466.411774	1530.032104	16020.070313	4578.848145	21.040771
466.766083	1522.864380	15879.141602	4562.969238	21.176138
467.120331	1521.100098	15783.867188	4549.074707	21.229923
467.474548	1521.430908	15706.787109	4536.834961	21.257160
467.828735	1519.997314	15633.897461	4523.271484	21.278839
468.182922	1520.438232	15605.998047	4521.176270	21.303648
468.537048	1521.871704	15567.403320	4516.986328	21.324326
468.891144	1520.879272	15539.833008	4511.031250	21.329351
469.245178	1517.571289	15543.692383	4507.392090	21.316092
469.599213	1514.483398	15538.730469	4512.354004	21.376339
469.953186	1512.278076	15543.582031	4517.096191	21.415102
470.307129	1512.719116	15539.062500	4528.785156	21.502867
470.661041	1515.255493	15572.252930	4534.739746	21.480295
471.014923	1517.019775	15620.001953	4546.428711	21.480627
471.368713	1514.483521	15633.895508	4539.040527	21.421268
471.722504	1516.799194	15624.414063	4536.393555	21.404001
472.076294	1515.696533	15594.748047	4523.491699	21.363621
472.429993	1517.571167	15538.951172	4511.582520	21.353186
472.783722	1517.681396	15533.877930	4513.125977	21.371309
473.137329	1521.210205	15559.459961	4519.411621	21.357372
473.490967	1524.628662	15589.895508	4524.153809	21.325762
473.844543	1525.069702	15655.178711	4532.865234	21.286427
474.198090	1525.731445	15736.008789	4543.451660	21.236181
474.551605	1524.849243	15840.216797	4560.984863	21.208927
474.905060	1525.400635	15973.979492	4590.758789	21.215637
475.258484	1526.834229	16111.156250	4617.554688	21.192074
475.611877	1525.180176	16262.120117	4652.400879	21.220285
475.965240	1522.974731	16434.146484	4690.334473	21.241522
476.318573	1525.731445	16599.001953	4729.921875	21.257433
476.671844	1529.149902	16778.083984	4771.274414	21.261320
477.025116	1531.024536	16965.107422	4804.135742	21.207035
477.378326	1533.340210	17172.417969	4847.693359	21.192764
477.731506	1535.435425	17399.578125	4886.619629	21.124269
478.084656	1534.773926	17628.064453	4954.327148	21.248316
478.437744	1532.788940	17876.400391	5001.192871	21.221771
478.790833	1532.347900	18179.759766	5069.341309	21.246506
479.143890	1529.149902	18532.742188	5151.384277	21.302761
479.496826	1527.606079	18959.386719	5250.519043	21.357044
479.849823	1528.488281	19549.675781	5370.275391	21.318169
480.202728	1529.039673	20281.115234	5520.025879	21.282904
480.555603	1525.952148	21176.748047	5714.987793	21.317383
480.908478	1522.974731	22400.552734	5973.797363	21.318674
481.261292	1522.974731	23963.777344	6320.052734	21.376589
481.614075	1524.628906	25732.109375	6710.639160	21.423172
481.966797	1526.834229	27496.359375	7106.958496	21.487200
482.319489	1527.606079	29080.205078	7433.475586	21.434891
482.672150	1526.393188	30462.691406	7712.795898	21.379385
483.024780	1524.739014	31572.472656	7936.869629	21.339815
483.377350	1523.636353	32530.302734	8128.082031	21.300083
483.729919	1522.313110	33403.109375	8301.982422	21.265684
484.082428	1523.856812	34220.453125	8474.006836	21.256495
484.434937	1524.187622	35104.066406	8656.728516	21.240520
484.787384	1523.636230	36042.925781	8855.330078	21.239412
485.139771	1526.503296	37078.054688	9073.889648	21.229414
485.492157	1529.921753	38098.410156	9290.685547	21.222544
485.844482	1531.355347	39044.769531	9486.750000	21.206800
486.196777	1530.693726	39872.480469	9658.113281	21.197290
486.549072	1531.796509	40529.593750	9786.692383	21.167595
486.901276	1531.134888	40987.113281	9880.644531	21.161585
487.253448	1530.363037	41207.882813	9938.537109	21.191278
487.605591	1528.047241	41187.921875	9936.993164	21.202654
487.957703	1529.039917	40949.730469	9887.260742	21.202623
488.309784	1533.450806	40448.871094	9787.904297	21.211266
488.661835	1533.450806	39685.007813	9615.991211	21.185349
489.013855	1533.560913	38832.492188	9424.117188	21.154913
489.365814	1533.340454	38064.773438	9243.159180	21.104616
489.717743	1533.009521	37422.546875	9102.340820	21.090633
490.069611	1532.017090	36896.214844	9006.073242	21.134527
490.421509	1533.561035	36463.058594	8925.904297	21.163612
490.773315	1538.633545	36034.433594	8837.466797	21.158613
491.125092	1539.625977	35581.214844	8748.475586	21.176596
491.476807	1534.553345	35043.742188	8636.438477	21.193846
491.828522	1536.317749	34357.406250	8501.685547	21.222231
492.180176	1533.230225	33541.167969	8332.305664	21.241840
492.531830	1530.804199	32589.628906	8134.035645	21.260405
492.883423	1527.495972	31597.392578	7917.240234	21.249638
493.234985	1525.290405	30630.853516	7724.484375	21.299000
493.586487	1528.047363	29768.414063	7550.585449	21.325991
493.937988	1528.929443	29037.640625	7403.702148	21.356045
494.289429	1532.788818	28473.484375	7285.600586	21.353611
494.640869	1531.686157	28000.085938	7191.867676	21.384676
494.992218	1531.686157	27623.722656	7117.102539	21.406593
495.343567	1529.149902	27261.039063	7041.235840	21.421227
495.694855	1530.362915	26811.238281	6941.659180	21.404703
496.046112	1533.230103	26245.205078	6824.880371	21.413305
496.397339	1532.899292	25526.890625	6676.232910	21.435923
496.748535	1534.663574	24699.515625	6505.531250	21.458664
497.099670	1534.994385	23875.558594	6346.297852	21.536179
497.450806	1536.097046	23117.435547	6187.063965	21.550873
497.801880	1540.177124	22517.664063	6061.794434	21.554619
498.152924	1536.648560	22015.919922	5971.701660	21.656303
498.503937	1535.766357	21626.441406	5894.511230	21.695364
498.854889	1541.279907	21339.951172	5842.572266	21.725157
499.205841	1537.089600	21112.789063	5802.542969	21.789532
499.556702	1541.941650	20926.869141	5772.108398	21.821938
499.907562	1539.956787	20761.572266	5750.825684	21.906948
500.258362	1540.838867	20609.949219	5722.927246	21.931221
500.609161	1544.588257	20483.576172	5700.982910	21.946234
500.959900	1543.926636	20330.847656	5672.752930	21.977129
501.310608	1543.595703	20167.863281	5646.949219	22.032295
501.661255	1540.949097	19978.414063	5610.668945	22.073099
502.011902	1544.257324	19809.808594	5575.051270	22.067738
502.362488	1545.249756	19609.330078	5536.235352	22.093489
502.713043	1546.352539	19430.138672	5498.191406	22.097328
503.063568	1541.279907	19261.421875	5473.380371	22.190006
503.414063	1538.523071	19106.378906	5444.819336	22.235477
503.764496	1541.059204	18964.458984	5419.677246	22.260971
504.114899	1539.295166	18838.527344	5391.116699	22.265852
504.465271	1538.743774	18744.794922	5368.180176	22.256336
504.815613	1535.656128	18675.433594	5359.247559	22.308290
505.165894	1529.701416	18602.212891	5351.087402	22.383268
505.516174	1527.716553	18584.128906	5349.212891	22.405043
505.866394	1527.937012	18570.455078	5348.881836	22.420073
506.216583	1523.305664	18563.177734	5352.520996	22.472092
506.566711	1523.856934	18600.339844	5363.769043	22.486551
506.916840	1523.085083	18640.369141	5376.008789	22.508968
507.266907	1521.872070	18704.107422	5387.146973	22.495764
507.616882	1518.674072	18761.666016	5402.474121	22.523933
507.966858	1516.689209	18802.027344	5419.566895	22.579123
508.316803	1516.248169	18854.185547	5437.651855	22.617476
508.666748	1516.579102	18909.541016	5453.641113	22.635950
509.016632	1515.145508	18965.890625	5474.261719	22.687374
509.366486	1513.932373	19011.984375	5485.068359	22.694731
509.716309	1512.940063	19094.466797	5512.636719	22.749428
510.066040	1512.609253	19168.130859	5539.653809	22.808981
510.415771	1515.476318	19257.892578	5559.393066	22.792368
510.765503	1514.263428	19336.626953	5576.264648	22.791597
511.115173	1516.248169	19421.427734	5595.231934	22.781027
511.464752	1516.578979	19503.468750	5629.195801	22.864523
511.814270	1518.012451	19575.478516	5658.969727	22.932104
512.163818	1518.563843	19630.283203	5678.157227	22.966309
512.513306	1516.578857	19691.484375	5699.549316	23.015089
512.862793	1520.328003	19720.816406	5713.112793	23.036661
513.212219	1519.887085	19769.556641	5721.935059	23.025335
513.561646	1518.563721	19808.925781	5725.353516	23.000038
513.911011	1515.255615	19836.164063	5733.292969	23.023079
514.260315	1513.932251	19890.197266	5742.445313	23.010733
514.609558	1514.593994	19954.156250	5762.735352	23.038191
514.958801	1517.460938	20057.042969	5786.664551	23.027508
515.308044	1517.019897	20201.500000	5816.437988	23.010637
515.657227	1518.894531	20392.933594	5864.737793	23.025507
516.006348	1520.989746	20606.861328	5921.307129	23.055367
516.355408	1523.415771	20836.009766	5977.436035	23.062777
516.704529	1523.856812	21066.146484	6032.241211	23.069889
517.053467	1523.415649	21249.308594	6075.799316	23.078215
517.402466	1526.062256	21397.183594	6110.093750	23.068810
517.751404	1523.084961	21517.271484	6137.331055	23.077938
518.100281	1525.290405	21624.896484	6165.891602	23.088020
518.449219	1520.548950	21691.941406	6188.717773	23.142523
518.798035	1517.571411	21757.333984	6203.163574	23.150433
519.146851	1516.689331	21826.916016	6221.138184	23.162956
519.495544	1517.020020	21905.869141	6234.480957	23.137455
519.844299	1522.313110	21994.197266	6248.154785	23.084547
520.192932	1520.218018	22093.333984	6269.437500	23.084593
520.541626	1522.313110	22156.630859	6299.431641	23.151327
520.890198	1527.937012	22260.949219	6327.551270	23.149624
521.238770	1530.583496	22355.783203	6353.906250	23.160992
521.587280	1531.796387	22446.537109	6388.201660	23.220013
521.935791	1530.693726	22546.884766	6409.484375	23.214437
522.284180	1532.788940	22645.027344	6440.581055	23.246195
522.632629	1534.994385	22760.375000	6478.735840	23.291649
522.981018	1530.693726	22887.296875	6512.258301	23.325640
523.329346	1530.693848	23058.660156	6546.552734	23.299269
523.677551	1525.731567	23236.419922	6593.750000	23.343428
524.025818	1523.415771	23458.398438	6649.326660	23.368658
524.374023	1521.100098	23722.173828	6719.569824	23.415398
524.722229	1520.438477	24090.261719	6809.882324	23.435911
525.070374	1520.548584	24555.941406	6928.426270	23.476387
525.418457	1519.556274	25200.154297	7079.720215	23.479830
525.766541	1524.849365	26106.705078	7300.816406	23.496870
526.114563	1525.621338	27271.955078	7577.711426	23.506609
526.462585	1522.974854	28579.017578	7892.540039	23.542118
526.810547	1526.172729	29825.097656	8195.458984	23.567276
527.158447	1526.172607	30890.884766	8459.121094	23.609795
527.506348	1528.157593	31764.574219	8664.448242	23.601641
527.854065	1528.598633	32475.056641	8831.180664	23.597473
528.201904	1522.202759	33035.906250	8960.419922	23.603121
528.549622	1520.879639	33462.882813	9065.289063	23.619085
528.897339	1520.879517	33790.281250	9143.142578	23.620714
529.245056	1519.997314	34014.574219	9211.400391	23.669807
529.592712	1516.027466	34193.992188	9259.479492	23.696249
529.940369	1515.365845	34378.804688	9299.287109	23.685658
530.287903	1517.571289	34558.000000	9343.065430	23.684601
530.635437	1514.704346	34745.679688	9393.128906	23.708075
530.982910	1517.020020	35013.753906	9463.152344	23.722111
531.330383	1518.233032	35248.523438	9534.498047	23.765776
531.677795	1521.651489	35370.593750	9560.192383	23.748280
532.025208	1522.643921	35337.398438	9561.294922	23.772614
532.372498	1521.320801	35142.769531	9529.868164	23.819757
532.719788	1522.643921	34723.730469	9443.083008	23.855963
533.067078	1520.659180	34028.792969	9280.982422	23.871944
533.414307	1523.195435	33081.554688	9059.445313	23.880360
533.761536	1525.290649	32011.136719	8803.942383	23.875513
534.108643	1523.085083	31022.433594	8572.259766	23.896036
534.455811	1523.856934	30247.216797	8394.500000	23.920053
534.802856	1527.275635	29614.585938	8256.439453	23.958021
535.149902	1524.408447	29126.521484	8144.623535	23.984449
535.496887	1523.195313	28710.240234	8065.337891	24.063456
535.843811	1522.864624	28364.095703	7984.396484	24.073158
536.190796	1520.328247	28066.687500	7918.343750	24.101292
536.537659	1526.613892	27817.033203	7864.309570	24.106483
536.884460	1527.826782	27578.732422	7806.526855	24.101658
537.231323	1525.180298	27296.324219	7752.273926	24.163048
537.578064	1525.952148	27017.113281	7696.144531	24.205223
537.924805	1524.518677	26697.654297	7639.684570	24.292429
538.271423	1526.062500	26405.654297	7569.882324	24.292278
538.618164	1527.275391	26236.941406	7526.102539	24.277248
538.964783	1526.062378	26303.761719	7557.311035	24.341438
539.311279	1525.290405	26509.308594	7611.455566	24.360233
539.657776	1529.811523	26777.714844	7673.097656	24.331867
540.004333	1534.001831	27009.066406	7736.283691	24.346481
540.350769	1530.914307	27213.953125	7801.785645	24.416391
540.697144	1534.773926	27352.234375	7841.374023	24.427654
541.043518	1534.773926	27429.089844	7867.178711	24.454805
541.389893	1532.788940	27431.296875	7875.007324	24.488741
541.736145	1533.009521	27319.259766	7852.291016	24.506399
542.082458	1531.465698	27184.619141	7834.647461	24.570786
542.428711	1530.032104	27028.029297	7803.219727	24.602667
542.774902	1534.443115	26874.091797	7779.180176	24.644136
543.121033	1534.001953	26771.865234	7763.741211	24.684099
543.467102	1535.766357	26708.130859	7757.235352	24.715471
543.813171	1530.473389	26658.839844	7742.899414	24.722759
544.159180	1527.826782	26623.990234	7736.613770	24.739985
544.505127	1527.275269	26580.546875	7725.366699	24.739649
544.851135	1525.510986	26465.642578	7703.863770	24.772736
545.197021	1529.039673	26279.062500	7654.461914	24.749157
545.542908	1529.811523	25915.710938	7568.891602	24.764641
545.888733	1528.598633	25382.431641	7455.088379	24.845022
546.234558	1529.701416	24666.982422	7286.592285	24.881449
546.580322	1529.370483	23875.119141	7096.592285	24.914009
546.926025	1522.754150	23061.306641	6909.459961	25.009602
547.271667	1516.799438	22344.753906	6738.427246	25.070286
547.617371	1515.917236	21688.521484	6574.561523	25.076805
547.962952	1510.513916	21087.759766	6438.485352	25.171936
548.308533	1506.985229	20539.593750	6319.832031	25.287373
548.654053	1510.513916	20035.978516	6208.236816	25.358191
548.999573	1510.072876	19574.046875	6099.177246	25.404734
549.344971	1509.631836	19205.074219	6006.658691	25.413477
549.690430	1511.727051	18895.871094	5940.385254	25.475273
550.035767	1514.704468	18655.806641	5875.103516	25.438265
550.381104	1517.461182	18424.896484	5826.473633	25.485903
550.726440	1517.350952	18201.921875	5770.455078	25.491241
551.071655	1521.872070	17961.861328	5720.390625	25.538452
551.416931	1523.305664	17699.191406	5664.041504	25.598202
551.762085	1523.305664	17417.554688	5603.281250	25.669508
552.107178	1526.393188	17137.240234	5542.300293	25.725109
552.452332	1527.937012	16865.531250	5474.592773	25.731909
552.797424	1528.488281	16617.859375	5422.764648	25.808077
553.142395	1529.039551	16403.378906	5369.943848	25.822351
553.487366	1531.906494	16235.324219	5334.546875	25.862289
553.832336	1533.450439	16092.630859	5307.088379	25.919302
554.177185	1538.192261	15982.911133	5284.482910	25.935366
554.522095	1537.199707	15885.650391	5270.699219	26.020227
554.866943	1540.508057	15797.429688	5252.062988	26.033354
555.211731	1540.177246	15707.779297	5233.427246	26.068279
555.556396	1542.162109	15630.037109	5210.710449	26.040466
555.901123	1536.758667	15550.971680	5192.515625	26.086065
556.245789	1533.891602	15491.977539	5188.435547	26.182272
556.590454	1533.340454	15421.841797	5167.153320	26.164185
556.934998	1535.656006	15336.601563	5145.098633	26.153589
557.279541	1531.135010	15230.741211	5128.447266	26.258509
557.624023	1529.260376	15136.675781	5100.768555	26.246780
557.968567	1528.488403	15005.562500	5070.333496	26.280519
558.312988	1526.393188	14903.338867	5046.183594	26.312365
558.657349	1528.267822	14807.733398	5035.928223	26.414167
559.001770	1528.708862	14752.045898	5018.725586	26.392859
559.346069	1524.628784	14695.036133	5000.972168	26.395109
559.690308	1524.187622	14652.139648	5003.288086	26.501472
560.034485	1519.445923	14622.696289	4997.774414	26.545542
560.378723	1517.681519	14593.473633	4992.591309	26.575138
560.722900	1515.365845	14547.491211	4987.408691	26.642185
561.067017	1513.380981	14502.721680	4982.335938	26.706167
561.411072	1513.932251	14474.269531	4975.058105	26.705524
561.755127	1513.380859	14445.488281	4968.221191	26.715216
562.099182	1512.057617	14444.275391	4968.441406	26.726923
562.443115	1513.711914	14463.792969	4971.308594	26.699421
562.787048	1512.609131	14476.474609	4983.659668	26.774813
563.130920	1517.020142	14514.077148	4998.325684	26.785339
563.474792	1519.997437	14593.033203	5017.954590	26.757036
563.818604	1519.887085	14671.437500	5045.082031	26.804403
564.162354	1516.689209	14778.511719	5076.398926	26.841784
564.506042	1522.202881	14880.733398	5099.335449	26.777889
564.849731	1525.290405	14948.110352	5125.691406	26.822983
565.193420	1526.723999	15022.654297	5148.738281	26.837824
565.537048	1527.054688	15072.498047	5163.184082	26.843931
565.880615	1524.959595	15111.315430	5173.218750	26.852377
566.224121	1526.723877	15117.048828	5183.032715	26.903763
566.567627	1533.781372	15125.760742	5184.907715	26.862360
566.911072	1532.788940	15127.083008	5190.420898	26.905640
567.254517	1536.758789	15147.593750	5203.323730	26.938574
567.597839	1535.104858	15172.957031	5207.623535	26.928862
567.941223	1534.002075	15221.255859	5206.079590	26.828447
568.284485	1532.678833	15281.576172	5215.121582	26.783550
568.627808	1534.663696	15341.895508	5233.537109	26.789392
568.970947	1535.876709	15414.675781	5252.173340	26.776789
569.314148	1538.633545	15486.792969	5272.353516	26.768551
569.657288	1534.774048	15551.301758	5300.914551	26.869284
570.000366	1534.112305	15612.943359	5315.249023	26.856894
570.343445	1532.348022	15662.568359	5328.592773	26.866138
570.686462	1528.378174	15679.879883	5333.774902	26.890409
571.029419	1526.723999	15675.358398	5335.539551	26.920021
571.372314	1526.613770	15632.462891	5333.774414	26.989943
571.715210	1521.651367	15592.434570	5324.731934	27.028208
572.058105	1520.989990	15575.562500	5313.704590	26.985628
572.400879	1521.872070	15552.845703	5316.130371	27.042017
572.743713	1518.563843	15550.087891	5324.622070	27.125051
573.086426	1520.328125	15549.425781	5324.511230	27.116377
573.429077	1521.982178	15559.351563	5330.797852	27.133402
573.771790	1517.902100	15557.585938	5333.002930	27.173695
574.114441	1517.571289	15556.593750	5325.945313	27.127060
574.457031	1516.248047	15535.863281	5322.085938	27.146523
574.799561	1519.115112	15488.666992	5316.352051	27.182238
575.142029	1518.674072	15425.588867	5309.956055	27.261848
575.484436	1520.438477	15341.343750	5295.730469	27.315809
575.826904	1518.674194	15231.954102	5271.250977	27.364544
576.169250	1519.666626	15101.721680	5239.050781	27.384548
576.511597	1518.012573	14939.840820	5201.888672	27.446901
576.853943	1521.320679	14764.176758	5152.927246	27.423136
577.196167	1524.518555	14579.801758	5111.575684	27.475904
577.538391	1523.526123	14387.044922	5064.269043	27.525461
577.880554	1526.503296	14197.925781	5017.843262	27.552864
578.222717	1527.606079	14013.992188	4972.411621	27.588493
578.564819	1527.936890	13843.730469	4930.948730	27.631281
578.906860	1531.906860	13668.176758	4893.676758	27.700193
579.248901	1529.039795	13486.114258	4858.830566	27.847872
579.590942	1528.488525	13311.665039	4813.839844	27.881712
579.932861	1530.473267	13130.047852	4768.737793	27.917099
580.274780	1531.576050	12965.851563	4728.708496	27.960953
580.616638	1528.929443	12799.669922	4684.159180	27.994875
580.958496	1528.267822	12642.088867	4651.297852	28.100416
581.300232	1525.400757	12493.443359	4618.105469	28.197414
581.641968	1525.841919	12354.940430	4577.194336	28.177345
581.983704	1524.187744	12222.283203	4549.185059	28.276035
582.325317	1525.841919	12101.534180	4528.454102	28.391638
582.666992	1527.275391	11995.232422	4502.099121	28.418379
583.008606	1529.591187	11896.317383	4477.949707	28.440592
583.350098	1530.693970	11814.714844	4457.107910	28.455935
583.691589	1529.039917	11735.871094	4436.045898	28.480984
584.033081	1530.473511	11675.662109	4424.356934	28.524687
584.374512	1529.150146	11635.742188	4409.360352	28.498333
584.715881	1530.804199	11580.606445	4402.522949	28.574877
585.057190	1531.245361	11526.683594	4390.503418	28.605629
585.398499	1526.613770	11487.756836	4386.092285	28.706331
585.739807	1531.355469	11463.937500	4377.380859	28.653429
586.081055	1531.134888	11458.313477	4367.235352	28.569050
586.422180	1532.347900	11440.449219	4363.707031	28.576202
586.763367	1531.134888	11435.597656	4358.303223	28.544390
587.104431	1532.237671	11436.257813	4351.466309	28.465496
587.445496	1529.370483	11437.471680	4352.569336	28.493841
587.786499	1529.039795	11440.559570	4364.038086	28.603064
588.127502	1532.237671	11449.160156	4361.170410	28.526314
588.468445	1533.340332	11450.815430	4366.132324	28.563643
588.809326	1533.560913	11456.659180	4373.741699	28.621914
589.150208	1536.207520	11464.377930	4378.262695	28.626173
589.491028	1537.751343	11463.717773	4378.152344	28.615862
589.831848	1533.450562	11459.858398	4380.579102	28.682364
590.172546	1529.591187	11462.835938	4382.232422	28.718119
590.513245	1527.385620	11457.653320	4379.806641	28.724512
590.853943	1526.723999	11469.452148	4389.069336	28.788326
591.194458	1523.084961	11473.973633	4389.510742	28.805727
591.535095	1526.282837	11476.620117	4389.290039	28.772968
591.875610	1528.819214	11484.891602	4391.164551	28.749743
592.216125	1524.739014	11512.017578	4398.552246	28.774738
592.556580	1528.819214	11542.123047	4404.066406	28.714270
592.897034	1527.385620	11559.435547	4411.344727	28.747456
593.237366	1524.408203	11564.838867	4422.702148	28.866232
593.577698	1529.260254	11603.103516	4432.626953	28.820843
593.918030	1530.252686	11650.410156	4452.696289	28.877453
594.258301	1531.686401	11705.215820	4474.420410	28.925398
594.598511	1533.450684	11771.158203	4491.071777	28.889488
594.938721	1535.325317	11857.501953	4504.415039	28.764183
595.278809	1534.443115	11935.464844	4529.446777	28.795284
595.618958	1537.861328	11997.327148	4539.481445	28.697643
595.958984	1535.876587	12031.291016	4548.523926	28.704418
596.299011	1534.663574	12048.934570	4554.919434	28.725298
596.638977	1534.112305	12065.916992	4556.243164	28.695280
596.978943	1536.317749	12067.018555	4559.110352	28.704571
597.318848	1538.302490	12054.998047	4553.706543	28.672544
597.658630	1541.720947	12036.031250	4551.060059	28.675911
597.998474	1541.941650	12002.398438	4541.797363	28.678057
598.338257	1541.610718	11959.060547	4534.629395	28.730818
598.677979	1536.648438	11904.476563	4523.492188	28.808769
599.017700	1535.986938	11873.490234	4509.597656	28.765272
599.357361	1536.317749	11823.316406	4496.585449	28.776785
599.696960	1537.530640	11767.958984	4480.596191	28.767763
600.036560	1535.104736	11732.892578	4470.119629	28.780897
600.376038	1537.420532	11709.957031	4457.548340	28.705997
600.715576	1535.215088	11680.955078	4445.197754	28.681818
601.055054	1530.473267	11653.055664	4438.471191	28.727829
601.394409	1530.142456	11614.680664	4431.854980	28.773874
601.733826	1529.260376	11593.729492	4432.737305	28.848785
602.073120	1523.195435	11560.426758	4431.965332	28.979805
602.412415	1519.335693	11560.868164	4436.376465	29.049757
602.751587	1515.366089	11583.473633	4452.476074	29.172413
603.090820	1516.578979	11618.099609	4468.686523	29.224386
603.429993	1518.563843	11665.185547	4481.478027	29.200989
603.769104	1517.902100	11700.142578	4490.741211	29.196318
604.108154	1517.240479	11724.841797	4496.475586	29.186436
604.447205	1517.571289	11761.012695	4517.096191	29.282394
604.786194	1516.358276	11777.001953	4527.130859	29.342920
605.125183	1519.666504	11801.591797	4539.260742	29.367983
605.464111	1522.423340	11833.351563	4542.238281	29.287519
605.802979	1524.849121	11869.520508	4556.573730	29.307112
606.141846	1523.415527	11894.111328	4572.342773	29.399448
606.480652	1525.621338	11927.525391	4579.400391	29.357885
606.819336	1524.187622	11986.520508	4601.454590	29.412819
607.158020	1522.202759	12036.363281	4614.797852	29.413622
607.496765	1518.453491	12074.296875	4632.882813	29.504313
607.835388	1515.255615	12102.967773	4645.342773	29.563396
608.173950	1520.328369	12105.945313	4644.791504	29.516117
608.512512	1522.313110	12089.955078	4633.984375	29.445278
608.851013	1523.415771	12038.128906	4616.451660	29.416265
609.189514	1528.708862	11961.158203	4588.772461	29.332167
609.527893	1531.575928	11846.584961	4559.109375	29.350760
609.866333	1536.428101	11725.615234	4524.263184	29.323584
610.204712	1538.082153	11597.809570	4489.748047	29.341412
610.542969	1536.317749	11477.282227	4462.510742	29.435703
610.881226	1535.545898	11375.941406	4438.251465	29.497854
611.219482	1536.538330	11296.544922	4422.261719	29.566818
611.557678	1534.774048	11222.221680	4398.994629	29.566311
611.895813	1534.001953	11170.172852	4383.555664	29.571432
612.233948	1529.370605	11119.116211	4361.280762	29.530605
612.571960	1530.693848	11067.949219	4355.215332	29.615662
612.910034	1530.693848	11004.432617	4337.682129	29.629152
613.247986	1530.032227	10945.435547	4321.141602	29.644077
613.585938	1525.510986	10878.611328	4304.049316	29.707136
613.923828	1526.723877	10775.286133	4272.731934	29.691187
614.261658	1528.708740	10655.861328	4241.635254	29.723690
614.599487	1530.583374	10533.898438	4218.809082	29.858173
614.937317	1532.899170	10426.493164	4192.563965	29.905399
615.275024	1529.921753	10327.688477	4165.326660	29.955383
615.612732	1525.951904	10242.007813	4146.580566	30.066681
615.950378	1524.297852	10159.083008	4129.047363	30.165771
616.288025	1523.856812	10087.185547	4117.027344	30.282270
616.625549	1523.415649	10036.679688	4101.037598	30.277719
616.963074	1522.092407	9979.669922	4088.245850	30.341471
617.300537	1521.761597	9949.125000	4072.146240	30.263140
617.638000	1521.761597	9913.396484	4058.472412	30.229044
617.975464	1523.636230	9882.080078	4052.076660	30.250135
618.312744	1525.952026	9843.483398	4044.688721	30.282265
618.650024	1523.746582	9816.908203	4041.049805	30.353962
618.987305	1523.526001	9787.244141	4042.924072	30.487463
619.324585	1529.370483	9754.933594	4046.563232	30.602072
619.661743	1528.267822	9729.902344	4040.608643	30.632196
619.998901	1531.465820	9711.817383	4037.851074	30.639090
620.336060	1534.001953	9686.896484	4028.808838	30.600260
620.673096	1539.184814	9661.203125	4025.280518	30.609333
621.010193	1538.633423	9631.980469	4017.671875	30.630573
621.347168	1535.766357	9616.762695	4015.576172	30.686932
621.684082	1534.773926	9601.544922	4004.438965	30.615286
622.020996	1535.545898	9580.703125	3998.043213	30.608442
622.357849	1540.397827	9554.568359	4001.350830	30.707521
622.694641	1540.397827	9528.212891	3996.057617	30.742571
623.031433	1541.941650	9508.142578	3993.190430	30.770611
623.368164	1542.162231	9502.850586	3994.293213	30.802999
623.704895	1541.059570	9505.497070	3997.601563	30.843885
624.041504	1537.971924	9534.609375	4003.225342	30.828625
624.378174	1534.663818	9550.929688	4016.237793	30.956734
624.714783	1534.994629	9583.019531	4031.565430	31.020912
625.051331	1531.906982	9605.955078	4037.409912	31.031559
625.387756	1531.024780	9641.573242	4045.901123	31.007477
625.724304	1531.906860	9667.598633	4055.935547	31.024145
626.060669	1535.656128	9673.332031	4055.384277	30.963732
626.397034	1532.678955	9680.831055	4057.259033	30.983467
626.733337	1532.568604	9681.161133	4055.053467	30.956079
627.069641	1527.716553	9676.640625	4051.635498	30.972420
627.405884	1528.267944	9668.479492	4048.106445	30.955441
627.742126	1527.937012	9663.517578	4045.680908	30.947317
628.078308	1523.526123	9658.775391	4053.399902	31.097681
628.414429	1523.526123	9645.101563	4052.517822	31.139177
628.750488	1524.959595	9631.758789	4045.901367	31.096636
629.086548	1526.062256	9595.479492	4041.270020	31.169634
629.422546	1523.526123	9564.051758	4026.272949	31.126657
629.758545	1525.069824	9526.228516	4023.185303	31.221922
630.094421	1524.187744	9472.195313	4009.732178	31.272547
630.430298	1525.290405	9417.831055	3996.058105	31.305098
630.766113	1526.282959	9351.777344	3980.950928	31.367579
631.101929	1529.260254	9271.388672	3961.431885	31.414768
631.437622	1531.575928	9189.014648	3942.575439	31.485718
631.773376	1529.149902	9111.272461	3914.235596	31.456701
632.109070	1529.149902	9044.116211	3894.166016	31.470749
632.444641	1525.510864	8975.857422	3866.818359	31.425486
632.780273	1528.378052	8906.606445	3838.588867	31.311188
633.115784	1525.069946	8849.706055	3822.269043	31.362638
633.451294	1521.872070	8788.946289	3801.096436	31.363714
633.786682	1520.438477	8727.304688	3789.738525	31.488028
634.122131	1521.982178	8668.307617	3772.976563	31.498629
634.457458	1520.107666	8613.833008	3761.287842	31.593838
634.792847	1519.997314	8549.323242	3745.298096	31.657385
635.128113	1524.739136	8485.807617	3724.677490	31.603460
635.463318	1526.613770	8434.750000	3704.056641	31.519976
635.798584	1525.841919	8377.078125	3689.389893	31.578941
636.133728	1525.952148	8329.109375	3670.533203	31.523321
636.468872	1525.290527	8283.125000	3659.064697	31.574821
636.803955	1524.739136	8240.559570	3639.656982	31.491581
637.139038	1526.613770	8204.279297	3629.401367	31.489861
637.473999	1525.069946	8163.147949	3613.632813	31.463369
637.808899	1525.400757	8111.651855	3599.076660	31.484919
638.143799	1522.202759	8053.869141	3582.095215	31.537014
638.478638	1523.415771	7994.541504	3558.937988	31.455456
638.813538	1528.047363	7933.230469	3541.624512	31.436684
639.148315	1530.252808	7868.169434	3524.973633	31.472816
639.483032	1530.583496	7802.336914	3511.630615	31.586815
639.817749	1529.150024	7742.680176	3493.104492	31.607708
640.152405	1527.165161	7685.999023	3475.461426	31.634174
640.487000	1529.480835	7628.216309	3457.597168	31.615019
640.821594	1528.819214	7575.727539	3436.865234	31.554075
641.156128	1528.598511	7530.735840	3428.264404	31.649824
641.490662	1528.267822	7483.979980	3418.340088	31.735455
641.825134	1524.959595	7437.886230	3405.658447	31.806564
642.159546	1522.092651	7393.886719	3394.080322	31.881018
642.493896	1519.666626	7349.887695	3383.604248	31.970272
642.828186	1517.902222	7319.563477	3375.002686	32.009808
643.162537	1516.358398	7284.606934	3369.158447	32.120670
643.496765	1515.696777	7244.688477	3361.438965	32.217575
643.830994	1516.027588	7218.002441	3359.454590	32.329624
644.165100	1513.380981	7196.499023	3349.198975	32.303005
644.499268	1510.293457	7173.011230	3345.780518	32.413536
644.833313	1509.301025	7158.014160	3335.966064	32.337723
645.167358	1515.035156	7139.157715	3336.517822	32.386967
645.501343	1513.491211	7132.981934	3336.738525	32.445065
645.835327	1509.962524	7123.058105	3335.305176	32.519356
646.169189	1508.529053	7114.456055	3327.365234	32.444878
646.503052	1512.057617	7104.311035	3327.585938	32.465057
646.836914	1513.932251	7088.541504	3326.262695	32.510448
647.170654	1516.578979	7080.492676	3320.087891	32.414394
647.504395	1517.461182	7083.359375	3323.727051	32.452370
647.838074	1520.107666	7085.785156	3321.631348	32.368450
648.171753	1518.563965	7084.130859	3317.882080	32.329468
648.505371	1519.666626	7081.926270	3308.287842	32.156376
648.838928	1519.666626	7087.440430	3312.258301	32.195843
649.172424	1521.982300	7097.144531	3313.912109	32.141304
649.505920	1522.754150	7098.687500	3318.322998	32.202122
649.839294	1523.526245	7092.181641	3317.220215	32.210541
650.172729	1525.070068	7090.195801	3314.132324	32.147739
650.506104	1525.731567	7093.063965	3309.500732	32.039925
650.839355	1524.959595	7090.638184	3307.075195	32.019737
651.172668	1528.157593	7082.256836	3308.949707	32.062664
651.505859	1533.671265	7068.252441	3299.245605	31.900776
651.839111	1538.082153	7056.342773	3298.804688	31.907200
652.172241	1535.876709	7041.786621	3290.644287	31.870617
652.505371	1535.435547	7022.710449	3288.438965	31.946703
652.838379	1536.648560	7007.603516	3286.122803	31.977493
653.171387	1536.758789	6991.062500	3286.343262	32.077137
653.504333	1537.310181	6964.927734	3278.403564	32.078407
653.837280	1534.001953	6946.622559	3277.742188	32.216190
654.170227	1533.781494	6934.712891	3279.506348	32.322662
654.503052	1535.214966	6922.582520	3275.757324	32.307846
654.835876	1537.751221	6907.695801	3275.426270	32.359276
655.168579	1542.713379	6891.927246	3276.749512	32.416653
655.501343	1541.279907	6883.436035	3281.270752	32.570946
655.833984	1544.477783	6877.039551	3279.396240	32.534428
656.166626	1543.044312	6878.804199	3280.719971	32.566601
656.499268	1544.588013	6896.999023	3289.210449	32.595074
656.831787	1545.580444	6924.126465	3297.260498	32.567913
657.164307	1540.287598	6959.083496	3308.067383	32.623112
657.496765	1539.625854	6995.473145	3320.969238	32.650169
657.829224	1541.059448	7031.642090	3330.342285	32.588215
658.161621	1538.302612	7066.819336	3339.494873	32.580029
658.493958	1535.986938	7092.732910	3352.396973	32.688377
658.826233	1532.568604	7112.912109	3358.240967	32.716125
659.158508	1530.032227	7145.002441	3362.873047	32.642040
659.490723	1530.914429	7156.470215	3363.975830	32.584538
659.822876	1531.576050	7165.181641	3364.637207	32.537975
660.154968	1531.245239	7168.710449	3366.291260	32.550907
660.487061	1529.921875	7173.231934	3364.306641	32.505474
660.819153	1531.906860	7170.034180	3362.762695	32.472763
661.151123	1530.473267	7159.007324	3358.682617	32.481091
661.483093	1531.134888	7142.245605	3357.580322	32.550514
661.815002	1528.708740	7124.049805	3350.743408	32.563427
662.146851	1524.077393	7100.892090	3339.825928	32.558884
662.478760	1521.320557	7082.146484	3333.098877	32.581100
662.810486	1519.666504	7055.461426	3321.299805	32.545158
663.142212	1519.004883	7017.968750	3302.553467	32.434265
663.473938	1521.430908	6967.243164	3284.248535	32.370148
663.805603	1521.320557	6898.985352	3269.141357	32.501480
664.137207	1523.967041	6828.961914	3240.911377	32.364674
664.468689	1525.400635	6759.269531	3223.377930	32.442104
664.800293	1526.172607	6684.834961	3192.832520	32.307987
665.131775	1529.921875	6612.826660	3171.439697	32.294876
665.463196	1529.480713	6554.823730	3157.104248	32.388309
665.794617	1531.906860	6497.812500	3144.091797	32.465073
666.125916	1537.530640	6446.314941	3136.262695	32.568798
666.457275	1537.971802	6413.785156	3128.102295	32.612621
666.788574	1536.979370	6383.789551	3114.208252	32.541588
667.119812	1539.295044	6353.906250	3107.371338	32.569115
667.450928	1540.397827	6330.308105	3104.945068	32.663395
667.782104	1540.177368	6313.988281	3094.248779	32.554104
668.113159	1540.397827	6295.461914	3090.499023	32.598957
668.444214	1535.876709	6287.633301	3083.441895	32.568275
668.775208	1536.758789	6277.928711	3080.243652	32.554935
669.106201	1540.067017	6267.453125	3076.163574	32.493568
669.437134	1543.044312	6245.729004	3070.098877	32.471973
669.768005	1546.904053	6219.263184	3065.467529	32.500999
670.098877	1548.999146	6209.559570	3070.208984	32.640060
670.429688	1548.227295	6190.813477	3067.783203	32.730808
670.760437	1550.101929	6188.717773	3061.718262	32.587662
671.091187	1550.542969	6176.477539	3063.151855	32.698448
671.421814	1549.109375	6162.472656	3055.653564	32.656094
671.752441	1546.573120	6143.506836	3057.969238	32.878353
672.083008	1542.934204	6130.383789	3051.132324	32.876614
672.413574	1544.367798	6119.577148	3040.876953	32.709084
672.744080	1539.846558	6102.816406	3034.701416	32.760571
673.074524	1536.758911	6089.362793	3021.579102	32.614746
673.404968	1535.876709	6066.977539	3016.396484	32.674618
673.735352	1536.869019	6040.401855	3018.491455	32.899117
674.065613	1533.560913	6016.141602	3010.992676	32.959404
674.395935	1531.355469	6001.144531	3000.406494	32.866226
674.726196	1528.819214	5980.192871	3002.060547	33.096333
675.056335	1529.150024	5964.313965	2995.554688	33.063145
675.386536	1531.796509	5940.384766	2990.372070	33.084866
675.716614	1528.929443	5925.387695	2986.843262	33.161098
676.046692	1526.503296	5913.808594	2984.527588	33.232800
676.376770	1526.834229	5913.698730	2982.542480	33.183342
676.706726	1523.856812	5920.866699	2984.086426	33.209606
677.036621	1524.518555	5919.323242	2981.660400	33.156010
677.366516	1525.290405	5932.114746	2981.991211	33.055569
677.696411	1521.210327	5936.635254	2983.534912	33.118549
678.026184	1518.343384	5951.631836	2993.569824	33.276119
678.355957	1517.902100	5965.967285	2993.349365	33.170540
678.685669	1519.997314	5992.542969	2996.436768	33.011166
679.015320	1519.666626	6014.707520	3001.729980	32.971077
679.344971	1521.210449	6027.168945	3009.228760	33.023346
679.674561	1522.313232	6048.010254	3014.080811	32.962158
680.004150	1517.240723	6064.110352	3027.203125	33.208836
680.333618	1518.453735	6078.115234	3026.210449	33.067295
680.663086	1517.791992	6094.435059	3023.564209	32.901237
680.992493	1519.997437	6107.778320	3023.895020	32.780502
681.321899	1521.761719	6110.093750	3027.313477	32.812614
681.651184	1523.746704	6108.219238	3021.358887	32.667053
681.980530	1526.393188	6103.146973	3023.784668	32.717327
682.309753	1526.723999	6094.655762	3019.484375	32.679131
682.638977	1527.385498	6081.533691	3015.293945	32.671497
682.968079	1528.929199	6066.426270	3010.441895	32.650440
683.297241	1531.024414	6046.797852	3005.810303	32.658546
683.626343	1532.678589	6027.499512	3004.266357	32.739632
683.955383	1530.803955	5996.403320	2999.414551	32.887199
684.284363	1533.340332	5959.351563	2992.467285	32.967087
684.613281	1533.119751	5924.835938	2983.865967	33.033695
684.942139	1531.355469	5886.681641	2969.640869	33.023598
685.271057	1532.348022	5854.041016	2966.001953	33.173435
685.599792	1529.260376	5815.224121	2957.400391	33.321327
685.928589	1530.363037	5784.348633	2945.821533	33.273705
686.257324	1527.716553	5753.692871	2934.243164	33.282879
686.585999	1528.488525	5724.580566	2927.626709	33.343842
686.914612	1531.024780	5680.582031	2916.268555	33.382931
687.243164	1531.024780	5642.647949	2912.298828	33.594376
687.571777	1531.245117	5601.516602	2907.446533	33.811047
687.900269	1530.363037	5560.385254	2901.602539	34.025608
688.228699	1528.378052	5526.420898	2896.419678	34.217781
688.557129	1530.362915	5496.758301	2893.111328	34.357349
688.885498	1526.393188	5467.314941	2880.650635	34.363976
689.213867	1525.510986	5442.834473	2874.034180	34.424606
689.542114	1524.628906	5421.772461	2865.102295	34.396305
689.870361	1523.636475	5396.079102	2860.801758	34.530281
690.198608	1522.313110	5375.126465	2850.656738	34.477238
690.526794	1522.533813	5343.258301	2843.158203	34.564762
690.854858	1522.313110	5320.982910	2834.887695	34.553532
691.182922	1516.248169	5299.259277	2823.419189	34.553719
691.510986	1516.358398	5276.433105	2817.244141	34.597336
691.838928	1521.320679	5241.477051	2810.076660	34.642525
692.166931	1522.974731	5200.455566	2799.600830	34.714691
692.494812	1526.282837	5167.484375	2788.683594	34.669895
692.822632	1525.841797	5120.288086	2781.625732	34.936783
693.150452	1527.495850	5083.236328	2775.561035	35.100006
693.478149	1525.952148	5042.655762	2767.731689	35.310894
693.805908	1527.826782	5017.734375	2762.328613	35.373482
694.133606	1527.606079	4996.671875	2753.616699	35.341232
694.461243	1529.039673	4976.712402	2748.985596	35.384621
694.788818	1530.583496	4963.038086	2745.677002	35.400135
695.116333	1532.458130	4961.714844	2745.566895	35.375267
695.443848	1532.347900	4954.547363	2746.449219	35.477222
695.771301	1534.663452	4967.780273	2750.308838	35.409382
696.098755	1536.869019	4989.614258	2763.872070	35.537029
696.426147	1538.302612	5020.049316	2785.154541	35.811104
696.753418	1537.751343	5064.489258	2807.209229	35.995243
697.080688	1537.530640	5103.635742	2831.689697	36.290550
697.407898	1537.199829	5152.597168	2846.687012	36.219730
697.735107	1537.310059	5187.553223	2863.889404	36.342220
698.062317	1540.066895	5222.729980	2882.525391	36.453472
698.389404	1541.831421	5252.503906	2889.031738	36.306099
698.716492	1540.949097	5280.292480	2903.697998	36.443535
699.043457	1536.427979	5295.730957	2912.188965	36.596172
699.370483	1534.884155	5303.449219	2920.128418	36.757870
699.697388	1536.207397	5314.476563	2928.068359	36.838589
700.024292	1536.648438	5318.777832	2926.634766	36.751423
700.351135	1538.192261	5310.507324	2922.665039	36.700878
700.677917	1537.309937	5302.567383	2920.459473	36.734528
701.004639	1538.192139	5290.989258	2918.584717	36.783031
701.331299	1538.853760	5274.338379	2913.402100	36.797054
701.658020	1535.876465	5256.915039	2909.101318	36.904343
701.984619	1535.435303	5223.171387	2898.735840	36.968494
702.311218	1537.640747	5193.177246	2885.502930	36.871799
702.637756	1539.074341	5146.642578	2875.578369	37.047226
702.964233	1536.207275	5091.506348	2852.751953	37.030491
703.290649	1532.678711	5023.027344	2829.484375	37.154045
703.617065	1532.237671	4950.688477	2795.630859	36.958065
703.943481	1531.024658	4864.344727	2769.827393	37.164230
704.269775	1528.708862	4791.344238	2742.259033	37.195396
704.596008	1528.267822	4730.583984	2720.976318	37.245182
704.922241	1525.510986	4663.869141	2698.591064	37.378784
705.248474	1526.503418	4603.991211	2683.924561	37.609283
705.574585	1524.959717	4556.352539	2666.501709	37.657345
705.900696	1525.400757	4518.529297	2649.409424	37.552971
706.226746	1526.503540	4489.969238	2641.800537	37.634888
706.552734	1525.621338	4460.085449	2632.317139	37.713726
706.878723	1523.526245	4434.391602	2629.891113	38.008110
707.204651	1522.533813	4421.049316	2631.104248	38.246143
707.530518	1526.282959	4410.683105	2623.164551	38.028065
707.856323	1523.526123	4401.089844	2619.305176	38.080097
708.182068	1521.761719	4400.096680	2618.863770	38.115856
708.507813	1526.282837	4397.781250	2622.171875	38.164360
708.833496	1525.841797	4395.465332	2627.575439	38.392967
709.159180	1522.092407	4407.264648	2634.191650	38.545330
709.484802	1519.335693	4415.645020	2643.895508	38.827339
709.810303	1521.982178	4421.489746	2650.952881	38.936634
710.135864	1522.643799	4431.855469	2658.892578	39.056931
710.461304	1523.415771	4434.281738	2669.147949	39.360527
710.786743	1522.754150	4447.514648	2673.338379	39.339436
711.112122	1522.974731	4447.183594	2681.387939	39.614582
711.437500	1524.739136	4451.043457	2687.122314	39.721886
711.762817	1526.723999	4454.351074	2690.320068	39.745365
712.088013	1525.952148	4456.335938	2696.826172	39.956337
712.413269	1532.017090	4455.343262	2700.465088	39.969814
712.738403	1533.009521	4461.628906	2704.655518	40.006767
713.063538	1530.142578	4457.989746	2709.948486	40.296021
713.388611	1526.282959	4458.431152	2710.610107	40.391109
713.713623	1523.085083	4456.666992	2713.036133	40.563072
714.038574	1522.533691	4455.343750	2712.926025	40.588799
714.363525	1517.571411	4444.757813	2712.815430	40.832520
714.688477	1518.784424	4438.692871	2718.219238	41.077824
715.013306	1518.233032	4424.467285	2719.321777	41.328007
715.338135	1517.240479	4405.832031	2710.500000	41.309387
715.662842	1516.799438	4392.268066	2705.758545	41.348358
715.987549	1514.704346	4365.250977	2697.488037	41.493225
716.312195	1515.586548	4337.020996	2682.821777	41.370274
716.636841	1510.072876	4309.893555	2673.007324	41.536030
716.961426	1512.940063	4277.473633	2663.965332	41.635422
717.285950	1510.624390	4246.596680	2653.599854	41.775845
717.610474	1510.513916	4219.910645	2640.587646	41.709423
717.934937	1511.616699	4188.042480	2629.781006	41.778267
718.259277	1510.293579	4158.048828	2614.783936	41.714214
718.583679	1511.065308	4126.400391	2601.882080	41.708492
718.908020	1511.506470	4098.060059	2589.200439	41.665245
719.232239	1507.205811	4065.860107	2578.062988	41.852360
719.556519	1505.882568	4031.344971	2572.108154	42.219025
719.880737	1508.529053	4001.350830	2556.449463	42.037518
720.204834	1513.270752	3963.527588	2548.289551	42.241238
720.528931	1516.248047	3929.343262	2540.019043	42.425636
720.852966	1519.335693	3900.341797	2526.786377	42.311974
721.176941	1523.305542	3871.340088	2519.066895	42.408291
721.500916	1525.069824	3841.566650	2509.583496	42.500111
721.824829	1525.510986	3815.542480	2498.005127	42.466408
722.148743	1523.967041	3794.039063	2496.240723	42.830082
722.472534	1524.849243	3771.322266	2489.514160	42.941307
722.796326	1528.047241	3750.590820	2485.654297	43.086090
723.119995	1527.716553	3727.654297	2482.015625	43.378460
723.443665	1531.796631	3714.201172	2480.582031	43.474316
723.767334	1531.686279	3707.695801	2474.186279	43.313229
724.090942	1534.774048	3705.820801	2470.877686	43.117615
724.414551	1535.435547	3699.424561	2471.319092	43.248074
724.737976	1536.207520	3699.755615	2473.193848	43.307858
725.061462	1539.405396	3692.477783	2474.627197	43.436619
725.384888	1539.405518	3692.257324	2479.809814	43.681793
725.708252	1540.949341	3693.801270	2482.897705	43.753510
726.031616	1539.736206	3705.379883	2486.867676	43.734413
726.354858	1541.390381	3719.053223	2489.513672	43.538570
726.678162	1537.751343	3719.604980	2496.460938	43.940144
727.001404	1536.317749	3735.263428	2500.872070	43.864399
727.324463	1538.964355	3741.769775	2503.739014	43.797543
727.647583	1536.758911	3746.511230	2508.039551	43.954273
727.970642	1536.648682	3750.922363	2514.325195	44.153374
728.293701	1536.758789	3754.451172	2520.720947	44.368740
728.616699	1534.002075	3762.831543	2525.462891	44.483475
728.939575	1531.465820	3774.961670	2530.315186	44.522007
729.262512	1528.929443	3786.760742	2537.262207	44.659348
729.585266	1530.473267	3800.875732	2541.672852	44.538342
729.908142	1531.796631	3818.629883	2548.399658	44.454620
730.230896	1532.678711	3826.128418	2554.133545	44.537922
730.553467	1533.450562	3835.611572	2564.278564	44.776535
730.876160	1534.773926	3837.927002	2568.468994	44.881737
731.198792	1536.097290	3846.527832	2572.548828	44.859669
731.521362	1536.758911	3854.026855	2580.598877	45.046146
731.843872	1535.656128	3861.084473	2586.553955	45.191582
732.166321	1532.678711	3866.487793	2588.318359	45.232475
732.488770	1532.017212	3865.495117	2592.729004	45.456257
732.811157	1530.032227	3856.783447	2587.766846	45.459721
733.133484	1528.378174	3843.440918	2587.325928	45.741642
733.455811	1530.693848	3832.854248	2586.223145	45.849510
733.778015	1531.576172	3824.032715	2584.127686	45.913696
734.100281	1528.157593	3820.725098	2578.503906	45.815285
734.422424	1527.385742	3806.279053	2580.929932	46.230518
734.744507	1525.511108	3792.605713	2583.796875	46.680264
735.066589	1524.077515	3784.444824	2576.298340	46.550880
735.388611	1525.511108	3774.409912	2568.909912	46.395985
735.710571	1528.598755	3754.340820	2564.388916	46.536842
736.032532	1531.576172	3740.666748	2558.654541	46.493267
736.354431	1531.024780	3725.558838	2554.023193	46.615742
736.676270	1527.165161	3713.097900	2553.472168	46.950531
736.998108	1525.070068	3704.386475	2550.494873	47.052589
737.319824	1523.967407	3695.013428	2541.452393	46.866119
737.641541	1519.225586	3684.647949	2539.026611	47.094788
737.963135	1520.107788	3675.936768	2536.710693	47.156006
738.284790	1520.218018	3657.190430	2530.204590	47.262501
738.606323	1518.894775	3644.950439	2523.037109	47.230293
738.927856	1519.776978	3628.299072	2519.397705	47.408600
739.249390	1520.659180	3611.537598	2514.325195	47.523853
739.570740	1524.518677	3597.863770	2512.891846	47.670460
739.892212	1525.731567	3585.733643	2510.355225	47.797218
740.213562	1527.385620	3582.977051	2508.811279	47.744202
740.534790	1527.054810	3572.390625	2501.533691	47.643955
740.856079	1529.701416	3558.496582	2499.769043	47.814960
741.177246	1532.458130	3555.850098	2493.153076	47.479427
741.498413	1534.222534	3552.652588	2486.867676	47.197334
741.819580	1531.245117	3538.096436	2480.471680	47.299297
742.140625	1531.796509	3528.392578	2480.251221	47.503586
742.461670	1531.796509	3519.239502	2473.083252	47.361698
742.782654	1530.032104	3500.052002	2468.341797	47.629452
743.103577	1527.275146	3486.708984	2464.261475	47.819237
743.424438	1528.488159	3469.396484	2454.116455	47.690468
743.745300	1528.929443	3453.737305	2449.705566	47.837299
744.066101	1529.260132	3436.093750	2443.750977	47.958607
744.386902	1534.442871	3418.780762	2438.126953	47.957645
744.707581	1532.899048	3395.182617	2431.069580	48.229527
745.028198	1531.906616	3382.722168	2419.160156	47.938519
745.348816	1530.693726	3369.268555	2415.300537	48.113724
745.669373	1530.583374	3360.998535	2412.322998	48.171566
745.989929	1529.921753	3352.176758	2408.463623	48.211796
746.310364	1530.804077	3345.119141	2408.904785	48.398468
746.630798	1530.583496	3336.958740	2409.456055	48.653931
746.951172	1528.378052	3327.034180	2408.243164	48.917915
747.271545	1526.393066	3320.858887	2407.360840	49.093594
747.591858	1525.621216	3316.999268	2406.258301	49.159756
747.912109	1525.621216	3315.676025	2407.471191	49.263855
748.232300	1522.533569	3319.976563	2406.478760	49.177925
748.552429	1526.834229	3321.961426	2411.330811	49.272083
748.872559	1528.267822	3316.889160	2413.866943	49.512947
749.192627	1528.488403	3319.645752	2414.969727	49.492096
749.512695	1530.362915	3321.299805	2415.190186	49.405830
749.832642	1533.781494	3316.337891	2418.387939	49.625721
750.152588	1536.538208	3315.455322	2421.806641	49.764458
750.472473	1537.310181	3308.948975	2419.380615	49.788391
750.792358	1538.854126	3300.789551	2420.373047	50.031284
751.112122	1539.515747	3296.157715	2419.932129	50.119286
751.431824	1540.397827	3291.968018	2417.947266	50.100731
751.751587	1542.162109	3293.952393	2418.829346	50.044075
752.071228	1546.021606	3284.909912	2418.277832	50.161716
752.390869	1547.786133	3282.925537	2416.844482	50.085793
752.710327	1550.542847	3281.712402	2420.152588	50.232498
753.029846	1546.793579	3276.198730	2416.623779	50.296497
753.349304	1546.793579	3271.787598	2411.661377	50.137436
753.668762	1546.793579	3271.125732	2407.360596	49.907265
753.988098	1547.786011	3263.627197	2404.824707	49.948601
754.307434	1547.786011	3258.113770	2401.737061	49.929089
754.626770	1548.006470	3243.006348	2397.656982	50.126877
754.946045	1548.557861	3226.465820	2391.151123	50.216892
755.265259	1546.462646	3212.791748	2385.306641	50.340836
755.584351	1544.698242	3212.901855	2382.218994	50.204948
755.903442	1543.816162	3206.836670	2383.321533	50.480759
756.222534	1541.059204	3204.521484	2383.983154	50.672863
756.541565	1536.097046	3203.859863	2381.226074	50.674412
756.860535	1534.553223	3199.559082	2376.374023	50.559631
757.179443	1535.104614	3201.985107	2374.830322	50.377079
757.498291	1532.237549	3200.220703	2376.043457	50.588394
757.817139	1529.260254	3202.977295	2373.948242	50.467789
758.135925	1529.811523	3206.947510	2376.815186	50.502979
758.454651	1529.370483	3203.639160	2377.807861	50.675102
758.773376	1526.944580	3206.837158	2379.572266	50.754894
759.092041	1526.282959	3200.110596	2381.888184	51.116688
759.410645	1522.864502	3200.110596	2379.792969	51.091396
759.729187	1524.628784	3204.411133	2379.352051	50.882977
760.047607	1525.841797	3205.844971	2378.690430	50.764702
760.366089	1527.716431	3206.396240	2379.462158	50.739021
760.684509	1528.047119	3214.887207	2385.526855	50.833492
761.002869	1528.157471	3226.245117	2396.554199	51.139687
761.321228	1526.834229	3258.114258	2403.391113	50.630566
761.639465	1523.415771	3301.450928	2425.886475	50.756630
761.957642	1524.628784	3355.594971	2445.625488	50.301132
762.275879	1524.297974	3392.095215	2467.900391	50.519531
762.593994	1528.047241	3424.294678	2480.802246	50.244236
762.912109	1529.811646	3457.266357	2490.837158	49.859825
763.230103	1533.781494	3481.416016	2496.460938	49.428135
763.548157	1530.914429	3510.197266	2505.723877	49.250641
763.866150	1530.142578	3521.555176	2514.325195	49.421329
764.184021	1533.671265	3534.346680	2514.876465	49.043697
764.501892	1533.561157	3543.609863	2521.162109	49.133186
764.819702	1535.545898	3548.902832	2524.249512	49.107220
765.137451	1534.443115	3551.218262	2528.219238	49.275505
765.455200	1535.215088	3557.062988	2527.006348	49.053703
765.772888	1536.317749	3558.386230	2525.021484	48.895660
766.090515	1535.215088	3556.290527	2521.934326	48.821495
766.408081	1536.758789	3554.195313	2520.611084	48.767448
766.725586	1537.310181	3549.674805	2516.531006	48.660210
767.043091	1536.207397	3542.837891	2514.546387	48.755314
767.360535	1533.671143	3533.905518	2513.553467	48.988377
767.677917	1533.560791	3512.953613	2502.967529	48.974957
767.995239	1531.686157	3482.959473	2490.947998	49.160812
768.312500	1535.104614	3428.705322	2468.011230	49.266281
768.629822	1532.678711	3368.716797	2448.051758	49.855885
768.947021	1531.576050	3315.345703	2423.019775	49.975273
769.264160	1528.378174	3279.175537	2399.642090	49.763836
769.581299	1528.488281	3238.375000	2378.579834	49.716251
769.898376	1523.856812	3201.103027	2367.552734	50.302448
770.215393	1529.260132	3163.059082	2355.091797	50.546715
770.532349	1530.252563	3136.483643	2343.072266	50.604156
770.849304	1527.495850	3109.136230	2333.368408	50.951694
771.166199	1529.590942	3082.450195	2324.987305	51.221409
771.483032	1529.921753	3060.395264	2314.070068	51.235668
771.799866	1530.031982	3043.634033	2305.799561	51.253075
772.116577	1529.590942	3022.461670	2298.742432	51.521641
772.433350	1529.591064	3013.529541	2292.346436	51.400742
772.749939	1528.929443	2994.341797	2286.722656	51.711945
773.066589	1530.583374	2978.242188	2282.752686	51.957638
773.383057	1531.245117	2968.758545	2281.208984	52.170914
773.699646	1533.671021	2958.282959	2275.585205	52.078335
774.016113	1537.089478	2946.924561	2265.108887	51.638622
774.332520	1537.971680	2943.947266	2254.633301	50.972549
774.648804	1539.625610	2932.699463	2251.104736	51.072605
774.965149	1537.751099	2931.486328	2248.017090	50.961330
775.281433	1539.956543	2928.178223	2241.179932	50.512348
775.597656	1539.846313	2922.885010	2236.438477	50.366787
775.913879	1540.838867	2908.549561	2237.982178	50.971546
776.229980	1539.625854	2895.647949	2236.438232	51.386505
776.546082	1542.603149	2887.598145	2235.004639	51.479855
776.862122	1539.515503	2881.974121	2231.255371	51.527836
777.178162	1536.979248	2869.513428	2229.050049	51.936440
777.494141	1540.728516	2869.292725	2224.197998	51.444218
777.809998	1537.971680	2867.638672	2221.771973	51.426434
778.125854	1533.340332	2864.220215	2222.213135	51.760704
778.441711	1534.332642	2860.581299	2222.433838	51.883270
778.757446	1531.796509	2852.420898	2221.661865	52.237816
779.073181	1534.112183	2842.276123	2218.133057	52.288620
779.388855	1534.222412	2846.466309	2213.060547	51.731094
779.704468	1531.465576	2844.040283	2209.973145	51.692871
780.020020	1532.568359	2835.549561	2208.208740	51.853424
780.335571	1528.488403	2833.233887	2203.797852	51.757946
780.651062	1527.385620	2824.853271	2204.239014	52.167267
780.966553	1523.856934	2813.605225	2207.326660	52.992489
781.281860	1524.298096	2804.231934	2208.539551	53.459126
781.597290	1525.511108	2792.984131	2201.151123	53.306068
781.912476	1522.754272	2783.169922	2201.923096	53.884514
782.227722	1523.746704	2773.355713	2200.269043	54.138721
782.542908	1521.651611	2765.857178	2195.747803	54.178844
782.858093	1520.769409	2761.225586	2196.850342	54.502605
783.173218	1522.313232	2755.491455	2192.770752	54.368259
783.488281	1521.982422	2742.258789	2191.557617	54.870781
783.803345	1523.305664	2738.840332	2189.683105	54.821754
784.118225	1517.902100	2726.930908	2188.580322	55.472477
784.433167	1519.335693	2714.801025	2184.940918	55.677502
784.748047	1521.761719	2708.625732	2181.081543	55.551422
785.062866	1518.674072	2699.252441	2175.678223	55.651039
785.377686	1521.210327	2698.039551	2172.370117	55.331715
785.692444	1517.791870	2690.100098	2169.723633	55.610950
786.007141	1519.114990	2681.057861	2173.473145	56.315865
786.321716	1519.666504	2675.654297	2174.465332	56.644096
786.636353	1516.358276	2677.639160	2170.054443	56.290962
786.950928	1516.137695	2676.205566	2170.495605	56.406864
787.265442	1519.115112	2677.087891	2174.796143	56.623180
787.579834	1520.659058	2684.365967	2174.906494	56.220982
787.894226	1519.776978	2687.784424	2172.701172	55.900688
788.208618	1517.681885	2688.776611	2177.332520	56.327694
788.522949	1519.887207	2689.327881	2173.362305	55.879288
788.837219	1519.556396	2690.871582	2173.583008	55.836945
789.151367	1519.887329	2689.438232	2178.214355	56.288872
789.465515	1520.218140	2688.004639	2173.803223	55.967857
789.779602	1521.100220	2684.806641	2174.023926	56.107254
790.093689	1523.967407	2684.475830	2173.362061	55.957771
790.407776	1522.644043	2679.623779	2171.267090	56.061745
790.721741	1523.636475	2679.403076	2174.023926	56.273251
791.035645	1523.415771	2679.072266	2169.943848	55.944656
791.349548	1525.510986	2671.573730	2165.533203	55.845303
791.663391	1529.921875	2665.619141	2158.475586	55.345181
791.977173	1531.134888	2654.701904	2157.262695	55.726788
792.290894	1533.560791	2648.195801	2158.475830	56.064545
792.604614	1532.899170	2638.381592	2149.543701	55.780582
792.918274	1532.127319	2627.244141	2142.376221	55.724548
793.231812	1534.112305	2614.783447	2141.824463	56.234699
793.545410	1535.876587	2603.315186	2138.626465	56.466938
793.858948	1531.796387	2591.957275	2130.245605	56.448906
794.172363	1531.575928	2579.827148	2128.150879	56.911449
794.485840	1531.906738	2572.990234	2126.496582	57.112598
794.799194	1533.009521	2566.925293	2124.401123	57.199203
795.112488	1534.442871	2563.065674	2125.724609	57.482853
795.425781	1536.427856	2558.434326	2123.519043	57.444958
795.738953	1536.538086	2551.928223	2122.195801	57.678097
796.052185	1540.177124	2545.752930	2120.100830	57.670811
796.365234	1536.868896	2541.672852	2116.572266	57.693180
796.678284	1533.671143	2542.995850	2114.036133	57.500324
796.991333	1533.671021	2542.113770	2111.609863	57.310032
797.304382	1533.009521	2535.828369	2102.567627	56.795712
797.617310	1534.553345	2533.402588	2102.677734	56.877892
797.930115	1532.678711	2533.733154	2100.031250	56.675491
798.242981	1527.054810	2533.402588	2105.434570	57.473148
798.555786	1524.849365	2534.505127	2101.464844	57.110107
798.868530	1521.430908	2532.189697	2096.943604	56.938679
799.181213	1523.084961	2532.300293	2096.502441	56.818150
799.493896	1520.879517	2529.984619	2099.148926	57.305172
799.806519	1518.343262	2528.661377	2097.715332	57.345509
800.119080	1519.004883	2524.360596	2094.517334	57.244659
800.431580	1520.989868	2521.603516	2088.562744	56.722481
800.744080	1523.526123	2519.287842	2084.482422	56.334393
801.056458	1525.180298	2511.678955	2078.197266	56.058563
801.368835	1527.716309	2504.952393	2075.550293	56.059532
801.681152	1525.731567	2493.814697	2069.154785	56.133942
801.993408	1522.423218	2482.677002	2063.641113	56.361965
802.305664	1521.982178	2479.148193	2054.819336	55.668205
802.617798	1516.909668	2470.877930	2051.952148	56.085983
802.929993	1518.673950	2462.607422	2044.233276	55.677582
803.242065	1518.012329	2452.241943	2040.373657	55.913589
803.554016	1519.886963	2452.241699	2040.594360	55.848637
803.865967	1521.541138	2451.249512	2043.020264	56.090614
804.177979	1520.438477	2448.823730	2039.491821	55.909264
804.489807	1519.887207	2439.670898	2042.028076	56.767788
804.801697	1522.202881	2436.583252	2039.271240	56.548496
805.113464	1522.974854	2436.031738	2037.616943	56.364735
805.425232	1525.952148	2434.598145	2036.624634	56.201477
805.736938	1523.526123	2427.981689	2035.301147	56.583767
806.048584	1525.400879	2424.673584	2032.764893	56.419373
806.360168	1529.150146	2425.004395	2029.677246	55.871487
806.671753	1527.937134	2423.239990	2027.692505	55.819702
806.983276	1526.172729	2419.160156	2031.000610	56.532475
807.294739	1525.290405	2412.654053	2029.677490	56.841080
807.606140	1521.431030	2407.360840	2032.323853	57.667416
807.917542	1521.541260	2403.611816	2030.228760	57.669708
808.228760	1522.864624	2400.524170	2025.156006	57.230778
808.540100	1523.526245	2402.068115	2024.274048	56.997604
808.851318	1523.967407	2397.877686	2024.274048	57.249199
809.162476	1525.952148	2394.900146	2022.950562	57.195415
809.473633	1524.849487	2395.230957	2027.912720	57.798016
809.784668	1525.731689	2395.010498	2026.699829	57.630318
810.095703	1526.503540	2388.614502	2018.980713	57.124569
810.406738	1527.165161	2381.226074	2018.980835	57.585548
810.717590	1526.282959	2371.742676	2015.121338	57.819241
811.028503	1521.761841	2368.103760	2011.813110	57.902279
811.339294	1521.761841	2361.046387	2006.961182	57.811066
811.650085	1522.423462	2352.776123	2003.432251	57.928253
811.960876	1523.085083	2351.121826	2000.454834	57.650795
812.271545	1523.415894	2351.232178	1997.698120	57.293175
812.582153	1522.202881	2341.197266	1997.146729	57.991100
812.892761	1516.689209	2333.809326	1997.808350	58.879856
813.203308	1519.556396	2328.626221	1998.580322	59.206749
813.513855	1520.218018	2325.428467	1993.948975	58.833187
813.824280	1516.248291	2323.884766	1987.773804	58.383385
814.134705	1519.446045	2318.701904	1982.590820	57.946999
814.445068	1518.233032	2317.819580	1977.408081	57.426559
814.755371	1517.350952	2321.458740	1980.385376	57.583626
815.065613	1516.689209	2320.466064	1976.856934	57.250683
815.375854	1513.932373	2315.172852	1973.879639	57.404396
815.686035	1514.263184	2316.496094	1973.218018	57.209675
815.996155	1515.255737	2312.085205	1969.468506	57.002506
816.306152	1518.674194	2304.807373	1973.328125	57.834213
816.616211	1516.579102	2302.822266	1975.864258	58.415154
816.926208	1518.674316	2306.020508	1975.643555	58.039177
817.236145	1520.659058	2308.997803	1982.811523	58.623589
817.546021	1525.841797	2317.157959	1986.119629	58.166111
817.855774	1526.503540	2324.105225	1991.412598	58.288376
818.165588	1525.400879	2339.763916	1998.911499	58.144905
818.475281	1524.629028	2349.908936	2004.976318	58.204166
818.784973	1525.290527	2366.339600	2015.341675	58.266655
819.094604	1526.062500	2396.885010	2021.958374	56.945690
819.404175	1527.275513	2419.821533	2031.441772	56.486305
819.713684	1526.172729	2456.762939	2046.218140	55.883396
820.023254	1524.298096	2534.284180	2074.447998	54.471039
820.332642	1524.187866	2684.475342	2141.714355	53.221851
820.642090	1523.636475	2922.443848	2249.009766	51.856552
820.951416	1522.974854	3194.376465	2378.910645	51.210659
821.260681	1523.967285	3454.178467	2498.997314	50.514164
821.569946	1525.400879	3665.019775	2605.079834	50.461273
821.879150	1529.150024	3838.809082	2686.901855	50.126522
822.188293	1528.929443	3977.311768	2756.704590	50.146381
822.497437	1528.708862	4100.045410	2815.039063	50.025745
822.806458	1526.613647	4208.553711	2859.479004	49.697807
823.115479	1529.480835	4293.243164	2900.390137	49.603012
823.424438	1529.370483	4370.543945	2936.448975	49.524555
823.733337	1527.165039	4440.566895	2966.553223	49.405754
824.042236	1525.952148	4501.988770	2992.908447	49.292278
824.351013	1526.944458	4551.832031	3014.080811	49.163357
824.659790	1526.944458	4587.119141	3034.701660	49.270298
824.968445	1522.202881	4637.402832	3058.740967	49.323898
825.277100	1523.195313	4701.140625	3083.001221	49.082214
825.585693	1521.871826	4773.699707	3114.097900	48.964031
825.894287	1523.084961	4851.772949	3147.620605	48.804085
826.202820	1521.100098	4899.300781	3173.534668	48.914635
826.511292	1524.959595	4891.250977	3178.717529	49.126999
826.819702	1528.488281	4792.556641	3140.783936	49.395279
827.128113	1529.260376	4605.093750	3054.771484	49.596672
827.436401	1532.678711	4370.654297	2941.631592	49.646404
827.744751	1533.230103	4138.199707	2838.196045	50.095245
828.052917	1533.340210	3952.059082	2744.905518	50.091202
828.361145	1528.819092	3805.065918	2676.205566	50.406944
828.669312	1527.054688	3683.545410	2616.989258	50.542049
828.977356	1525.400635	3573.272705	2567.145752	50.869637
829.285400	1525.841675	3477.335938	2523.808838	51.138615
829.593384	1523.856812	3398.711426	2479.699707	50.982243
829.901306	1522.312988	3322.182373	2445.515137	51.292728
830.209167	1524.849243	3253.482178	2413.315674	51.397057
830.517029	1525.731323	3192.501465	2386.299072	51.630859
830.824829	1524.518311	3135.821533	2363.913574	52.094185
831.132568	1527.606079	3096.564453	2341.087158	51.848480
831.440247	1530.252563	3047.713623	2316.606689	51.820381
831.747925	1528.157471	2990.372070	2294.882568	52.435879
832.055481	1528.488159	2934.133301	2272.386963	52.922234
832.363037	1530.693604	2880.430176	2251.214600	53.382343
832.670532	1532.678589	2841.614502	2228.498535	53.159206
832.977966	1532.568359	2810.517578	2216.809814	53.542149
833.285400	1533.009521	2791.440674	2208.429199	53.671562
833.592712	1533.009399	2771.150391	2207.326416	54.462055
833.900085	1531.355347	2757.917725	2204.128418	54.850292
834.207275	1529.811523	2743.692627	2194.865234	54.787384
834.514526	1529.811523	2728.254395	2190.123779	55.097515
834.821716	1531.465576	2712.705811	2182.625488	55.125103
835.128784	1532.678711	2701.347900	2171.487793	54.661240
835.435852	1535.986816	2698.260254	2166.525391	54.250450
835.742798	1532.568359	2687.894531	2163.769043	54.633980
836.049805	1535.545776	2679.734131	2166.525879	55.146523
836.356750	1536.207520	2666.501465	2161.563477	55.326843
836.663574	1530.031982	2653.048096	2154.065186	55.567608
836.970398	1527.495850	2640.036133	2150.095215	55.961960
837.277161	1529.039673	2629.339355	2144.140381	55.903015
837.583923	1527.385498	2611.916504	2136.862305	56.197269
837.890564	1527.937012	2592.287842	2129.143311	56.485725
838.197205	1528.267822	2561.301270	2113.594727	56.660984
838.503784	1532.237671	2521.272217	2092.091553	56.606098
838.810303	1530.693970	2469.223633	2064.964355	56.926319
839.116699	1530.252808	2421.255127	2046.548950	57.945545
839.423096	1531.024658	2384.203613	2024.053223	57.787239
839.729492	1529.591064	2343.182373	2004.865723	58.416882
840.035828	1528.929443	2307.123535	1981.708496	58.183308
840.342102	1526.723999	2272.056641	1964.395874	58.721684
840.648315	1525.952148	2245.150391	1953.037720	59.383568
840.954529	1526.613892	2223.205811	1946.200928	60.234268
841.260620	1527.606201	2202.033203	1936.827881	60.676941
841.566711	1527.385620	2181.963867	1932.968140	61.960892
841.872803	1526.944458	2162.004395	1924.477295	62.597687
842.178772	1525.731445	2151.308105	1913.008789	61.907257
842.484680	1522.974609	2137.193115	1904.187134	62.064644
842.790588	1521.872070	2127.158203	1896.247559	61.850994
843.096436	1525.841675	2118.667236	1890.954468	61.588570
843.402222	1526.944458	2110.837891	1884.889282	61.303108
843.707947	1523.415771	2102.346924	1878.162598	61.276169
844.013611	1522.423218	2091.429932	1875.185303	61.996120
844.319275	1526.172485	2078.527832	1870.002441	62.247963
844.624817	1527.936890	2068.162598	1865.370850	62.461662
844.930359	1527.826538	2049.857422	1859.195679	63.476921
845.235901	1526.613647	2036.955566	1852.910156	63.936844
845.541321	1525.841797	2020.855713	1841.000732	63.666683
845.846680	1525.510864	2005.638062	1833.281616	64.101921
846.152039	1528.047119	1993.287598	1825.452515	63.925091
846.457275	1528.378052	1981.929443	1820.159180	64.332542
846.762512	1530.032104	1968.806885	1818.395142	65.720055
847.067749	1533.891602	1959.543945	1813.653442	65.725433
847.372925	1534.332764	1948.736938	1807.588501	65.939430
847.677979	1535.325317	1941.789795	1801.744019	65.545387
847.983032	1537.861572	1936.937866	1796.891968	64.907486
848.288025	1535.656006	1930.211548	1791.267822	64.784752
848.592957	1541.390259	1925.138916	1792.150146	65.344826
848.897888	1539.956665	1923.926025	1792.591187	65.795486
849.202759	1540.618286	1920.617798	1788.511108	65.235039
849.507507	1541.831299	1917.199463	1790.275269	66.186745
849.812317	1539.295044	1913.560303	1789.613892	66.882736
850.117004	1541.169678	1907.936401	1785.423584	66.596527
850.421631	1541.941650	1902.863892	1782.776978	66.727760
850.726257	1541.390137	1901.540527	1780.571655	66.411568
851.030823	1540.397827	1898.673584	1779.138062	66.635887
851.335327	1539.736084	1893.821411	1779.689331	67.767067
851.639771	1540.177246	1885.881836	1782.666626	70.143524
851.944153	1540.177124	1881.470825	1786.084961	72.051674
852.248535	1538.964233	1874.854492	1785.533691	73.407745
852.552856	1535.325317	1873.641602	1782.997559	73.207306
852.857056	1534.663696	1873.089844	1783.549072	73.542007
853.161255	1537.861572	1875.515991	1781.122925	72.044472
853.465393	1536.317749	1874.192505	1778.255737	71.605820
853.769531	1532.568359	1873.310669	1778.145508	72.071220
854.073547	1527.165039	1870.884644	1780.792236	73.788979
854.377563	1524.408203	1868.458496	1781.233276	74.647537
854.681580	1520.548828	1865.150269	1781.233276	75.648102
854.985474	1517.681519	1855.446411	1778.586670	77.244606
855.289307	1517.571289	1853.020264	1775.940063	77.021782
855.593140	1517.791870	1852.910156	1777.924805	77.624214
855.896851	1516.137817	1852.469116	1778.697021	78.065643
856.200623	1517.902100	1850.153687	1777.704468	78.194473
856.504272	1518.453613	1852.800049	1778.807129	77.869385
856.807922	1515.917358	1854.454102	1777.042725	77.133537
857.111389	1513.711914	1852.579468	1779.248169	78.359894
857.414978	1516.248169	1844.419312	1778.696777	79.973091
857.718445	1516.358398	1844.419434	1774.506470	78.689041
858.021790	1517.350952	1843.978394	1768.000610	76.738701
858.325195	1517.681763	1841.993530	1762.486816	75.484482
858.628479	1515.917358	1841.000977	1764.251099	76.390724
858.931763	1516.468750	1837.141357	1763.479126	77.028839
859.234985	1515.476318	1831.297119	1758.847900	77.060020
859.538147	1512.609131	1827.547607	1757.965820	77.906227
859.841248	1511.065308	1827.988647	1756.752563	77.522614
860.144287	1514.924927	1826.996094	1753.554443	76.466377
860.447266	1520.989990	1828.098755	1749.584595	74.434410
860.750305	1525.180298	1825.121460	1746.938232	73.933815
861.053223	1529.150146	1825.011353	1747.048584	73.648872
861.356018	1530.804199	1831.076294	1748.041138	72.346695
861.658813	1531.245239	1826.555054	1748.041138	73.413033
861.961609	1528.378296	1823.247070	1747.599854	74.345467
862.264343	1529.370605	1821.813599	1742.637817	72.926079
862.567017	1529.701416	1819.718384	1741.865723	73.155823
862.869629	1529.480957	1819.608032	1743.630249	73.812241
863.172180	1532.017212	1819.497803	1743.299316	73.494392
863.474670	1527.385742	1816.961304	1740.211670	73.495819
863.777161	1522.643921	1821.151733	1739.439697	72.626503
864.079590	1521.541138	1821.151733	1739.880981	72.874542
864.381958	1521.982300	1821.703369	1743.740356	73.988144
864.684265	1520.107666	1823.688110	1748.592285	75.263283
864.986511	1518.784302	1824.680420	1746.276611	74.369141
865.288757	1520.217896	1824.901001	1750.025879	75.425247
865.590942	1520.438477	1827.106445	1752.562134	75.692177
865.893066	1519.556396	1829.532593	1753.223999	75.382431
866.195068	1517.791992	1828.429932	1753.665039	75.931824
866.497131	1518.894775	1829.311890	1751.569702	74.955574
866.799133	1514.263062	1824.459961	1752.782715	76.892982
867.100952	1509.852295	1821.703125	1757.193848	79.314056
867.402832	1512.939819	1822.364746	1760.612305	80.042839
867.704651	1513.491211	1821.372192	1758.516968	79.584572
868.006409	1515.696533	1822.364624	1759.178589	79.395950
868.308105	1519.335571	1826.775635	1760.612183	78.479233
868.609802	1517.681519	1830.524902	1764.140869	78.780426
868.911438	1515.696655	1832.620361	1765.133179	78.705544
869.213013	1517.571411	1829.863281	1763.148438	78.637024
869.514465	1518.343384	1829.311768	1767.669678	80.177376
869.815979	1522.423340	1833.281616	1764.802490	77.970947
870.117371	1526.834351	1834.825562	1766.456665	77.801674
870.418701	1529.370605	1835.487183	1768.000610	77.953964
870.720093	1530.914429	1839.015991	1764.141235	75.698029
871.021301	1533.671265	1839.787964	1762.045776	74.603745
871.322571	1535.656128	1838.133911	1763.148438	75.209595
871.623718	1534.553467	1840.339233	1759.399048	73.530426
871.924805	1534.222656	1845.191406	1761.273804	73.014137
872.225891	1536.207397	1847.837769	1761.714844	72.363754
872.526917	1541.279907	1846.845459	1765.354004	73.330940
872.827881	1541.831299	1848.389282	1767.228638	73.525192
873.128784	1544.808594	1851.476807	1767.008057	72.455978
873.429626	1546.462646	1858.203491	1764.251099	69.862022
873.730408	1542.603149	1858.313599	1761.494385	69.332909
874.031189	1541.279907	1857.651978	1760.061035	69.153114
874.331848	1539.956543	1858.534180	1762.597290	69.885872
874.632568	1537.530640	1857.431396	1761.163452	69.906937
874.933167	1537.640869	1854.123169	1760.061035	70.278862
875.233704	1539.956665	1853.130737	1760.060791	70.281723
875.534241	1538.082031	1853.902710	1764.471680	71.682968
875.834717	1537.751221	1853.351318	1760.943115	70.719841
876.135071	1536.427979	1851.256104	1761.053223	71.348534
876.435425	1533.450684	1851.035767	1760.722412	71.562469
876.735779	1531.355469	1852.579468	1763.258789	72.193649
877.036011	1528.488403	1853.240845	1765.464111	72.971184
877.336182	1526.172729	1851.586914	1768.110718	74.347710
877.636353	1526.944580	1856.659424	1768.220947	73.177284
877.936462	1525.841797	1863.276001	1772.301025	73.039192
878.236511	1527.937012	1868.348633	1773.844849	72.238380
878.536560	1527.165161	1875.295776	1780.902100	72.885559
878.836487	1523.415771	1889.961914	1783.218018	70.878456
879.136414	1521.431030	1918.963745	1797.112305	69.348076
879.436279	1522.313232	1970.460938	1821.813477	66.830696
879.736084	1522.313110	2053.055176	1860.960205	63.806343
880.035828	1522.864502	2156.711426	1909.039063	60.925526
880.335510	1523.967285	2274.923584	1963.954956	58.590317
880.635193	1523.305664	2391.922607	2014.239258	56.518997
880.934753	1524.518555	2499.879639	2063.200439	55.228970
881.234314	1524.959717	2592.508545	2102.788330	54.126667
881.533752	1523.415771	2675.213135	2143.368408	53.824802
881.833252	1523.085083	2748.654541	2172.921631	53.023232
882.132629	1521.320679	2812.833252	2199.717773	52.527332
882.431946	1519.776855	2872.160156	2229.050293	52.446186
882.731323	1522.864502	2918.805176	2247.906982	51.939346
883.030579	1526.613647	2956.518555	2266.763428	51.762169
883.329712	1526.723877	2991.364746	2283.524902	51.671440
883.628845	1526.282837	3021.027832	2293.559814	51.331631
883.927979	1529.480713	3040.325439	2306.351563	51.419636
884.226990	1530.693604	3058.410156	2315.724609	51.385906
884.526001	1530.803833	3066.460205	2320.797119	51.443363
884.824951	1530.142212	3073.297119	2320.576416	51.221962
885.123840	1530.473145	3074.620361	2322.230469	51.274731
885.422729	1530.473145	3053.227539	2312.526367	51.357803
885.721497	1530.914307	3009.008301	2292.125977	51.499546
886.020203	1532.899292	2928.619141	2257.059326	51.884338
886.318909	1532.678711	2828.602051	2213.501709	52.535748
886.617554	1529.149902	2714.249512	2163.879395	53.559170
886.916138	1528.047241	2597.140137	2111.499756	54.574539
887.214661	1524.408203	2491.829590	2066.508301	56.035572
887.513184	1524.518677	2402.067871	2028.684692	57.451595
887.811523	1527.495850	2321.127686	1984.355103	57.565639
888.109924	1514.483765	2151.307861	1880.368164	57.454548
888.408264	1528.378052	2035.521729	1854.895264	64.383568
888.706543	1546.903931	1977.628662	1850.263794	70.430099
889.004761	1565.429688	1931.314087	1850.263794	77.848114
889.302979	1509.852295	1919.735474	1850.263794	83.050858
889.601135	1470.484985	1905.841187	1815.527954	79.255325
889.899170	1489.010742	1859.526611	1785.423462	80.000008
890.197205	1468.169312	1882.683960	1824.790771	86.033501
890.495178	1528.378052	1875.736694	1799.317871	78.000023
890.793091	1560.798218	1901.209717	1725.214600	48.299305
>>>>>End Processed Spectral Data<<<<<
