Jaz Data File
++++++++++++++++++++++++++++++++++++
Date: Thu Sep 26 04:29:56 2019
User: jaz
Dark Spectrum Present: Yes
Reference Spectrum Present: Yes
Processed Spectrum Present: Yes
Spectrometers: JAZA3541
Integration Time (usec): 100000 (JAZA3541)
Spectra Averaged: 1 (JAZA3541)
Boxcar Smoothing: 10 (JAZA3541)
Correct for Electrical Dark: No (JAZA3541)
Strobe/Lamp Enabled: Yes (JAZA3541)
Correct for Detector Non-linearity: No (JAZA3541)
Correct for Stray Light: No (JAZA3541)
Number of Pixels in Processed Spectrum: 2048
>>>>>Begin Processed Spectral Data<<<<<
W	D	R	S	P
190.543274	0.000000	0.000000	0.000000	0.000000
190.921555	0.000000	0.000000	0.000000	0.000000
191.299805	1296.805664	1336.172974	1086.074707	-535.294312
191.678024	1229.649658	1322.278564	1167.125122	-67.500023
192.056229	1345.435913	1313.015747	1176.387939	521.428467
192.434387	1331.541504	1278.279907	1130.073486	378.261322
192.812531	1303.752808	1324.594360	1176.387939	-611.110291
193.190659	1310.699951	1296.805664	1199.545166	800.003540
193.568741	1319.962891	1359.330200	1227.333862	-235.294281
193.946793	0.000000	0.000000	0.000000	0.000000
194.324829	1207.815674	1211.785522	1073.613892	-3380.526367
194.702835	1271.994385	1273.317627	1131.617310	-10608.570313
195.080811	1337.606445	1335.070313	1190.172119	5813.352051
195.458755	1337.827148	1332.203125	1198.332275	2480.339355
195.836685	1338.268188	1331.541626	1200.868530	2042.642944
196.214569	1339.811890	1336.172974	1202.743164	3766.746094
196.592422	1341.907104	1340.032471	1207.815796	7152.933594
196.970261	1342.679077	1342.127686	1211.013550	23878.769531
197.348068	1343.781860	1343.120117	1215.314331	19413.503906
197.725861	1344.222900	1342.127563	1213.660156	6231.109863
198.103622	1343.561279	1338.157837	1212.888428	2418.325928
198.481323	1340.253052	1337.496216	1214.101318	4575.960938
198.859039	1337.937378	1335.290771	1218.181396	4524.888184
199.236694	1335.070313	1335.621460	1217.299194	-21368.349609
199.614334	1333.416138	1335.511230	1219.504639	-5437.062500
199.991959	1329.115479	1337.937134	1221.820313	-1216.270264
200.369553	1324.373657	1337.826904	1224.577026	-741.803284
200.747101	1322.499023	1341.355835	1223.584595	-524.555420
201.124619	1320.514038	1341.576294	1222.592041	-464.916962
201.502136	1316.323608	1346.538452	1218.181152	-324.815369
201.879623	1313.677246	1349.736450	1218.732666	-263.301941
202.257065	1311.030640	1351.500854	1221.268799	-221.797287
202.634476	1309.927979	1352.934570	1221.489380	-205.639633
203.011871	1305.186279	1354.809082	1222.040771	-167.555038
203.389221	1303.091064	1361.866455	1216.747803	-146.903763
203.766571	1304.745117	1367.931519	1217.409424	-138.219131
204.143875	1300.334229	1365.064331	1216.306641	-129.812225
204.521164	1296.254272	1365.284912	1212.888184	-120.766792
204.898392	1297.798096	1363.300049	1210.131348	-133.838379
205.275620	1298.459717	1368.703369	1206.602661	-130.769196
205.652817	1293.718018	1368.482910	1206.161499	-117.109131
206.029984	1293.607666	1372.673218	1208.256836	-107.949455
206.407135	1291.953613	1374.988892	1208.587524	-100.398399
206.784225	1292.394775	1374.437378	1206.933472	-104.166985
207.161301	1293.607910	1372.893555	1206.602661	-109.736450
207.538376	1298.570190	1373.555176	1207.264282	-121.765587
207.915405	1302.209229	1370.798462	1206.713013	-139.229156
208.292404	1303.422119	1370.798584	1205.058838	-145.990570
208.669373	1305.406860	1366.718506	1207.374390	-159.892090
209.046310	1302.319336	1363.961670	1209.138916	-151.163025
209.423218	1303.863159	1361.645874	1211.234131	-160.305771
209.800095	1305.737793	1357.124756	1209.690186	-186.910461
210.176956	1308.715210	1353.265137	1208.146484	-225.743866
210.553787	1308.163818	1355.911743	1205.720459	-214.550385
210.930603	1309.597412	1356.242554	1206.602661	-220.804886
211.307358	1315.221313	1353.485718	1209.910767	-275.218048
211.684113	1317.316406	1349.846680	1210.903320	-327.120178
212.060837	1316.985596	1348.413086	1214.101318	-327.370331
212.437531	1316.765015	1350.839233	1217.519775	-291.261963
212.814178	1314.008179	1354.037109	1221.710083	-230.578476
213.190826	1312.574585	1351.280273	1224.356689	-227.919724
213.567413	1313.125977	1352.383057	1228.106079	-216.572144
213.943985	1310.258789	1357.345337	1228.988037	-172.598663
214.320541	1309.266479	1357.124756	1230.090820	-165.437759
214.697052	1307.612305	1361.315186	1231.855103	-141.067291
215.073563	1309.266357	1363.300049	1232.075562	-142.856781
215.449997	1303.863159	1360.874023	1231.303711	-127.273018
215.826431	1301.326904	1362.086914	1230.972778	-115.790184
216.202850	1300.334351	1364.954102	1233.619263	-103.242561
216.579224	1298.459717	1369.695923	1231.193237	-94.427376
216.955582	1300.885742	1374.989014	1231.965332	-93.005898
217.331894	1300.554932	1374.217041	1233.729736	-90.718544
217.708191	1300.003418	1376.863647	1233.729736	-86.226234
218.084442	1300.113770	1383.480103	1233.729736	-79.629311
218.460678	1296.915771	1384.141602	1238.030396	-67.509102
218.836899	1295.041260	1385.685303	1236.045532	-65.085060
219.213074	1292.615234	1387.339478	1235.824951	-59.953274
219.589233	1294.269287	1392.191650	1235.383789	-60.134884
219.965347	1296.805542	1398.697510	1230.311279	-65.259575
220.341431	1295.592529	1399.359131	1227.995483	-65.143356
220.717499	1296.254150	1400.241455	1226.341431	-67.231979
221.093552	1295.041260	1402.336548	1222.481934	-67.625824
221.469543	1299.011108	1407.078247	1221.048340	-72.142899
221.845535	1302.980835	1407.409058	1224.577148	-75.079018
222.221466	1305.296631	1411.709595	1223.474365	-76.891258
222.597397	1305.186279	1417.884766	1222.371704	-73.483307
222.973297	1302.760376	1426.706543	1228.546997	-59.875492
223.349167	1300.554932	1437.403076	1230.862671	-50.926712
223.725006	1297.467285	1446.996826	1231.965454	-43.805279
224.100800	1295.041260	1454.385010	1234.611938	-37.923874
224.476578	1295.372070	1465.081543	1238.030396	-33.788139
224.852325	1297.577515	1475.778076	1240.897461	-31.806889
225.228058	1298.680298	1495.847778	1246.962646	-26.230314
225.603760	1297.577637	1523.195313	1252.807007	-19.843582
225.979416	1295.261963	1552.086792	1259.754150	-13.825693
226.355057	1295.372192	1590.351318	1268.024536	-9.271048
226.730652	1296.805664	1642.069214	1276.184692	-5.972531
227.106232	1296.915894	1691.912231	1288.535400	-2.121664
227.481796	1294.159180	1736.903687	1297.026123	0.647539
227.857315	1292.946167	1778.145630	1307.171265	2.931804
228.232788	1296.033813	1815.638184	1312.133545	3.098459
228.608246	1296.695435	1848.058350	1321.396362	4.479976
228.983704	1297.026245	1883.345459	1333.195557	6.168877
229.359100	1297.577637	1916.206665	1340.914673	7.005335
229.734482	1293.166748	1945.870117	1341.024902	7.332298
230.109833	1290.189453	1973.768921	1345.215332	8.049668
230.485153	1290.189331	1989.979126	1349.846802	8.525056
230.860443	1289.527710	2012.585205	1350.949463	8.494726
231.235703	1293.166748	2031.331421	1352.713867	8.066916
231.610931	1293.607788	2055.481445	1356.904175	8.307990
231.986145	1293.056396	2079.300049	1358.668579	8.345019
232.361313	1290.189209	2098.708252	1362.417847	8.933449
232.736465	1287.983765	2121.313965	1365.284912	9.276173
233.111572	1285.888550	2134.656982	1366.608154	9.510203
233.486664	1288.865845	2141.052734	1371.790894	9.730852
233.861725	1290.409668	2141.604248	1372.673096	9.664468
234.236755	1292.284302	2138.957520	1371.790894	9.390470
234.611771	1296.474731	2120.873047	1375.319702	9.563941
234.986740	1298.900635	2101.023926	1373.114136	9.252131
235.361679	1299.782959	2083.710938	1372.893555	9.326188
235.736588	1298.570068	2073.235107	1375.319580	9.907445
236.111496	1297.908447	2069.375488	1384.141357	11.177783
236.486343	1298.459717	2071.139893	1390.096191	11.859561
236.861160	1301.106323	2071.250000	1395.609741	12.270882
237.235962	1300.334351	2079.961426	1402.777588	13.140031
237.610733	1302.760376	2089.996338	1418.436279	14.693931
237.985474	1301.437134	2106.978271	1433.323120	16.372347
238.360199	1300.665283	2140.501221	1451.407837	17.949047
238.734879	1301.767944	2177.662842	1472.249390	19.463688
239.109543	1300.334473	2227.616455	1498.825073	21.405636
239.484177	1304.635132	2281.650146	1531.355591	23.205421
239.858749	1310.810303	2350.680908	1565.429688	24.485680
240.233322	1311.361694	2434.047119	1607.884644	26.411936
240.607864	1313.126099	2511.899414	1655.301758	28.543818
240.982391	1314.559570	2592.618896	1694.669067	29.741146
241.356857	1316.213745	2651.063232	1727.530151	30.813692
241.731308	1315.000610	2704.435059	1760.060791	32.031750
242.105728	1317.977905	2744.684814	1785.644165	32.779419
242.480118	1312.354126	2785.926758	1807.588379	33.607727
242.854492	1310.479492	2835.880127	1831.186523	34.135754
243.228836	1309.045898	2893.442383	1864.488892	35.057072
243.603134	1312.905518	2957.290283	1902.422485	35.850307
243.977402	1312.023193	3046.721436	1947.303711	36.621960
244.351654	1310.920532	3168.241699	2007.291992	37.493324
244.725861	1310.810303	3315.235107	2080.843994	38.416691
245.100067	1311.912964	3466.970215	2159.137451	39.313320
245.474213	1311.361694	3603.377197	2234.122803	40.259808
245.848343	1316.985474	3710.341553	2300.506836	41.093819
246.222443	1318.198486	3794.700195	2346.490234	41.521946
246.596512	1318.419067	3855.019287	2382.439209	41.946705
246.970566	1321.286133	3892.181641	2407.912109	42.266438
247.344574	1320.845093	3904.862793	2414.197754	42.312122
247.718567	1317.206055	3891.740234	2418.057373	42.759243
248.092529	1318.749756	3859.430420	2408.243164	42.881950
248.466431	1315.441650	3833.075195	2391.922852	42.757660
248.840332	1313.236206	3807.051025	2387.952881	43.095287
249.214203	1311.030640	3809.476563	2390.819824	43.218437
249.588043	1313.787598	3825.797363	2398.979980	43.200165
249.961838	1310.038330	3853.696045	2416.182617	43.486366
250.335617	1313.677124	3886.888428	2431.290039	43.432610
250.709381	1313.456665	3901.664795	2448.492676	43.854126
251.083084	1318.198608	3899.569824	2451.028564	43.884815
251.456787	1314.780029	3882.367188	2444.522461	44.000160
251.830460	1316.434204	3829.656738	2424.452881	44.087566
252.204071	1313.456787	3746.069824	2385.085449	44.052574
252.577667	1310.038452	3638.995117	2329.287842	43.764210
252.951248	1310.369263	3513.615234	2268.858154	43.503487
253.324799	1308.604858	3406.099365	2208.980469	42.926243
253.698303	1305.737671	3326.152100	2160.901611	42.326164
254.071793	1305.296631	3267.817627	2127.599365	41.900330
254.445236	1304.083618	3233.853760	2108.301758	41.674297
254.818665	1300.113770	3219.959473	2094.738037	41.390007
255.192062	1300.003418	3219.077393	2098.818359	41.625019
255.565430	1300.444458	3243.888672	2112.602295	41.789616
255.938782	1301.878052	3283.365967	2131.127930	41.849857
256.312103	1304.745117	3340.266846	2151.859131	41.616554
256.685364	1306.730225	3419.442383	2184.500000	41.547058
257.058594	1304.965820	3518.357178	2226.182861	41.620159
257.431793	1302.098633	3646.714600	2274.261719	41.463638
257.804993	1302.760254	3790.178955	2331.603760	41.361897
258.178162	1299.672729	3928.240234	2395.120605	41.674713
258.551270	1298.128906	4052.517578	2444.963867	41.636642
258.924377	1294.379639	4145.587402	2485.764893	41.785282
259.297485	1293.938599	4222.999023	2515.318115	41.698677
259.670502	1293.056396	4286.625977	2542.224365	41.728374
260.043518	1295.151489	4346.063477	2560.970947	41.489868
260.416473	1298.569946	4394.473145	2579.496582	41.374893
260.789459	1297.026123	4449.830078	2604.197510	41.460598
261.162354	1297.246704	4497.467773	2627.905762	41.580223
261.535278	1298.349365	4541.796875	2645.439453	41.532661
261.908142	1298.790527	4576.092285	2662.200928	41.601612
262.280975	1301.216553	4595.279297	2665.729492	41.423405
262.653717	1302.870605	4609.834961	2669.478760	41.325157
263.026520	1300.113892	4627.809570	2670.140137	41.170418
263.399261	1297.357056	4643.688477	2665.729248	40.891708
263.771973	1296.915894	4654.495605	2662.421387	40.669342
264.144653	1298.239258	4653.502930	2664.186035	40.710564
264.517334	1301.106323	4633.103027	2650.291748	40.491802
264.889954	1302.208862	4586.678223	2626.803467	40.329029
265.262543	1305.627563	4506.179199	2591.957275	40.190872
265.635071	1308.053589	4405.610840	2540.129395	39.775726
266.007599	1311.802856	4310.224609	2487.308838	39.204155
266.380127	1312.133545	4240.201660	2444.082031	38.658543
266.752594	1315.882935	4205.575684	2416.182617	38.076698
267.125031	1315.000732	4197.084473	2405.376221	37.832886
267.497437	1313.236328	4212.963867	2405.486572	37.667339
267.869843	1316.544556	4239.098633	2409.345947	37.391998
268.242218	1313.567261	4277.473633	2417.505859	37.246071
268.614532	1311.913208	4335.697754	2432.723877	37.066483
268.986816	1312.354126	4430.973633	2454.447510	36.621761
269.359100	1311.471924	4539.150879	2484.772217	36.351208
269.731354	1310.038452	4652.510742	2519.287598	36.178288
270.103516	1311.030762	4749.219727	2551.487305	36.078777
270.475708	1311.361572	4830.049805	2580.489258	36.068207
270.847839	1314.890381	4902.499023	2597.912109	35.762589
271.219971	1318.419067	4961.053711	2616.327637	35.631039
271.592041	1320.403809	5006.596191	2629.340088	35.509171
271.964081	1321.065552	5036.369629	2629.781006	35.224987
272.336151	1316.434204	5064.048340	2632.978760	35.130203
272.708130	1316.654785	5090.182129	2630.332031	34.812977
273.080109	1313.015869	5107.385254	2633.750488	34.807751
273.452026	1311.582275	5141.238770	2639.815430	34.682827
273.823914	1310.369263	5176.085449	2645.218994	34.530464
274.195770	1310.369263	5215.893555	2658.120605	34.508846
274.567627	1309.376831	5261.987793	2664.185791	34.276306
274.939423	1310.700073	5304.332031	2674.661621	34.153412
275.311249	1312.243896	5345.464355	2678.631348	33.878323
275.682983	1310.479492	5376.120117	2687.342773	33.865837
276.054688	1309.707520	5401.151855	2692.856689	33.805889
276.426422	1307.943115	5403.577148	2683.703857	33.590912
276.798065	1312.243896	5370.495117	2668.486328	33.419380
277.169708	1313.236206	5325.172852	2649.960449	33.318680
277.541321	1317.757446	5277.536133	2630.442383	33.150459
277.912903	1316.985352	5267.832031	2621.841064	33.027241
278.284424	1316.764893	5279.741211	2618.532959	32.848244
278.655945	1315.882813	5301.685547	2622.502686	32.781849
279.027435	1312.574707	5332.010254	2631.324707	32.809334
279.398865	1310.920532	5391.226563	2650.070801	32.819847
279.770294	1307.502075	5467.424805	2678.410889	32.955151
280.141663	1310.810303	5539.763672	2708.074219	33.040421
280.513031	1313.015869	5615.631348	2733.877930	33.023220
280.884369	1315.993164	5680.912598	2753.065186	32.923222
281.255676	1314.559570	5725.462402	2774.458008	33.097496
281.626953	1313.787720	5763.727051	2794.638184	33.277992
281.998199	1316.654907	5805.189453	2811.509766	33.303848
282.369385	1313.346680	5856.245605	2835.108154	33.497585
282.740540	1313.236328	5915.572754	2856.721436	33.536991
283.111694	1311.802856	5983.280273	2881.532715	33.602428
283.482819	1310.479492	6070.064941	2907.446777	33.552654
283.853912	1314.559570	6165.339844	2944.277832	33.597034
284.224945	1315.441772	6257.858398	2986.402100	33.808571
284.595978	1313.346436	6348.502930	3031.503662	34.123215
284.966980	1311.030762	6425.914551	3072.635254	34.440754
285.337952	1309.817749	6500.238281	3110.789795	34.697998
285.708893	1306.730103	6535.746094	3141.666016	35.091419
286.079803	1305.406860	6558.352051	3163.500000	35.372406
286.450684	1304.745239	6574.893066	3191.509277	35.800968
286.821533	1307.391846	6588.677246	3212.681641	36.076252
287.192322	1306.399414	6596.506836	3234.184814	36.441330
287.563110	1307.391968	6602.571289	3259.437012	36.864571
287.933868	1303.642700	6627.272461	3291.526123	37.340752
288.304596	1299.672852	6668.735352	3336.076660	37.928482
288.675262	1300.885742	6725.304199	3390.551025	38.523304
289.045929	1301.326782	6777.683594	3439.843262	39.049984
289.416565	1300.113770	6826.645020	3485.495850	39.543468
289.787170	1296.805664	6843.957520	3523.870605	40.147900
290.157745	1293.718018	6845.170898	3564.450928	40.903397
290.528259	1293.497437	6840.870605	3598.083984	41.543743
290.898773	1294.820801	6830.614746	3627.196045	42.132626
291.269226	1294.269287	6813.852539	3662.483154	42.905666
291.639679	1290.630371	6797.202148	3697.108887	43.701939
292.010101	1294.820801	6810.876465	3739.894775	44.326492
292.380463	1293.828369	6840.539551	3780.695801	44.834991
292.750824	1298.680298	6882.332031	3827.561768	45.290813
293.121155	1300.775391	6928.756836	3872.222168	45.690392
293.491455	1307.502197	6990.068359	3919.418945	45.963680
293.861725	1310.920532	7072.000977	3989.882813	46.501041
294.231964	1313.125977	7184.479004	4061.229248	46.805283
294.602142	1314.669678	7298.721680	4138.750977	47.193462
294.972321	1314.669800	7398.077148	4210.207520	47.597301
295.342468	1316.213623	7496.991699	4273.173340	47.841221
295.712555	1317.095825	7559.295410	4314.525879	48.018814
296.082672	1318.419067	7583.776855	4342.976074	48.274292
296.452728	1315.882813	7585.761719	4356.760742	48.499786
296.822693	1319.080688	7589.400879	4365.141113	48.579025
297.192657	1321.065552	7589.180664	4372.308594	48.678799
297.562622	1322.388916	7606.824219	4384.217773	48.720825
297.932556	1326.027954	7627.886230	4402.633301	48.820606
298.302460	1328.233398	7634.833496	4416.196289	48.963989
298.672333	1327.792358	7640.347656	4426.341309	49.085491
299.042145	1329.005127	7636.597656	4427.223145	49.118866
299.411957	1330.218140	7623.033691	4426.451660	49.202675
299.781677	1326.027954	7584.768555	4414.100586	49.340160
300.151428	1326.579224	7523.125977	4394.141602	49.504387
300.521149	1326.248291	7458.727051	4365.691406	49.563046
300.890839	1322.829956	7386.829590	4332.058594	49.624485
301.260468	1317.095825	7310.961914	4299.748535	49.761753
301.630096	1318.418945	7223.515625	4254.316406	49.718025
301.999695	1319.080688	7102.436523	4198.959473	49.795982
302.369232	1316.323975	6976.063965	4133.678223	49.778862
302.738739	1314.449219	6859.727051	4067.845703	49.652996
303.108246	1310.699951	6722.106445	4004.218750	49.774841
303.477692	1311.251343	6610.841309	3949.854248	49.788815
303.847137	1311.361816	6522.182129	3904.531982	49.765106
304.216553	1311.361572	6456.680176	3866.929199	49.667824
304.585876	1310.369141	6397.794434	3841.235840	49.747498
304.955231	1309.597046	6350.267090	3812.233887	49.648891
305.324493	1306.619751	6311.010254	3795.692627	49.737778
305.693787	1306.178711	6280.244629	3768.565918	49.504517
306.063049	1306.509521	6274.399414	3751.142822	49.208687
306.432251	1307.391846	6272.414551	3748.496338	49.166031
306.801422	1305.627319	6267.783691	3746.401367	49.187767
307.170593	1304.524658	6268.334961	3739.674561	49.058075
307.539673	1303.642456	6275.171875	3731.625000	48.837738
307.908783	1304.304077	6290.831055	3738.020508	48.805840
308.277832	1302.650146	6307.150879	3745.077637	48.804615
308.646851	1300.444702	6338.357910	3759.633545	48.813644
309.015839	1303.973389	6378.717773	3773.417725	48.661453
309.384796	1298.239258	6410.586914	3785.768311	48.657276
309.753723	1295.151733	6446.205566	3799.331787	48.614910
310.122620	1294.600220	6472.339844	3812.123535	48.622055
310.491486	1296.144165	6484.690430	3822.379150	48.688683
310.860352	1299.342041	6501.231445	3829.877686	48.646469
311.229126	1299.452148	6515.456055	3835.170654	48.614201
311.597931	1298.680298	6523.726074	3841.015137	48.656700
311.966675	1300.224121	6544.016602	3849.285645	48.611031
312.335388	1300.665161	6579.523926	3853.585938	48.361225
312.704071	1298.680298	6617.236816	3871.119141	48.367237
313.072723	1301.326904	6632.564941	3877.845703	48.328712
313.441345	1301.988525	6630.139160	3877.955811	48.346371
313.809875	1302.650146	6611.061523	3872.772949	48.416046
314.178436	1298.459839	6573.018066	3851.600830	48.404835
314.546967	1304.193970	6535.194824	3833.847168	48.358875
314.915466	1304.635132	6494.283691	3808.153320	48.240608
315.283936	1308.604858	6440.911621	3785.547607	48.261787
315.652374	1309.266602	6398.125977	3754.009766	48.041084
316.020752	1307.943237	6345.084961	3722.140625	47.927921
316.389130	1313.236328	6299.542480	3699.093750	47.848194
316.757416	1313.346680	6259.072266	3680.788330	47.868439
317.125732	1312.574585	6233.378418	3662.262695	47.750084
317.494019	1313.126099	6201.399414	3647.817383	47.761063
317.862274	1315.441895	6169.530762	3625.431885	47.588539
318.230469	1314.338989	6137.441406	3611.427002	47.626770
318.598663	1315.441772	6109.211914	3590.365234	47.455830
318.966797	1315.221069	6076.571289	3570.847168	47.373665
319.334930	1314.449341	6049.113281	3547.579346	47.165539
319.703003	1310.148682	6018.347656	3521.886230	46.976295
320.071045	1307.612305	5975.341309	3506.999268	47.118996
320.439056	1306.178711	5939.722656	3495.420410	47.247673
320.807037	1306.399292	5937.627441	3476.895020	46.866524
321.175049	1305.296631	5958.910156	3477.446045	46.676620
321.542969	1301.878052	5990.778809	3486.819092	46.598148
321.910828	1306.178711	6035.219238	3504.683350	46.489445
322.278717	1304.965820	6093.112305	3526.627686	46.399204
322.646515	1308.053345	6142.183594	3549.122803	46.359306
323.014313	1307.501953	6192.908691	3562.465820	46.157135
323.382111	1304.855469	6229.739746	3581.102051	46.219292
323.749817	1304.745117	6278.259766	3598.745605	46.124332
324.117523	1303.752808	6305.828125	3610.765137	46.121101
324.485199	1301.326782	6320.052734	3613.412109	46.069172
324.852814	1304.193970	6319.501465	3608.670410	45.948856
325.220428	1306.399292	6317.957520	3600.840820	45.782993
325.588013	1305.075928	6324.794434	3598.305176	45.684418
325.955536	1308.384155	6334.498535	3592.680908	45.448566
326.323059	1308.825317	6352.804199	3592.791260	45.281033
326.690552	1309.597168	6376.622070	3600.179688	45.205669
327.058014	1311.030640	6396.030273	3610.986328	45.230202
327.425415	1314.338989	6409.152344	3622.013672	45.294590
327.792816	1317.977905	6423.708984	3620.690186	45.100544
328.160187	1320.955322	6430.545410	3613.963135	44.876553
328.527496	1321.837646	6416.541504	3619.918213	45.107243
328.894775	1322.940430	6410.255859	3610.765625	44.971169
329.262054	1325.697144	6391.839844	3599.627930	44.884853
329.629303	1323.712280	6378.275879	3591.247070	44.861137
329.996490	1321.837646	6364.161621	3578.676025	44.757900
330.363647	1317.977905	6370.558105	3577.573242	44.721611
330.730774	1316.985718	6381.474609	3586.174805	44.805885
331.097839	1316.544434	6412.020020	3588.159912	44.581028
331.464935	1316.103394	6438.044434	3601.282471	44.615494
331.831970	1312.353882	6459.437500	3612.089355	44.680359
332.198975	1311.802490	6487.336426	3617.382324	44.547668
332.565948	1311.582153	6516.007324	3630.835449	44.563103
332.932892	1304.965698	6553.610352	3647.045410	44.622562
333.299744	1305.406860	6581.950195	3659.395752	44.612328
333.666656	1301.878174	6619.553711	3677.260498	44.669559
334.033478	1300.444702	6650.540039	3694.242676	44.743088
334.400299	1300.665283	6674.027344	3699.866455	44.649906
334.767090	1298.570068	6710.527344	3712.878662	44.610638
335.133850	1299.562622	6735.669434	3723.133545	44.582840
335.500549	1296.805786	6758.166016	3734.602051	44.637165
335.867218	1291.622803	6781.985352	3748.164795	44.742802
336.233917	1292.725586	6818.154785	3754.781738	44.558640
336.600525	1292.505005	6834.694824	3759.964355	44.521381
336.967102	1293.938599	6855.757324	3761.397705	44.364246
337.333649	1296.915894	6867.004395	3759.522705	44.211273
337.700195	1294.269287	6866.563965	3756.545654	44.187832
338.066681	1296.254150	6856.970215	3751.914795	44.160873
338.433136	1295.813110	6847.266602	3745.188232	44.121326
338.799591	1296.254272	6825.983398	3740.446777	44.200943
339.165985	1296.584961	6811.758789	3728.978516	44.103661
339.532318	1300.775391	6816.390625	3720.046387	43.862213
339.898651	1300.995972	6828.851074	3724.236328	43.836899
340.264954	1300.444580	6846.163574	3724.677002	43.713585
340.631226	1305.627319	6861.712891	3725.448975	43.552639
340.997467	1305.406860	6901.410645	3740.005127	43.506012
341.363678	1306.840454	6942.652344	3750.480957	43.359158
341.729828	1308.274048	6995.914551	3767.903564	43.245163
342.095947	1305.627563	7056.674316	3802.529297	43.416477
342.462067	1306.178833	7114.677734	3824.032471	43.347748
342.828156	1305.076050	7183.377441	3850.056885	43.294498
343.194183	1304.414551	7254.171875	3877.735596	43.250858
343.560211	1309.597290	7313.718750	3898.246338	43.114532
343.926178	1311.582275	7371.282227	3922.395752	43.084862
344.292114	1310.259155	7404.143066	3949.081787	43.302807
344.658020	1307.502197	7440.643066	3967.276855	43.367252
345.023926	1307.943237	7478.025391	3981.170654	43.325642
345.389771	1309.817871	7515.187500	3993.631592	43.249859
345.755585	1307.061157	7535.036621	4001.130615	43.257545
346.121368	1309.376953	7556.099121	4006.203613	43.171867
346.487122	1309.707642	7582.233398	4007.967529	43.017117
346.852844	1309.597412	7608.037109	4018.112793	43.002960
347.218536	1308.163818	7628.216309	4024.729248	42.983273
347.584167	1309.487061	7650.822266	4031.786865	42.929443
347.949768	1309.487061	7669.127930	4044.688721	43.008747
348.315369	1310.259033	7693.718750	4057.039063	43.029644
348.680939	1312.684937	7708.384766	4065.088623	43.035225
349.046448	1312.464478	7717.426270	4068.396484	43.028080
349.411957	1310.810303	7721.727051	4071.484375	43.062077
349.777435	1313.677490	7716.654785	4061.229492	42.910538
350.142792	1315.772705	7705.848145	4057.039551	42.898819
350.508209	1317.757568	7707.170898	4052.187500	42.796261
350.873566	1320.734985	7710.369629	4053.841553	42.774063
351.238892	1324.153320	7723.822754	4062.332520	42.786259
351.604187	1317.647217	7751.722656	4066.191895	42.718567
351.969482	1319.521973	7817.224609	4083.284180	42.534451
352.334717	1317.647339	7876.330566	4112.727051	42.616474
352.699890	1318.308838	7959.255371	4143.603027	42.543549
353.065063	1317.647217	8043.062500	4181.316406	42.579815
353.430237	1317.095825	8157.305176	4218.808594	42.421406
353.795319	1313.456787	8287.425781	4276.260742	42.483757
354.160370	1313.897827	8413.466797	4333.161621	42.527424
354.525421	1315.441650	8548.000977	4395.685547	42.588573
354.890442	1315.993164	8704.146484	4460.525879	42.561821
355.255402	1310.589600	8870.106445	4543.451660	42.765461
355.620331	1311.912964	9055.035156	4624.832520	42.785320
355.985260	1311.913086	9232.242188	4695.958496	42.726070
356.350098	1310.699951	9388.499023	4766.422852	42.780502
356.714935	1313.015869	9533.837891	4834.239746	42.832989
357.079742	1313.456909	9660.432617	4890.258301	42.851463
357.444519	1311.361694	9805.770508	4950.136230	42.837288
357.809296	1311.030762	9967.540039	5025.011230	42.903900
358.173981	1309.266479	10156.877930	5111.244141	42.971798
358.538605	1307.171265	10367.388672	5196.926270	42.932243
358.903259	1303.091187	10606.127930	5293.084473	42.889145
359.267914	1305.958008	10871.113281	5408.540039	42.890907
359.632477	1302.208740	11147.125000	5527.854980	42.922119
359.997009	1303.091064	11412.661133	5640.553223	42.904514
360.361542	1299.893188	11615.783203	5733.292969	42.976418
360.726013	1303.201416	11769.945313	5804.308105	43.003883
361.090485	1304.304321	11863.676758	5858.893555	43.133144
361.454895	1310.259033	11911.866211	5882.822754	43.130852
361.819244	1311.251343	11933.588867	5891.313965	43.117275
362.183594	1308.935791	11933.038086	5884.697266	43.069630
362.547913	1305.958374	11891.907227	5866.833496	43.084232
362.912201	1310.148682	11832.580078	5828.789551	42.942932
363.276489	1311.692383	11753.514648	5784.349121	42.834064
363.640686	1309.045898	11666.289063	5748.400391	42.862316
364.004883	1308.053467	11603.984375	5709.915527	42.753418
364.369049	1307.502075	11540.247070	5675.840820	42.689804
364.733154	1305.627319	11501.651367	5656.322754	42.670506
365.097198	1305.296631	11440.780273	5631.952148	42.688198
365.461273	1304.855469	11349.916992	5585.527344	42.614689
365.825287	1303.863037	11219.022461	5526.200684	42.584671
366.189270	1305.517212	11049.423828	5459.596191	42.632584
366.553223	1306.509644	10853.798828	5379.979492	42.666245
366.917114	1304.083740	10603.810547	5280.844238	42.762123
367.281006	1309.156250	10322.946289	5154.582031	42.661587
367.644867	1308.715088	10066.894531	5046.294434	42.675301
368.008698	1311.251465	9856.163086	4955.208984	42.644764
368.372498	1305.958374	9704.648438	4884.083496	42.603367
368.736237	1305.075928	9600.442383	4827.292969	42.460056
369.099976	1302.429565	9538.358398	4795.204102	42.408993
369.463654	1301.988525	9494.360352	4781.199219	42.468906
369.827332	1302.208862	9463.153320	4759.806641	42.367619
370.190948	1304.193848	9440.435547	4753.080078	42.389179
370.554535	1302.650146	9416.837891	4744.919434	42.422848
370.918091	1301.106445	9393.791016	4739.957520	42.493328
371.281647	1303.091309	9380.999023	4734.333496	42.476868
371.645111	1305.848267	9366.443359	4728.378418	42.460018
372.008575	1305.186523	9363.686523	4726.834961	42.460117
372.371979	1305.406982	9347.367188	4719.446289	42.452827
372.735382	1308.604858	9362.143555	4727.496094	42.452038
373.098724	1308.384155	9392.909180	4746.022461	42.521214
373.462067	1307.501953	9422.242188	4770.723633	42.678158
373.825348	1305.847900	9491.492188	4802.041016	42.711273
374.188599	1304.855347	9567.139648	4828.285156	42.644741
374.551819	1305.517090	9684.690430	4875.922852	42.610474
374.915009	1303.091187	9826.390625	4938.447754	42.651985
375.278168	1303.532227	9977.463867	4991.268066	42.515160
375.641266	1299.672729	10109.459961	5045.853027	42.522938
376.004395	1302.319214	10216.204102	5081.912109	42.401184
376.367462	1305.296631	10289.535156	5115.545410	42.410370
376.730469	1302.980957	10335.959961	5131.203613	42.380512
377.093475	1300.995972	10366.173828	5142.562500	42.377178
377.456421	1299.672852	10399.367188	5160.978027	42.433350
377.819336	1303.201538	10434.763672	5174.321289	42.392742
378.182281	1304.304199	10477.661133	5184.686035	42.300564
378.545135	1306.619873	10523.974609	5196.815918	42.205124
378.907928	1304.965820	10570.621094	5216.003906	42.210052
379.270752	1303.752808	10610.319336	5233.316406	42.223557
379.633484	1304.304077	10644.283203	5246.659668	42.209465
379.996246	1308.604858	10675.931641	5260.222656	42.185116
380.358948	1305.737671	10694.016602	5277.205078	42.302399
380.721558	1306.509521	10717.394531	5279.299316	42.214840
381.084198	1307.281494	10758.856445	5285.475098	42.090271
381.446747	1309.156006	10778.814453	5286.357422	41.999420
381.809326	1310.589722	10797.670898	5290.878418	41.954830
382.171875	1312.574707	10791.716797	5283.821289	41.894577
382.534363	1312.354126	10755.877930	5277.425781	41.987209
382.896790	1311.361572	10704.710938	5261.436035	42.051819
383.259247	1315.441772	10669.204102	5246.880371	42.030556
383.621613	1316.544556	10660.161133	5255.922852	42.161175
383.983948	1316.765015	10687.950195	5271.912109	42.205406
384.346283	1317.647217	10738.124023	5292.974121	42.198788
384.708588	1315.772705	10823.144531	5322.307129	42.141346
385.070831	1320.073242	10899.012695	5358.476074	42.159184
385.433075	1315.662354	10992.963867	5398.725586	42.192165
385.795258	1316.765015	11075.448242	5445.040039	42.303604
386.157440	1312.133667	11151.536133	5484.847656	42.408203
386.519531	1312.795288	11244.496094	5518.480957	42.346073
386.881622	1310.810303	11316.504883	5549.467773	42.362450
387.243683	1310.700073	11391.710938	5583.210938	42.381771
387.605713	1307.391724	11473.091797	5608.684570	42.311821
387.967682	1309.817749	11555.907227	5638.898926	42.251057
388.329651	1307.832886	11652.283203	5677.053223	42.237335
388.691559	1308.053345	11748.441406	5720.941406	42.267475
389.053467	1303.752686	11868.749023	5773.872559	42.310665
389.415314	1301.326782	11987.513672	5827.244629	42.352974
389.777130	1303.752808	12107.820313	5877.197754	42.330769
390.138885	1299.782959	12230.442383	5910.721191	42.183537
390.500641	1300.665039	12323.181641	5956.705078	42.241169
390.862366	1296.584961	12410.408203	5995.631348	42.281097
391.224060	1296.364502	12484.620117	6017.906738	42.200874
391.585693	1297.246704	12571.514648	6043.489746	42.098019
391.947296	1298.569946	12659.623047	6082.526367	42.108391
392.308868	1304.524658	12724.023438	6107.778320	42.061863
392.670441	1304.304077	12789.525391	6130.714844	42.022789
393.031952	1307.171265	12819.077148	6143.506836	42.011597
393.393433	1306.399414	12846.205078	6149.350586	41.967354
393.754883	1308.494507	12861.644531	6147.145020	41.881653
394.116302	1307.502075	12850.395508	6147.916992	41.934158
394.477692	1311.141113	12853.373047	6154.422852	41.961395
394.839020	1310.589722	12852.491211	6145.932129	41.893810
395.200348	1310.589722	12851.718750	6146.042480	41.897572
395.561646	1308.825317	12834.958008	6130.825195	41.835369
395.922882	1312.574585	12799.230469	6114.614746	41.805378
396.284088	1313.787476	12739.682617	6088.149414	41.785450
396.645264	1316.103271	12662.161133	6057.052246	41.784992
397.006409	1316.985474	12567.545898	6020.663086	41.808384
397.367523	1312.905396	12464.992188	5977.877441	41.830486
397.728577	1317.426514	12368.834961	5945.787598	41.880287
398.089600	1319.080688	12297.267578	5906.420410	41.785954
398.450592	1319.631958	12241.248047	5878.080566	41.737858
398.811584	1319.631958	12182.804688	5856.356445	41.762428
399.172546	1317.536865	12098.225586	5832.316895	41.878403
399.533447	1316.323853	12017.835938	5796.258789	41.862637
399.894318	1310.479492	11962.148438	5773.211426	41.897022
400.255127	1308.935791	11911.533203	5747.297363	41.861076
400.615936	1307.502197	11882.752930	5735.056641	41.867134
400.976685	1307.171387	11886.833008	5738.364746	41.884071
401.337433	1305.517212	11916.826172	5757.772461	41.957645
401.698151	1304.745483	11971.852539	5785.671875	42.006947
402.058807	1301.657715	12056.542969	5815.445313	41.969650
402.419434	1299.672729	12151.487305	5874.772461	42.159767
402.780060	1297.467285	12260.105469	5931.121582	42.267693
403.140594	1296.364624	12359.020508	5973.907715	42.282276
403.501129	1292.394775	12453.856445	6016.362305	42.323917
403.861633	1291.181763	12540.641602	6053.083496	42.330048
404.222076	1289.196777	12626.102539	6076.571289	42.228226
404.582550	1287.983765	12698.000000	6105.131836	42.218590
404.942932	1289.307007	12768.574219	6136.890137	42.229027
405.303284	1293.607666	12843.891602	6163.355469	42.161282
405.663605	1292.174316	12899.579102	6181.109375	42.119106
406.023895	1293.056396	12936.077148	6206.141602	42.197685
406.384125	1290.409912	12989.669922	6235.143066	42.265354
406.744354	1290.850952	13056.826172	6257.749023	42.214077
407.104553	1291.291992	13123.429688	6286.860840	42.220341
407.464691	1296.364624	13183.198242	6316.964844	42.236649
407.824829	1296.916016	13253.110352	6355.119141	42.306129
408.184906	1296.805664	13333.279297	6380.372070	42.234684
408.544922	1298.129028	13397.016602	6398.677734	42.157173
408.904938	1299.562500	13444.985352	6416.320801	42.129108
409.264923	1300.224121	13466.709961	6418.857910	42.071587
409.624847	1298.239258	13452.485352	6420.400879	42.142982
409.984802	1301.437256	13428.113281	6397.133301	42.020554
410.344666	1303.091187	13393.708008	6370.116699	41.908741
410.704529	1305.076050	13355.223633	6354.789551	41.905823
411.064331	1307.612305	13323.023438	6345.084961	41.925095
411.424133	1306.399414	13317.508789	6338.357910	41.894203
411.783875	1306.509644	13312.107422	6350.268066	42.011723
412.143555	1310.369263	13321.479492	6357.104004	42.017223
412.503235	1308.274048	13338.792969	6366.367676	42.043854
412.862885	1304.635010	13348.716797	6379.489746	42.135670
413.222473	1305.406860	13404.625000	6412.020020	42.206142
413.582062	1303.642578	13483.800781	6433.854004	42.119415
413.941559	1302.870605	13553.383789	6462.414551	42.116959
414.301086	1304.855591	13638.513672	6490.313965	42.043152
414.660522	1306.399414	13709.198242	6517.110352	42.012379
415.019958	1303.863037	13795.209961	6558.352051	42.065033
415.379364	1302.429688	13906.364258	6594.742676	41.989372
415.738708	1300.555054	14027.223633	6652.744629	42.054913
416.098053	1300.996216	14169.366211	6725.855469	42.156540
416.457336	1300.996094	14353.409180	6796.430176	42.102821
416.816559	1302.870728	14553.443359	6881.892090	42.104004
417.175812	1306.840454	14794.830078	6986.871094	42.111767
417.535004	1302.319336	15084.958008	7107.399414	42.118786
417.894135	1306.289063	15413.351563	7257.039551	42.182774
418.253265	1303.091187	15806.914063	7414.177246	42.134312
418.612335	1300.775513	16211.945313	7584.548340	42.141380
418.971405	1302.870728	16630.541016	7771.571289	42.202766
419.330414	1304.304077	17066.005859	7948.448730	42.153725
419.689423	1303.642334	17500.701172	8130.839355	42.150845
420.048370	1306.178711	17901.873047	8308.929688	42.196190
420.407257	1306.619751	18312.748047	8480.513672	42.184170
420.766144	1307.281372	18696.716797	8639.636719	42.165573
421.125000	1310.479370	19089.509766	8799.310547	42.121704
421.483795	1311.692383	19479.652344	8953.031250	42.059418
421.842560	1309.817749	19892.181641	9143.803711	42.158176
422.201324	1305.627563	20295.669922	9320.019531	42.203129
422.560028	1306.730225	20666.406250	9472.305664	42.178265
422.918671	1310.259033	21005.935547	9620.071289	42.191051
423.277283	1307.281494	21295.291016	9741.481445	42.196297
423.635925	1306.950806	21519.697266	9834.000000	42.186493
423.994476	1306.178833	21684.664063	9908.875977	42.214607
424.353027	1301.437134	21815.447266	9966.768555	42.241039
424.711487	1299.562500	21918.664063	9999.629883	42.194210
425.069946	1303.422119	21966.853516	10005.915039	42.115429
425.428375	1300.003662	21932.335938	9989.705078	42.116913
425.786743	1302.980957	21839.044922	9941.515625	42.065193
426.145081	1302.650146	21688.634766	9874.580078	42.048153
426.503418	1303.201538	21511.423828	9789.229492	41.992947
426.861725	1303.642578	21295.402344	9704.208984	42.020145
427.219971	1305.958252	21063.716797	9602.095703	41.989265
427.578186	1305.737671	20870.742188	9514.098633	41.954304
427.936371	1306.509521	20683.941406	9433.048828	41.938164
428.294495	1304.524658	20465.931641	9338.433594	41.927555
428.652618	1305.406982	20213.738281	9244.482422	41.987179
429.010712	1308.604858	19949.083984	9154.499023	42.090626
429.368744	1307.502197	19655.095703	9026.914063	42.073158
429.726746	1309.266479	19377.318359	8912.892578	42.083263
430.084717	1308.163818	19099.431641	8796.003906	42.087162
430.442688	1307.060913	18835.882813	8683.525391	42.081917
430.800568	1309.376709	18608.390625	8594.314453	42.111866
431.158417	1306.840454	18434.820313	8521.645508	42.122917
431.516235	1306.068604	18281.431641	8453.606445	42.105362
431.874023	1311.692505	18144.582031	8403.763672	42.132229
432.231812	1313.567261	18015.671875	8355.023438	42.159092
432.589508	1312.574707	17917.308594	8330.541992	42.264858
432.947205	1313.015869	17823.136719	8287.646484	42.244576
433.304840	1313.015747	17743.410156	8264.489258	42.308624
433.662476	1316.213623	17696.322266	8242.326172	42.283680
434.020050	1314.890381	17657.066406	8226.335938	42.292076
434.377594	1312.795166	17623.541016	8204.282227	42.251209
434.735138	1308.825195	17599.613281	8205.494141	42.334778
435.092621	1308.935669	17586.931641	8197.445313	42.317921
435.450043	1307.612305	17582.742188	8194.797852	42.317238
435.807465	1309.707520	17606.451172	8210.567383	42.345020
436.164856	1308.053345	17642.402344	8231.518555	42.385929
436.522156	1303.973267	17711.433594	8246.294922	42.311981
436.879486	1305.737671	17791.822266	8272.319336	42.257347
437.236755	1306.840454	17887.759766	8302.533203	42.191223
437.593994	1306.730225	17994.613281	8348.847656	42.198986
437.951172	1304.635010	18134.107422	8394.831055	42.129639
438.308380	1308.053467	18255.406250	8444.894531	42.111832
438.665497	1306.840454	18378.800781	8491.760742	42.086086
439.022583	1309.266602	18541.562500	8557.373047	42.061176
439.379608	1306.399414	18692.748047	8609.973633	42.007523
439.736633	1303.973389	18803.460938	8662.462891	42.049740
440.093628	1303.311646	18901.603516	8704.807617	42.058041
440.450562	1302.098633	18996.988281	8744.064453	42.057144
440.807495	1300.003540	19074.402344	8782.659180	42.097942
441.164368	1297.687866	19164.937500	8816.292969	42.080372
441.521210	1294.820679	19226.908203	8837.576172	42.062897
441.878021	1295.813232	19294.947266	8872.312500	42.093685
442.234833	1294.820801	19409.521484	8910.245117	42.040020
442.591522	1293.056274	19506.119141	8939.467773	41.983120
442.948242	1294.379517	19605.806641	8978.835938	41.965359
443.304901	1289.748169	19723.906250	9017.321289	41.919861
443.661530	1290.961060	19876.414063	9068.266602	41.846199
444.018127	1295.372070	20038.294922	9131.673828	41.809391
444.374664	1293.717773	20193.007813	9199.710938	41.832226
444.731201	1294.710327	20324.121094	9254.186523	41.827236
445.087738	1294.159058	20459.091797	9307.449219	41.812252
445.444183	1294.048950	20529.777344	9362.805664	41.946716
445.800598	1288.535278	20607.960938	9389.380859	41.931091
446.156982	1294.710449	20632.111328	9402.723633	41.929180
446.513336	1294.379639	20623.511719	9408.236328	41.977345
446.869598	1296.143921	20639.279297	9409.560547	41.944683
447.225891	1296.254272	20655.710938	9403.164063	41.875710
447.582153	1298.569946	20644.904297	9403.605469	41.894428
447.938354	1298.900757	20658.910156	9417.610352	41.935463
448.294495	1300.113892	20673.464844	9417.059570	41.897480
448.650665	1300.775269	20647.441406	9417.169922	41.952419
449.006775	1304.304199	20650.308594	9417.499023	41.937317
449.362823	1304.634888	20653.947266	9426.982422	41.977448
449.718842	1306.068604	20646.886719	9424.777344	41.977070
450.074860	1303.201416	20633.435547	9420.916992	41.994915
450.430817	1299.121338	20615.460938	9407.243164	41.975456
450.786713	1303.091187	20522.720703	9372.287109	41.984138
451.142578	1302.429443	20414.103516	9327.846680	41.992226
451.498444	1299.672852	20259.611328	9261.683594	41.993866
451.854248	1298.790649	20091.447266	9176.664063	41.919956
452.210022	1296.364624	19887.664063	9097.046875	41.958778
452.565765	1297.687866	19641.093750	8991.626953	41.943893
452.921478	1298.790527	19413.382813	8879.257813	41.847298
453.277191	1300.665039	19194.601563	8787.622070	41.840748
453.632813	1293.717896	19016.619141	8711.644531	41.855038
453.988434	1291.953491	18836.214844	8626.293945	41.804783
454.343964	1291.512451	18654.484375	8555.720703	41.837353
454.699524	1291.512451	18502.417969	8487.020508	41.807838
455.054993	1289.858398	18362.921875	8424.495117	41.788853
455.410400	1292.946045	18256.728516	8372.778320	41.734982
455.765839	1292.505005	18209.533203	8349.951172	41.718006
456.121216	1291.843384	18214.494141	8343.554688	41.670254
456.476593	1290.850952	18258.162109	8363.404297	41.683407
456.831909	1292.505005	18381.447266	8406.190430	41.627422
457.187195	1290.299438	18541.011719	8459.232422	41.557316
457.542450	1292.725586	18748.433594	8551.419922	41.583504
457.897644	1294.049072	18936.558594	8645.371094	41.668236
458.252808	1294.710571	19188.201172	8751.455078	41.672947
458.607971	1291.733398	19381.619141	8833.827148	41.692322
458.963013	1290.079224	19505.677734	8887.861328	41.710308
459.318085	1288.755859	19596.982422	8937.373047	41.776943
459.673096	1285.116821	19666.013672	8965.382813	41.783958
460.028076	1286.440063	19745.630859	8996.479492	41.768024
460.383057	1284.786133	19806.941406	9023.385742	41.780231
460.737976	1287.983887	19834.839844	9029.560547	41.740643
461.092865	1292.725586	19855.791016	9021.400391	41.634689
461.447723	1296.916016	19856.453125	9027.024414	41.650330
461.802551	1298.239258	19856.453125	9023.826172	41.628933
462.157288	1297.467407	19858.546875	9022.172852	41.617760
462.512054	1300.224121	19875.419922	9020.409180	41.561798
462.866760	1298.349487	19855.460938	9011.585938	41.564854
463.221405	1300.224121	19807.162109	8984.790039	41.522625
463.576019	1303.091187	19712.216797	8945.973633	41.516815
463.930603	1302.539917	19614.736328	8906.386719	41.523399
464.285156	1299.121338	19475.904297	8833.164063	41.448715
464.639709	1298.128906	19264.953125	8751.452148	41.483810
464.994171	1297.908203	19023.126953	8640.849609	41.426521
465.348633	1296.584961	18747.886719	8522.857422	41.408218
465.703033	1295.923462	18464.816406	8400.896484	41.382828
466.057434	1298.790649	18214.716797	8291.617188	41.338718
466.411774	1299.562622	18037.949219	8208.802734	41.277813
466.766083	1301.106445	17885.222656	8148.704102	41.290096
467.120331	1305.737793	17779.470703	8095.332031	41.214668
467.474548	1301.106445	17689.046875	8054.751465	41.211063
467.828735	1303.752930	17619.908203	8020.567871	41.166653
468.182922	1304.083740	17569.181641	7999.285156	41.162994
468.537048	1303.752808	17523.308594	7983.845215	41.185421
468.891144	1301.878296	17492.320313	7962.342285	41.138245
469.245178	1301.878174	17462.218750	7957.490234	41.184853
469.599213	1302.539917	17443.248047	7948.999023	41.178238
469.953186	1298.680298	17429.464844	7943.816895	41.195374
470.307129	1296.805664	17448.871094	7945.029785	41.160210
470.661041	1296.364624	17470.375000	7957.601074	41.184814
471.014923	1294.159180	17540.398438	7977.008789	41.134747
471.368713	1291.402344	17554.513672	7974.472656	41.093430
471.722504	1291.733154	17527.056641	7970.502930	41.137276
472.076294	1294.159180	17506.875000	7967.635254	41.161987
472.429993	1294.820679	17450.636719	7951.977051	41.205940
472.783722	1298.680298	17445.673828	7943.596191	41.152653
473.137329	1298.900757	17468.169922	7947.125000	41.116417
473.490967	1297.136353	17501.912109	7962.342285	41.131123
473.844543	1299.893188	17586.824219	7990.130859	41.077339
474.198090	1304.304077	17671.072266	8014.391602	40.998241
474.551605	1302.319214	17800.201172	8063.352539	40.981216
474.905060	1308.384155	17940.027344	8128.413574	41.006348
475.258484	1308.935547	18086.910156	8193.473633	41.033188
475.611877	1306.178711	18251.660156	8263.828125	41.059029
475.965240	1308.273926	18447.281250	8350.612305	41.089535
476.318573	1309.266235	18634.302734	8443.352539	41.177898
476.671844	1309.597168	18851.650391	8518.006836	41.092167
477.025116	1311.912964	19080.025391	8613.392578	41.093163
477.378326	1311.582275	19312.589844	8717.710938	41.142857
477.731506	1315.882690	19547.250000	8820.042969	41.160709
478.084656	1316.323975	19827.232422	8928.331055	41.121735
478.437744	1317.867554	20118.792969	9050.843750	41.130825
478.790833	1320.844971	20460.417969	9199.270508	41.163017
479.143890	1321.506836	20876.585938	9355.857422	41.085751
479.496826	1319.191040	21361.125000	9541.335938	41.024708
479.849823	1318.308838	22011.734375	9788.015625	40.929459
480.202728	1315.441650	22825.765625	10098.541992	40.832024
480.555603	1315.110840	23823.623047	10508.646484	40.844704
480.908478	1315.441772	25161.562500	11064.199219	40.881943
481.261292	1316.985596	26807.597656	11795.748047	41.108322
481.614075	1312.574707	28644.851563	12654.330078	41.495831
481.966797	1312.464355	30482.433594	13554.707031	41.968651
482.319489	1309.045898	32214.595703	14363.997070	42.241444
482.672150	1305.296631	33764.917969	15054.855469	42.358963
483.024780	1306.730103	35107.265625	15608.312500	42.311703
483.377350	1302.870605	36224.988281	16052.932617	42.237022
483.729919	1298.018677	37244.351563	16454.214844	42.163403
484.082428	1299.011108	38192.691406	16844.468750	42.135830
484.434937	1295.702881	39178.636719	17243.986328	42.098862
484.787384	1295.151489	40234.167969	17680.224609	42.078804
485.139771	1292.725586	41388.390625	18174.246094	42.103104
485.492157	1292.835815	42569.632813	18666.062500	42.089569
485.844482	1293.387207	43648.093750	19116.636719	42.080917
486.196777	1294.710449	44636.695313	19514.609375	42.037529
486.549072	1296.033813	45404.960938	19849.509766	42.062862
486.901276	1296.695313	45975.839844	20092.771484	42.069016
487.253448	1298.239258	46288.355469	20233.478516	42.087551
487.605591	1302.208984	46303.132813	20258.509766	42.124249
487.957703	1299.672607	46083.031250	20165.771484	42.127476
488.309784	1299.562378	45554.933594	19941.365234	42.123257
488.661835	1296.033691	44797.800781	19561.478516	41.987823
489.013855	1298.349365	44004.054688	19130.861328	41.756741
489.365814	1299.231567	43266.445313	18683.927734	41.424469
489.717743	1303.532349	42634.578125	18326.091797	41.185886
490.069611	1305.186401	42050.355469	18045.335938	41.084995
490.421509	1304.965820	41502.742188	17819.388672	41.082924
490.773315	1302.981079	41014.894531	17620.013672	41.088505
491.125092	1306.619995	40491.542969	17414.246094	41.106693
491.476807	1304.524780	39882.945313	17165.361328	41.113235
491.828522	1307.612305	39140.375000	16862.884766	41.115879
492.180176	1309.707520	38236.800781	16476.490234	41.072235
492.531830	1309.156128	37205.195313	16020.841797	40.984146
492.883423	1306.178711	36045.132813	15548.766602	40.998898
493.234985	1304.745239	34956.851563	15099.403320	40.991962
493.586487	1304.965698	33935.281250	14681.800781	40.995113
493.937988	1305.296509	33071.078125	14312.498047	40.947208
494.289429	1307.391846	32372.283203	14016.306641	40.910862
494.640869	1306.950562	31790.261719	13774.258789	40.898800
494.992218	1303.752808	31337.705078	13583.377930	40.885811
495.343567	1308.053345	30892.642578	13397.457031	40.863853
495.694855	1309.266479	30385.390625	13173.824219	40.805153
496.046112	1310.589722	29761.578125	12931.666992	40.845951
496.397339	1310.479492	28948.871094	12590.593750	40.813210
496.748535	1314.008179	28032.728516	12207.176758	40.769798
497.099670	1311.030884	27087.691406	11806.996094	40.718872
497.450806	1309.817871	26246.529297	11438.795898	40.618744
497.801880	1306.840576	25569.789063	11145.470703	40.550014
498.152924	1311.582275	24976.521484	10899.012695	40.513226
498.503937	1313.897827	24514.037109	10700.522461	40.459351
498.854889	1314.449219	24176.052734	10544.154297	40.372082
499.205841	1312.243774	23892.431641	10427.706055	40.369293
499.556702	1311.140991	23686.552734	10345.883789	40.377998
499.907562	1307.943115	23485.634766	10262.628906	40.376995
500.258362	1310.148560	23315.595703	10191.283203	40.358803
500.609161	1309.707520	23158.457031	10120.045898	40.324219
500.959900	1308.494507	22990.400391	10049.692383	40.315636
501.310608	1307.171265	22819.037109	9972.282227	40.280613
501.661255	1307.171265	22611.285156	9899.170898	40.330238
502.011902	1309.266602	22391.291016	9811.394531	40.328804
502.362488	1311.913086	22170.857422	9727.366211	40.344578
502.713043	1309.487061	21960.457031	9647.859375	40.377628
503.063568	1309.817871	21776.964844	9578.828125	40.401382
503.414063	1310.369263	21571.416016	9488.735352	40.364975
503.764496	1309.487061	21409.425781	9416.947266	40.335743
504.114899	1307.722656	21250.632813	9360.157227	40.377430
504.465271	1306.950684	21128.449219	9302.484375	40.337685
504.815613	1310.699951	21029.423828	9260.029297	40.313606
505.165894	1314.559570	20931.613281	9229.043945	40.344917
505.516174	1314.890381	20892.464844	9208.422852	40.319256
505.866394	1313.125977	20881.437500	9200.482422	40.306778
506.216583	1311.802856	20873.714844	9207.981445	40.365067
506.566711	1311.802734	20907.458984	9224.854492	40.381664
506.916840	1310.810303	20949.033203	9234.227539	40.346916
507.266907	1311.251343	21002.847656	9258.598633	40.359081
507.616882	1312.464355	21083.457031	9277.786133	40.287922
507.966858	1310.589966	21133.298828	9294.326172	40.275707
508.316803	1311.251587	21188.214844	9316.491211	40.273960
508.666748	1311.030884	21251.291016	9334.024414	40.235149
509.016632	1309.707642	21313.376953	9348.911133	40.188644
509.366486	1309.046021	21402.917969	9374.053711	40.136654
509.716309	1306.840454	21490.474609	9400.408203	40.099655
510.066040	1308.715088	21588.066406	9435.254883	40.072979
510.415771	1308.935669	21689.849609	9472.416016	40.054535
510.765503	1303.863037	21797.253906	9519.611328	40.089745
511.115173	1302.870483	21897.271484	9572.101563	40.152813
511.464752	1302.650024	21996.625000	9607.499023	40.131721
511.814270	1304.965820	22078.666016	9643.888672	40.141731
512.163818	1302.980835	22163.134766	9679.947266	40.157742
512.513306	1300.444580	22225.990234	9701.671875	40.148190
512.862793	1297.797974	22280.796875	9731.223633	40.191711
513.212219	1294.931030	22320.494141	9748.426758	40.205803
513.561646	1295.482178	22372.982422	9771.033203	40.211365
513.911011	1294.710449	22402.203125	9777.429688	40.188187
514.260315	1298.128906	22437.380859	9802.572266	40.230579
514.609558	1299.893188	22506.414063	9822.972656	40.190842
514.958801	1300.665283	22600.585938	9867.632813	40.220657
515.308044	1304.193970	22745.705078	9924.973633	40.206024
515.657227	1303.311890	22949.488281	9995.548828	40.155994
516.006348	1307.171387	23197.712891	10102.733398	40.179741
516.355408	1308.935669	23468.322266	10206.941406	40.154568
516.704529	1306.950684	23702.210938	10309.052734	40.196461
517.053467	1310.810181	23927.384766	10390.433594	40.145882
517.402466	1309.817627	24100.404297	10457.259766	40.136932
517.751404	1310.589600	24227.660156	10524.526367	40.205559
518.100281	1315.882813	24354.253906	10561.798828	40.132683
518.449219	1316.764893	24445.224609	10590.689453	40.097462
518.798035	1314.228638	24541.933594	10622.448242	40.073780
519.146851	1311.471924	24637.761719	10652.663086	40.045769
519.495544	1311.582275	24703.267578	10674.055664	40.024792
519.844299	1311.582031	24792.478516	10707.138672	40.013618
520.192932	1310.589600	24892.824219	10744.411133	40.003933
520.541626	1311.912964	24987.878906	10780.798828	39.993660
520.890198	1313.236084	25089.660156	10819.064453	39.980057
521.238770	1315.993042	25211.404297	10860.085938	39.941109
521.587280	1313.897827	25350.234375	10896.366211	39.866596
521.935791	1315.000488	25468.556641	10954.699219	39.910061
522.284180	1312.905273	25587.652344	10998.257813	39.898884
522.632629	1310.810181	25735.308594	11057.915039	39.907082
522.981018	1313.346436	25881.085938	11122.094727	39.925316
523.329346	1309.376709	26049.583984	11189.691406	39.936264
523.677551	1312.795288	26239.253906	11263.244141	39.919224
524.025818	1310.810303	26502.146484	11360.725586	39.894333
524.374023	1305.848267	26813.333984	11487.758789	39.917339
524.722229	1304.304443	27208.441406	11642.361328	39.908901
525.070374	1302.760376	27733.115234	11828.169922	39.823185
525.418457	1301.878174	28432.574219	12118.958008	39.870266
525.766541	1303.532227	29419.845703	12516.380859	39.880226
526.114563	1305.406860	30673.535156	13045.689453	39.976269
526.462585	1304.414429	32059.880859	13654.504883	40.155758
526.810547	1302.319214	33429.792969	14253.724609	40.312553
527.158447	1303.311523	34649.191406	14767.042969	40.375999
527.506348	1306.509521	35670.535156	15171.412109	40.347141
527.854065	1305.406860	36507.835938	15507.301758	40.343506
528.201904	1305.296631	37179.289063	15771.073242	40.323853
528.549622	1304.965820	37700.105469	15981.914063	40.326672
528.897339	1304.965820	38087.820313	16144.457031	40.343498
529.245056	1305.848022	38392.945313	16242.709961	40.275089
529.592712	1304.965942	38621.097656	16327.400391	40.257210
529.940369	1302.209106	38808.785156	16399.849609	40.253319
530.287903	1298.239258	39002.093750	16470.865234	40.241577
530.635437	1300.003662	39242.042969	16568.347656	40.241230
530.982910	1296.254272	39534.929688	16676.634766	40.222054
531.330383	1298.349487	39778.742188	16776.652344	40.223866
531.677795	1296.364624	39893.535156	16827.708984	40.239594
532.025208	1296.805664	39896.734375	16819.660156	40.214722
532.372498	1296.144043	39700.453125	16739.931641	40.213684
532.719788	1294.379639	39259.023438	16559.966797	40.210011
533.067078	1295.261841	38522.738281	16256.276367	40.188099
533.414307	1297.577637	37499.183594	15812.648438	40.095100
533.761536	1299.782959	36364.812500	15305.948242	39.943398
534.108643	1298.790649	35301.566406	14829.019531	39.791538
534.455811	1298.349487	34402.292969	14437.770508	39.691406
534.802856	1298.459717	33658.390625	14138.599609	39.679131
535.149902	1300.996094	33076.042969	13895.998047	39.638027
535.496887	1300.665161	32572.203125	13695.854492	39.637287
535.843811	1298.790527	32153.277344	13526.587891	39.630531
536.190796	1300.113892	31807.683594	13373.529297	39.575146
536.537659	1300.885742	31473.228516	13254.323242	39.617199
536.884460	1301.216553	31187.402344	13135.449219	39.597668
537.231323	1303.973267	30885.589844	13005.108398	39.555428
537.578064	1306.950806	30573.738281	12881.934570	39.549896
537.924805	1308.274048	30209.177734	12731.632813	39.525955
538.271423	1307.502197	29892.691406	12600.408203	39.506145
538.618164	1308.935547	29722.433594	12516.710938	39.445251
538.964783	1312.795288	29751.984375	12530.935547	39.446064
539.311279	1312.354126	29938.345703	12621.470703	39.506462
539.657776	1313.787720	30217.447266	12749.385742	39.564529
540.004333	1312.023193	30474.714844	12858.114258	39.591991
540.350769	1311.030762	30722.937500	12953.832031	39.585331
540.697144	1310.920410	30910.619141	13031.462891	39.596832
541.043518	1307.501953	31016.039063	13072.261719	39.600601
541.389893	1307.832764	30991.449219	13062.337891	39.599300
541.736145	1312.243652	30870.919922	13012.494141	39.583134
542.082458	1311.030762	30728.115234	12960.666992	39.601604
542.428711	1313.677490	30558.958984	12891.857422	39.589909
542.774902	1311.030884	30414.613281	12820.952148	39.548126
543.121033	1314.559570	30309.851563	12775.629883	39.527348
543.467102	1315.772705	30228.580078	12745.195313	39.530659
543.813171	1314.449341	30173.115234	12721.815430	39.528389
544.159180	1314.118530	30124.265625	12704.946289	39.537556
544.505127	1316.103394	30064.390625	12690.830078	39.566624
544.851135	1315.882813	29946.505859	12641.317383	39.557068
545.197021	1314.228760	29733.347656	12550.562500	39.537937
545.542908	1312.574585	29327.765625	12395.411133	39.560097
545.888733	1313.125977	28734.279297	12163.287109	39.568581
546.234558	1312.574585	27955.421875	11843.276367	39.525436
546.580322	1314.449219	27086.472656	11475.075195	39.425022
546.926025	1314.449219	26190.398438	11099.376953	39.334892
547.271667	1315.331421	25366.664063	10769.001953	39.306225
547.617371	1312.464233	24569.062500	10458.142578	39.325092
547.962952	1309.376709	23836.634766	10177.278320	39.365204
548.308533	1316.875244	23176.984375	9911.961914	39.318592
548.654053	1318.749878	22597.058594	9689.541992	39.339554
548.999573	1316.985596	22105.242188	9494.690430	39.338100
549.344971	1317.426514	21676.394531	9315.387695	39.284706
549.690430	1313.456787	21303.451172	9169.495117	39.299850
550.035767	1313.897827	20995.458984	9060.215820	39.358250
550.381104	1314.338867	20720.439453	8945.863281	39.325386
550.726440	1308.715088	20440.898438	8828.533203	39.304550
551.071655	1308.053345	20193.007813	8714.952148	39.221161
551.416931	1305.737671	19905.525391	8596.408203	39.197601
551.762085	1305.958130	19601.064453	8462.096680	39.115044
552.107178	1303.752686	19293.402344	8333.960938	39.079182
552.452332	1302.539795	18985.742188	8215.638672	39.094154
552.797424	1304.304077	18713.041016	8112.643555	39.108749
553.142395	1299.011108	18451.914063	8012.738281	39.140472
553.487366	1300.113770	18255.408203	7934.995605	39.131622
553.832336	1301.106323	18065.296875	7872.691895	39.200134
554.177185	1299.782959	17916.652344	7816.011719	39.214539
554.522095	1301.326782	17807.810547	7769.035156	39.182835
554.866943	1304.745361	17704.042969	7717.207031	39.102055
555.211731	1306.068604	17624.757813	7671.774414	39.008686
555.556396	1300.885742	17547.566406	7641.118164	39.024788
555.901123	1302.760376	17476.771484	7594.803711	38.902184
556.245789	1303.201538	17389.656250	7562.383301	38.909637
556.590454	1305.406860	17291.294922	7526.985840	38.919197
556.934998	1303.642700	17206.494141	7487.066406	38.882484
557.279541	1307.722656	17093.353516	7434.687500	38.813557
557.624023	1306.620117	16953.750000	7377.235840	38.796993
557.968567	1311.361694	16822.525391	7332.906250	38.820713
558.312988	1313.567017	16687.994141	7285.378906	38.842503
558.657349	1316.213745	16581.359375	7247.444824	38.854729
559.001770	1315.000732	16496.228516	7218.443359	38.886463
559.346069	1317.757568	16420.470703	7191.427246	38.891487
559.690308	1318.970459	16366.767578	7166.836914	38.861942
560.034485	1318.529541	16310.417969	7139.599121	38.828125
560.378723	1321.727173	16279.982422	7119.308594	38.758408
560.722900	1318.970459	16237.306641	7104.752930	38.783028
561.067017	1315.662354	16214.701172	7084.241699	38.717793
561.411072	1315.110962	16186.361328	7075.750977	38.736759
561.755127	1317.206055	16158.242188	7066.598145	38.739830
562.099182	1316.213745	16149.860352	7073.434570	38.811905
562.443115	1316.103394	16154.382813	7081.926270	38.857758
562.787048	1318.198486	16166.845703	7089.425781	38.867023
563.130920	1317.536865	16204.117188	7117.876465	38.963547
563.474792	1314.559570	16275.242188	7146.104980	38.979141
563.818604	1309.817749	16366.658203	7182.936035	39.006310
564.162354	1314.890259	16455.423828	7222.083496	39.015755
564.506042	1312.133545	16567.021484	7259.795898	38.988567
564.849731	1311.582153	16664.722656	7298.721680	38.996189
565.193420	1309.376709	16735.189453	7322.209961	38.979034
565.537048	1304.304077	16789.001953	7344.705566	39.008842
565.880615	1304.965820	16818.666016	7358.048340	39.017658
566.224121	1303.201416	16827.597656	7370.950195	39.085251
566.567627	1303.642578	16828.146484	7372.163086	39.089947
566.911072	1306.509766	16823.736328	7380.102051	39.140965
567.254517	1305.848022	16856.265625	7390.798340	39.130459
567.597839	1307.612305	16881.408203	7400.613770	39.123421
567.941223	1305.847900	16914.271484	7406.568359	39.086079
568.284485	1305.186401	16938.753906	7426.639160	39.155827
568.627808	1306.289063	17000.615234	7449.464844	39.142654
568.970947	1304.855591	17070.197266	7470.747559	39.110424
569.314148	1310.589600	17146.837891	7501.403320	39.092678
569.657288	1314.449341	17232.078125	7523.678711	39.008507
570.000366	1315.772461	17313.900391	7559.296875	39.026592
570.343445	1316.213745	17378.958984	7567.787109	38.919708
570.686462	1319.301392	17399.359375	7562.935059	38.828430
571.029419	1319.521851	17410.937500	7561.280273	38.789368
571.372314	1314.559570	17389.546875	7551.247070	38.797466
571.715210	1314.780029	17336.173828	7537.683105	38.841209
572.058105	1315.441650	17284.566406	7522.134766	38.866833
572.400879	1318.308716	17266.921875	7520.590820	38.889164
572.743713	1316.985474	17250.712891	7517.061523	38.911648
573.086426	1315.882813	17256.779297	7512.541016	38.872707
573.429077	1315.993042	17280.599609	7507.247559	38.781128
573.771790	1313.456787	17288.978516	7507.026855	38.769127
574.114441	1308.825317	17280.158203	7494.896484	38.732342
574.457031	1309.376709	17246.634766	7478.576660	38.709297
574.799561	1306.399414	17192.378906	7456.633301	38.714855
575.142029	1312.684937	17144.080078	7439.981445	38.703449
575.484436	1316.103271	17057.294922	7403.150879	38.669548
575.826904	1311.471802	16940.076172	7347.683594	38.622845
576.169250	1314.890381	16794.847656	7288.576660	38.589813
576.511597	1309.266357	16627.013672	7213.371094	38.544209
576.853943	1303.863037	16422.126953	7140.922852	38.609325
577.196167	1302.980835	16207.315430	7045.536621	38.529434
577.538391	1300.885742	15981.145508	6970.330566	38.619514
577.880554	1295.923462	15774.605469	6892.367676	38.652996
578.222717	1297.798096	15546.340820	6809.221680	38.680614
578.564819	1298.459717	15335.276367	6728.171875	38.681934
578.906860	1297.798096	15149.357422	6649.658691	38.637241
579.248901	1294.489990	14957.482422	6575.113770	38.649105
579.590942	1292.505005	14756.014648	6487.446289	38.585342
579.932861	1296.474854	14573.073242	6409.704590	38.513100
580.274780	1295.813232	14376.127930	6336.924805	38.539680
580.616638	1297.577515	14177.304688	6267.011719	38.583378
580.958496	1300.665161	13971.095703	6188.938965	38.580173
581.300232	1301.988525	13802.267578	6120.459473	38.546906
581.641968	1302.760376	13638.404297	6062.125000	38.582218
581.983704	1300.885620	13495.599609	6014.266602	38.651016
582.325317	1296.915771	13360.736328	5958.138184	38.638031
582.666992	1296.474731	13243.408203	5915.572754	38.663464
583.008606	1298.018555	13132.584961	5888.776367	38.791096
583.350098	1295.482300	13037.419922	5851.063477	38.797523
583.691589	1294.710449	12956.919922	5823.385254	38.832050
584.033081	1295.813232	12896.602539	5789.090332	38.732513
584.374512	1293.276978	12835.179688	5767.586914	38.765793
584.715881	1293.607666	12787.429688	5734.063965	38.633415
585.057190	1291.512451	12741.335938	5717.082031	38.651855
585.398499	1289.086548	12694.800781	5690.286133	38.587673
585.739807	1291.071655	12657.087891	5675.950684	38.578854
586.081055	1291.622803	12628.416992	5664.261719	38.570328
586.422180	1291.622803	12602.281250	5653.564941	38.564884
586.763367	1289.637939	12593.017578	5651.690430	38.590694
587.104431	1289.196777	12593.017578	5648.823242	38.567726
587.445496	1290.189331	12597.098633	5643.530273	38.501598
587.786499	1287.211914	12592.797852	5640.663086	38.507080
588.127502	1283.021484	12621.468750	5643.199219	38.454803
588.468445	1284.234619	12627.754883	5646.396973	38.455101
588.809326	1284.124390	12634.040039	5644.743164	38.419830
589.150208	1287.322266	12639.332031	5639.339844	38.336979
589.491028	1290.740723	12626.099609	5634.488281	38.320335
589.831848	1290.299683	12624.998047	5627.650879	38.266136
590.172546	1291.291992	12613.971680	5615.741699	38.192810
590.513245	1289.307251	12605.810547	5617.064941	38.242889
590.853943	1289.307251	12610.994141	5615.962891	38.215649
591.194458	1290.189331	12623.235352	5619.822266	38.203613
591.535095	1288.645508	12624.227539	5624.454102	38.249546
591.875610	1289.527588	12644.406250	5630.849121	38.233093
592.216125	1291.622803	12648.376953	5633.385254	38.230667
592.556580	1291.071411	12667.343750	5647.279297	38.292049
592.897034	1287.763184	12700.867188	5655.218750	38.267029
593.237366	1287.652954	12718.510742	5659.409180	38.245216
593.577698	1288.535156	12771.110352	5679.258789	38.238144
593.918030	1289.307007	12819.409180	5697.563477	38.232586
594.258301	1292.284302	12873.332031	5722.816406	38.256748
594.598511	1292.063843	12952.838867	5757.663086	38.295902
594.938721	1294.379639	13037.417969	5784.790039	38.238914
595.278809	1299.231567	13118.026367	5823.605957	38.281181
595.618958	1298.790527	13172.391602	5847.094727	38.306019
595.958984	1299.011108	13228.298828	5856.688477	38.205776
596.299011	1302.098633	13252.007813	5870.913086	38.233047
596.638977	1299.011108	13278.141602	5870.471680	38.161869
596.978943	1297.908447	13289.832031	5867.494629	38.105530
597.318848	1300.665161	13285.533203	5865.399902	38.087486
597.658630	1300.113770	13271.526367	5856.798828	38.063053
597.998474	1298.128662	13238.885742	5844.778320	38.076729
598.338257	1297.356934	13184.189453	5834.412598	38.168755
598.677979	1298.680298	13151.439453	5823.716309	38.177071
599.017700	1297.026245	13096.192383	5807.285645	38.225239
599.357361	1300.444580	13052.415039	5785.782715	38.166687
599.696960	1305.737671	13013.156250	5765.933594	38.097176
600.036560	1307.171265	12965.298828	5750.164551	38.110691
600.376038	1303.973389	12926.591797	5738.475586	38.154072
600.715576	1303.422119	12884.029297	5728.109863	38.207733
601.055054	1302.870850	12840.801758	5720.169922	38.285019
601.394409	1301.878174	12806.395508	5704.291016	38.266819
601.733826	1303.752930	12760.414063	5691.278809	38.296722
602.073120	1301.878296	12756.113281	5691.830078	38.326012
602.412415	1297.577515	12743.873047	5685.213379	38.332363
602.751587	1296.915894	12771.220703	5688.411621	38.272434
603.090820	1298.459839	12801.544922	5710.686523	38.356899
603.429993	1293.166748	12848.080078	5727.558594	38.376675
603.769104	1292.063965	12883.807617	5751.045898	38.466877
604.108154	1293.828369	12909.392578	5771.115723	38.545582
604.447205	1296.144165	12946.553711	5785.010254	38.529686
604.786194	1298.349487	12976.877930	5797.802246	38.527565
605.125183	1302.319336	13007.534180	5809.821289	38.508495
605.464111	1300.665039	13028.486328	5811.806641	38.465302
605.802979	1299.562378	13050.870117	5811.696289	38.396866
606.141846	1300.113770	13074.911133	5825.700684	38.434521
606.480652	1297.908325	13114.829102	5846.322266	38.490688
606.819336	1295.702881	13167.648438	5876.206055	38.582581
607.158020	1295.261719	13228.960938	5899.473633	38.581600
607.496765	1300.003296	13292.807617	5931.452148	38.618561
607.835388	1301.216431	13331.182617	5941.597656	38.573521
608.173950	1305.076050	13348.386719	5942.920898	38.509716
608.512512	1303.201416	13325.559570	5936.745605	38.541058
608.851013	1301.216431	13280.789063	5913.809082	38.503819
609.189514	1304.965820	13184.080078	5874.551758	38.467396
609.527893	1305.186279	13073.698242	5827.686035	38.428818
609.866333	1304.414673	12945.449219	5784.238281	38.483040
610.204712	1303.091309	12806.505859	5735.497559	38.531223
610.542969	1304.304321	12678.920898	5683.779785	38.502182
610.881226	1305.627563	12564.238281	5633.825684	38.443451
611.219482	1303.532349	12470.395508	5588.062988	38.368256
611.557678	1301.547363	12383.722656	5548.585449	38.323143
611.895813	1299.011108	12310.279297	5522.119629	38.352604
612.233948	1298.018555	12237.611328	5494.772461	38.362980
612.571960	1302.098633	12167.256836	5471.284180	38.372066
612.910034	1306.619873	12098.998047	5442.172852	38.319199
613.247986	1306.730103	12027.210938	5408.098145	38.257317
613.585938	1308.935547	11942.411133	5378.324707	38.269604
613.923828	1305.737671	11822.654297	5323.629883	38.204086
614.261658	1308.715088	11693.414063	5272.022461	38.164875
614.599487	1306.730103	11548.295898	5218.760254	38.197582
614.937317	1307.943115	11424.239258	5171.784180	38.194229
615.275024	1307.612305	11309.556641	5121.941406	38.135876
615.612732	1306.399414	11213.178711	5078.824707	38.079231
615.950378	1305.627441	11119.227539	5042.434570	38.077843
616.288025	1302.429443	11032.443359	5015.969727	38.165829
616.625549	1303.421997	10971.901367	4995.348633	38.185184
616.963074	1304.414307	10919.523438	4974.065430	38.165462
617.300537	1305.517212	10871.445313	4951.569824	38.114994
617.638000	1305.296631	10823.035156	4941.093750	38.200222
617.975464	1309.266357	10790.614258	4938.006348	38.272408
618.312744	1310.369141	10753.563477	4929.735840	38.327778
618.650024	1309.486938	10720.259766	4926.538086	38.435223
618.987305	1308.274048	10683.428711	4913.305664	38.453037
619.324585	1305.958374	10658.507813	4901.065430	38.439857
619.661743	1302.429565	10644.723633	4897.206055	38.478519
619.998901	1299.783081	10616.824219	4896.213379	38.600563
620.336060	1298.018799	10589.255859	4887.061035	38.628250
620.673096	1295.151611	10567.752930	4865.667969	38.506092
621.010193	1298.459717	10548.125000	4860.926270	38.514545
621.347168	1296.254272	10527.833984	4849.237305	38.487267
621.684082	1297.908447	10493.208984	4836.997070	38.488014
622.020996	1297.356934	10457.591797	4820.125488	38.457188
622.357849	1298.128906	10433.993164	4811.854980	38.460796
622.694641	1299.562500	10412.929688	4805.459473	38.469830
623.031433	1303.863037	10391.095703	4799.173340	38.463970
623.368164	1305.296631	10386.905273	4793.880371	38.413723
623.704895	1306.619873	10376.759766	4789.689941	38.401505
624.041504	1307.832886	10383.927734	4786.822754	38.331352
624.378174	1305.737671	10402.343750	4794.211426	38.349174
624.714783	1311.692505	10445.901367	4797.629395	38.163536
625.051331	1308.715210	10478.101563	4793.438965	38.003891
625.387756	1309.156250	10514.711914	4805.568848	37.981548
625.724304	1309.486938	10534.119141	4806.010742	37.904213
626.060669	1310.589600	10552.314453	4811.193359	37.878254
626.397034	1310.369141	10560.364258	4819.132813	37.932602
626.733337	1310.369141	10564.333984	4811.523438	37.834099
627.069641	1307.502075	10570.950195	4808.767090	37.796562
627.405884	1309.486938	10560.474609	4808.987305	37.828400
627.742126	1308.935669	10550.439453	4809.869629	37.882732
628.078308	1308.053467	10538.639648	4802.921875	37.861828
628.414429	1304.524780	10513.057617	4799.393555	37.952499
628.750488	1304.414551	10493.319336	4785.609375	37.884766
629.086548	1301.767944	10460.126953	4775.464844	37.929249
629.422546	1299.121338	10419.546875	4763.555176	37.985439
629.758545	1297.798096	10365.293945	4750.322754	38.075832
630.094421	1294.710571	10318.648438	4731.907227	38.089767
630.430298	1293.497437	10264.283203	4708.529297	38.068367
630.766113	1293.276855	10200.986328	4681.181641	38.033401
631.101929	1292.615479	10124.567383	4656.590820	38.088696
631.437622	1293.166626	10043.185547	4621.855469	38.042080
631.773376	1288.865967	9950.115234	4591.750977	38.134048
632.109070	1292.725586	9856.714844	4565.175781	38.211750
632.444641	1292.946167	9763.423828	4537.827148	38.308121
632.780273	1293.387329	9687.446289	4507.502441	38.290359
633.115784	1294.489990	9618.195313	4479.052246	38.258949
633.451294	1297.246826	9549.165039	4446.190918	38.160149
633.786682	1299.121338	9481.458008	4422.922852	38.177376
634.122131	1302.650146	9403.604492	4394.692871	38.168873
634.457458	1301.106323	9351.556641	4366.683594	38.079575
634.792847	1303.311768	9290.575195	4343.747070	38.066044
635.128113	1303.201538	9227.279297	4322.354004	38.100994
635.463318	1304.414429	9176.002930	4296.550781	38.011848
635.798584	1300.775513	9127.813477	4272.731934	37.970387
636.133728	1301.657715	9074.221680	4251.669922	37.954170
636.468872	1304.965820	9012.358398	4234.908691	38.014709
636.803955	1305.737793	8963.067383	4210.869141	37.939224
637.139038	1303.201416	8913.554688	4184.955078	37.866226
637.473999	1305.406860	8849.266602	4163.562500	37.887180
637.808899	1305.958374	8783.101563	4140.405273	37.908154
638.143799	1307.391846	8715.173828	4118.350586	37.946022
638.478638	1309.156128	8654.302734	4094.752686	37.924316
638.813538	1309.156006	8589.573242	4067.404785	37.885864
639.148315	1305.516968	8517.233398	4039.946777	37.916489
639.483032	1306.509521	8454.048828	4010.724365	37.834209
639.817749	1303.421875	8386.782227	3986.243652	37.874985
640.152405	1302.098633	8323.044922	3962.314453	37.889706
640.487000	1301.547363	8252.250000	3935.628418	37.896614
640.821594	1301.326782	8187.410156	3912.802002	37.923954
641.156128	1299.121338	8138.338379	3891.850342	37.909737
641.490662	1297.687744	8078.791504	3873.104492	37.979317
641.825134	1298.569946	8018.140625	3848.072510	37.941448
642.159546	1298.459717	7977.560059	3826.569092	37.851044
642.493896	1302.760376	7925.291016	3810.800293	37.871323
642.828186	1301.216553	7883.938477	3795.693115	37.894302
643.162537	1299.562622	7849.974609	3777.277588	37.825329
643.496765	1293.718140	7814.246094	3763.162598	37.871849
643.830994	1292.505005	7780.061523	3747.062500	37.834854
644.165100	1293.387329	7751.059570	3740.225830	37.890408
644.499268	1292.615479	7734.409180	3734.712158	37.910194
644.833313	1291.071655	7720.955566	3722.912842	37.820923
645.167358	1288.535278	7705.075684	3711.885498	37.767239
645.501343	1287.652954	7682.139648	3706.151367	37.821621
645.835327	1287.873535	7662.069824	3696.888428	37.793232
646.169189	1289.638062	7648.727539	3690.603027	37.756424
646.503052	1289.417358	7636.818359	3680.237793	37.666130
646.836914	1293.387207	7626.342285	3677.149902	37.640606
647.170654	1295.041260	7611.676270	3667.004395	37.551056
647.504395	1296.584961	7607.376465	3664.799072	37.526421
647.838074	1296.695435	7601.641602	3664.688721	37.557705
648.171753	1299.562500	7598.995605	3666.563232	37.574821
648.505371	1300.665283	7600.097656	3665.901855	37.546818
648.838928	1301.988525	7603.184570	3667.446045	37.539818
649.172424	1304.635010	7610.131836	3674.833984	37.589409
649.505920	1302.870728	7606.382324	3676.488525	37.655479
649.839294	1308.274048	7598.001465	3678.583740	37.685410
650.172729	1310.920532	7596.127441	3682.884033	37.738827
650.506104	1314.890381	7600.207520	3681.670654	37.655701
650.839355	1317.536987	7584.989746	3687.845947	37.819336
651.172668	1318.308838	7565.913086	3686.412598	37.904186
651.505859	1316.875244	7542.977051	3679.796143	37.951851
651.839111	1319.080688	7527.979980	3679.355225	38.014378
652.172241	1321.175903	7515.959961	3675.605957	38.006653
652.505371	1319.521729	7502.616211	3669.210205	38.001820
652.838379	1320.845093	7475.930176	3664.358154	38.074425
653.171387	1319.632202	7461.924805	3664.909180	38.182434
653.504333	1318.088379	7438.988281	3660.608887	38.270851
653.837280	1318.970459	7418.918945	3647.155762	38.167297
654.170227	1319.080811	7399.731934	3643.517090	38.226765
654.503052	1315.662354	7379.772461	3639.105957	38.314667
654.835876	1315.441895	7365.657715	3636.238770	38.358910
655.168579	1312.243896	7348.234375	3626.093750	38.334221
655.501343	1312.574707	7332.906250	3623.447266	38.384472
655.833984	1310.920532	7323.863770	3628.078125	38.536163
656.166626	1312.464233	7319.673340	3621.351563	38.435272
656.499268	1313.456787	7342.720215	3626.534180	38.364178
656.831787	1312.684937	7376.904785	3633.812500	38.275780
657.164307	1311.912964	7422.889160	3644.399170	38.168800
657.496765	1311.140991	7469.424316	3660.057617	38.142391
657.829224	1311.361572	7518.275391	3670.312988	38.005222
658.161621	1315.110718	7566.463379	3684.538330	37.902641
658.493958	1317.095703	7605.831055	3700.858643	37.905285
658.826233	1310.920410	7635.494629	3713.429199	37.986885
659.158508	1310.479370	7661.739746	3723.133301	37.987011
659.490723	1311.140991	7680.155273	3730.301025	37.983276
659.822876	1310.479492	7699.012695	3732.396240	37.910374
660.154968	1306.399414	7700.555664	3725.890137	37.839092
660.487061	1307.943115	7699.343750	3728.647217	37.874393
660.819153	1303.642700	7693.719727	3735.042725	38.049618
661.151123	1305.406982	7679.934570	3729.419189	38.026539
661.483093	1308.935791	7668.576660	3722.141113	37.945625
661.815002	1310.479614	7652.807129	3710.011230	37.833614
662.146851	1312.354126	7623.915039	3700.968750	37.845070
662.478760	1314.008057	7595.354980	3687.625732	37.788357
662.810486	1311.802612	7558.523926	3667.335449	37.708305
663.142212	1309.597168	7505.482910	3650.243408	37.777428
663.473938	1306.730103	7453.654785	3627.526855	37.755413
663.805603	1306.840332	7388.263184	3600.399658	37.714188
664.137207	1307.060913	7295.854980	3572.611328	37.829826
664.468689	1306.730103	7208.187500	3541.845215	37.873951
664.800293	1304.965820	7131.107910	3507.660645	37.807091
665.131775	1304.083496	7048.623535	3478.548828	37.852734
665.463196	1302.539795	6980.255859	3447.893311	37.785503
665.794617	1304.965820	6923.795410	3421.758545	37.673195
666.125916	1309.156250	6865.902344	3399.483154	37.617825
666.457275	1308.715210	6822.564941	3381.178467	37.586506
666.788574	1305.627563	6776.801270	3372.466797	37.776890
667.119812	1306.730225	6747.910645	3368.496582	37.891891
667.450928	1307.612305	6727.731445	3355.926025	37.790936
667.782104	1311.582153	6713.063965	3345.449707	37.653881
668.113159	1308.384155	6691.230469	3340.266846	37.747368
668.444214	1304.414307	6669.286621	3335.966064	37.867664
668.775208	1303.311523	6650.980469	3333.870850	37.970924
669.106201	1304.414307	6636.645996	3329.791016	37.983662
669.437134	1303.311646	6629.367676	3323.395508	37.928326
669.768005	1302.870605	6622.200195	3321.740967	37.953472
670.098877	1300.444702	6610.951660	3318.763672	38.006145
670.429688	1303.201416	6591.874023	3315.124512	38.042118
670.760437	1299.893311	6567.504395	3312.698730	38.210972
671.091187	1298.349487	6559.564941	3308.067627	38.198742
671.421814	1296.033813	6542.692871	3299.466553	38.184921
671.752441	1295.261963	6521.189941	3301.451172	38.389149
672.083008	1292.946167	6507.185059	3294.724609	38.390617
672.413574	1293.607788	6493.731934	3288.990234	38.371822
672.744080	1296.033813	6466.936035	3279.727295	38.362617
673.074524	1293.828369	6440.581055	3273.110840	38.456917
673.404968	1297.467407	6416.541504	3266.384277	38.462360
673.735352	1301.437256	6396.582520	3255.688232	38.355156
674.065613	1303.752930	6375.410156	3237.823730	38.134888
674.395935	1302.429688	6351.700684	3231.537842	38.205677
674.726196	1301.657837	6320.494141	3221.172363	38.246204
675.056335	1304.414551	6304.504395	3211.909912	38.149223
675.386536	1304.745361	6292.815430	3205.955078	38.115135
675.716614	1306.840454	6281.346680	3197.353760	38.004040
676.046692	1308.274048	6279.913086	3191.619385	37.881779
676.376770	1310.259033	6268.334961	3189.524170	37.903111
676.706726	1312.023315	6257.638184	3183.128418	37.833622
677.036621	1310.038452	6262.820801	3185.444092	37.865700
677.366516	1310.258911	6260.616211	3183.679688	37.844151
677.696411	1314.338989	6274.068359	3181.915527	37.654808
678.026184	1313.787720	6291.381836	3187.208740	37.637077
678.355957	1312.464355	6305.166016	3194.487061	37.695477
678.685669	1312.464355	6330.639160	3192.171143	37.457977
679.015320	1309.817749	6346.187500	3193.384277	37.399292
679.344971	1306.730103	6362.838379	3198.456787	37.414677
679.674561	1305.406860	6371.991211	3210.696777	37.605015
680.004150	1301.547241	6394.928711	3218.085205	37.628010
680.333618	1299.231689	6410.145996	3222.826904	37.637009
680.663086	1299.672729	6424.701660	3228.340332	37.632328
680.992493	1298.680298	6430.987305	3229.112061	37.613335
681.321899	1298.569824	6429.002930	3228.119873	37.609886
681.651184	1298.128784	6429.994629	3229.112061	37.627316
681.980530	1296.585083	6419.849609	3227.678467	37.692635
682.309753	1295.372070	6412.682129	3223.708740	37.682625
682.638977	1290.850952	6387.650391	3218.746582	37.825615
682.968079	1288.314697	6361.735840	3212.571533	37.928192
683.297241	1288.976318	6340.563965	3207.168213	37.972057
683.626343	1288.865845	6318.619629	3201.543945	38.027271
683.955383	1293.056396	6279.803711	3183.018555	37.899700
684.284363	1294.048950	6252.235352	3173.424561	37.904495
684.613281	1292.284546	6209.890137	3165.264404	38.087234
684.942139	1296.144043	6166.111816	3149.936279	38.065800
685.271057	1299.231567	6128.619629	3138.137695	38.077415
685.599792	1301.657593	6088.370117	3128.323242	38.161175
685.928589	1305.737671	6056.721191	3114.980225	38.081432
686.257324	1310.810181	6019.118164	3101.085938	38.023758
686.585999	1310.699951	5994.527344	3086.640137	37.916431
686.914612	1310.810303	5948.323242	3064.144531	37.807644
687.243164	1310.369141	5912.043457	3047.493408	37.749832
687.571777	1307.281494	5879.072754	3032.275635	37.731255
687.900269	1308.825317	5843.344727	3026.982666	37.890614
688.228699	1309.707520	5811.365234	3011.103271	37.794872
688.557129	1305.186401	5783.466309	2995.003418	37.733620
688.885498	1306.950806	5757.552246	2978.683105	37.561939
689.213867	1310.920532	5727.668457	2966.443115	37.482838
689.542114	1311.140991	5706.827148	2952.769043	37.346344
689.870361	1310.369141	5686.095703	2943.064941	37.312565
690.198608	1305.737671	5651.470215	2930.494141	37.387402
690.526794	1305.296631	5620.042969	2919.135986	37.402882
690.854858	1302.870605	5598.098633	2915.276123	37.539463
691.182922	1300.775513	5560.605957	2905.131348	37.662434
691.510986	1300.224121	5533.919922	2890.134521	37.553722
691.838928	1297.908447	5499.404785	2875.247803	37.542324
692.166931	1297.687866	5463.015137	2857.162842	37.439434
692.494812	1296.695557	5415.708496	2840.511719	37.480247
692.822632	1295.702881	5372.591309	2826.286621	37.542938
693.150452	1293.056396	5328.923828	2810.407471	37.596653
693.478149	1296.144043	5291.430664	2794.528076	37.503792
693.805908	1294.379639	5266.067871	2790.668457	37.673874
694.133606	1294.710449	5228.244141	2782.177490	37.815033
694.461243	1296.585083	5198.580078	2772.583984	37.826775
694.788818	1295.261841	5180.605957	2764.533936	37.815750
695.116333	1293.938477	5170.019531	2765.636475	37.968712
695.443848	1295.261719	5164.505371	2765.416016	37.995911
695.771301	1292.284302	5178.620605	2775.230225	38.157940
696.098755	1289.748047	5203.322266	2787.580811	38.272758
696.426147	1293.166626	5236.514160	2809.855957	38.461975
696.753418	1293.717896	5275.661133	2823.640137	38.421497
697.080688	1297.687744	5332.451660	2840.732178	38.243736
697.407898	1298.569946	5386.485352	2857.383545	38.132236
697.735107	1301.768066	5424.308594	2870.174805	38.044666
698.062317	1303.201660	5465.219727	2880.650879	37.901066
698.389404	1306.289307	5499.735352	2891.016357	37.790565
698.716492	1305.407104	5531.273438	2896.971191	37.662434
699.043457	1303.863281	5551.122559	2902.925537	37.649273
699.370483	1305.406982	5568.545410	2907.447021	37.578888
699.697388	1309.597412	5572.294434	2909.873047	37.541386
700.024292	1313.677490	5568.766113	2903.587158	37.364899
700.351135	1314.008423	5560.936523	2898.514648	37.309467
700.677917	1318.860352	5549.137695	2888.149170	37.096596
701.004639	1319.191162	5533.699219	2878.996582	37.010380
701.331299	1319.963013	5514.731934	2867.748779	36.897999
701.658020	1321.286133	5491.244629	2860.139893	36.903336
701.984619	1319.963013	5453.972168	2842.496338	36.829460
702.311218	1319.742432	5411.186523	2832.351074	36.970043
702.637756	1319.191040	5359.027344	2813.714844	36.994659
702.964233	1319.411621	5287.901855	2789.013916	37.031773
703.290649	1316.213867	5216.665527	2754.388672	36.872005
703.617065	1319.080933	5132.086914	2723.181396	36.823978
703.943481	1320.624756	5047.287109	2691.312500	36.780571
704.269775	1320.735107	4959.289551	2659.113037	36.783234
704.596008	1319.522095	4881.105957	2629.780518	36.788643
704.922241	1317.095947	4814.500977	2605.410645	36.836304
705.248474	1316.323975	4747.565430	2586.002441	37.003471
705.574585	1315.882935	4687.687500	2565.050781	37.047455
705.900696	1316.103271	4637.072266	2543.326904	36.953781
706.226746	1314.559570	4597.925781	2526.786133	36.920235
706.552734	1311.692505	4570.799316	2514.766357	36.914219
706.878723	1306.068604	4551.612305	2510.245117	37.102459
707.204651	1302.649902	4529.888672	2504.069824	37.227489
707.530518	1301.547363	4516.986328	2500.872070	37.298943
707.856323	1302.098633	4510.700684	2495.027588	37.179089
708.182068	1301.988403	4514.008789	2494.807129	37.136086
708.507813	1299.341797	4509.597656	2489.183105	37.063755
708.833496	1301.106201	4522.278809	2492.270752	36.979221
709.159180	1301.878052	4538.268066	2494.476318	36.849644
709.484802	1303.091187	4550.949219	2494.145752	36.672005
709.810303	1303.752563	4569.696289	2496.681885	36.526325
710.135864	1306.178711	4579.620117	2496.020020	36.348331
710.461304	1306.288818	4591.309570	2499.328369	36.317566
710.786743	1305.627319	4600.352051	2505.062500	36.404716
711.112122	1305.847900	4608.181152	2509.914551	36.461090
711.437500	1305.406860	4615.128418	2509.694092	36.386360
711.762817	1308.825195	4614.136230	2506.826904	36.244751
712.088013	1307.171143	4618.546875	2505.944580	36.201675
712.413269	1309.266357	4613.364258	2509.252686	36.318123
712.738403	1312.133423	4616.562012	2514.876709	36.397919
713.063538	1313.125977	4610.276855	2518.515625	36.558521
713.388611	1312.243652	4604.983398	2518.295166	36.627598
713.713623	1309.817749	4597.154297	2515.648682	36.681091
714.038574	1312.243652	4596.713379	2519.066895	36.743320
714.363525	1310.258789	4590.096680	2516.861816	36.788494
714.688477	1305.847900	4579.951660	2513.222656	36.876495
715.013306	1306.730103	4555.581543	2503.628906	36.840675
715.338135	1307.391724	4534.299316	2498.666748	36.916924
715.662842	1306.068604	4507.282227	2489.073486	36.954887
715.987549	1306.950684	4475.633789	2479.038574	36.989746
716.312195	1308.274048	4442.441406	2467.018555	36.971367
716.636841	1303.863037	4403.735840	2449.375000	36.953514
716.961426	1300.003540	4372.087891	2437.575684	37.029324
717.285950	1297.687744	4341.210938	2427.430664	37.119576
717.610474	1293.497437	4300.630371	2411.882080	37.191063
717.934937	1293.056396	4265.012695	2396.333496	37.122925
718.259277	1292.615234	4230.827637	2385.416260	37.192719
718.583679	1291.291992	4202.046875	2375.381592	37.244278
718.908020	1288.535156	4169.406738	2360.715332	37.217216
719.232239	1286.881104	4142.720703	2347.372314	37.134132
719.556519	1287.542725	4115.262695	2328.295654	36.805374
719.880737	1287.322144	4084.717285	2309.879639	36.553917
720.204834	1284.344727	4055.274902	2298.521729	36.600597
720.528931	1288.755615	4025.060303	2288.817871	36.547913
720.852966	1286.440063	3988.890625	2272.717773	36.495678
721.176941	1288.424805	3950.295410	2259.595459	36.484516
721.500916	1289.307129	3919.970703	2252.647949	36.619690
721.824829	1284.675537	3898.798096	2244.929199	36.733307
722.148743	1284.785767	3867.370117	2236.217529	36.840298
722.472534	1288.535034	3844.874268	2226.734131	36.700882
722.796326	1289.417236	3823.701660	2211.626953	36.389355
723.119995	1288.424805	3799.882813	2202.805176	36.408348
723.443665	1293.056396	3787.201172	2202.364014	36.457691
723.767334	1294.820801	3769.006348	2197.622559	36.488846
724.090942	1294.600220	3758.751221	2193.101318	36.462910
724.414551	1299.231689	3752.686035	2187.367188	36.199390
724.737976	1300.223999	3747.503418	2185.823242	36.187092
725.061462	1302.539795	3747.393555	2182.625488	35.997478
725.384888	1302.870728	3747.834717	2183.617676	36.022903
725.708252	1303.311768	3747.503662	2187.256836	36.165127
726.031616	1303.863159	3752.465820	2196.188965	36.442249
726.354858	1302.981079	3753.017090	2205.120850	36.821487
726.678162	1301.878296	3762.721436	2210.083252	36.906250
727.001404	1305.517334	3766.580811	2211.516357	36.813313
727.324463	1307.281860	3771.102051	2213.721924	36.790024
727.647583	1309.928345	3778.269775	2213.611816	36.610962
727.970642	1306.179077	3790.069092	2215.706543	36.617058
728.293701	1308.715210	3792.384766	2215.596680	36.513775
728.616699	1309.707642	3797.126221	2219.677002	36.582882
728.939575	1309.928223	3815.431152	2223.977783	36.481682
729.262512	1305.958252	3825.686768	2228.168213	36.599575
729.585266	1305.627441	3834.950195	2242.834473	37.053677
729.908142	1304.193848	3854.909180	2251.435547	37.136314
730.230896	1302.098633	3868.252197	2247.686279	36.848442
730.553467	1304.193848	3887.329346	2250.553467	36.636082
730.876160	1301.106201	3901.333740	2250.773926	36.522484
731.198792	1296.695313	3912.360840	2260.918701	36.863407
731.521362	1294.159058	3927.357910	2268.858398	37.015793
731.843872	1293.056152	3925.152832	2272.717773	37.219818
732.166321	1289.968506	3925.152832	2272.718018	37.293388
732.488770	1291.732910	3926.476074	2272.718018	37.232666
732.811157	1289.196655	3919.639404	2264.337158	37.071342
733.133484	1288.755615	3912.250732	2259.154541	36.988785
733.455811	1290.299438	3894.386475	2252.648682	36.955341
733.778015	1290.961182	3877.845947	2245.921875	36.915470
734.100281	1289.527710	3869.685547	2241.841797	36.909142
734.422424	1286.660522	3857.666016	2244.598633	37.259281
734.744507	1290.189331	3842.668945	2238.974609	37.171124
735.066589	1288.645508	3832.192627	2235.335449	37.219280
735.388611	1291.512695	3820.062988	2230.042236	37.117298
735.710571	1290.630493	3804.293945	2222.323242	37.065132
736.032532	1292.505005	3794.038574	2216.589111	36.940701
736.354431	1292.284424	3781.467529	2204.238770	36.636692
736.676270	1293.276733	3765.367920	2198.835449	36.631283
736.998108	1298.900879	3751.914551	2199.937988	36.731842
737.319824	1297.687866	3736.807373	2199.166260	36.959171
737.641541	1301.547485	3717.729980	2197.181152	37.068127
737.963135	1302.209106	3696.888672	2184.830811	36.857609
738.284790	1303.311890	3671.305176	2173.252197	36.737450
738.606323	1303.532227	3660.498047	2168.069092	36.680077
738.927856	1305.517334	3650.022217	2159.026855	36.404682
739.249390	1307.391968	3639.436279	2153.844238	36.296577
739.570740	1311.913086	3628.740234	2146.345459	36.016171
739.892212	1310.810303	3617.933350	2138.957275	35.895222
740.213562	1308.604858	3610.214355	2134.656738	35.890186
740.534790	1310.479614	3603.818359	2128.812012	35.683014
740.856079	1306.730347	3588.931641	2120.541748	35.659058
741.177246	1304.304443	3578.455322	2115.910156	35.688297
741.498413	1306.399536	3569.964600	2110.616943	35.528797
741.819580	1307.943237	3562.245605	2107.970703	35.488918
742.140625	1309.707642	3551.989990	2104.221436	35.433266
742.461670	1307.722534	3536.992920	2100.251709	35.551056
742.782654	1306.950562	3515.489990	2096.281738	35.739960
743.103577	1309.155884	3498.728760	2094.627930	35.873302
743.424438	1309.707275	3477.335938	2084.372559	35.737915
743.745300	1305.847900	3448.003418	2075.440674	35.926094
744.066101	1304.745117	3421.758545	2067.059814	36.008968
744.386902	1303.421875	3399.924561	2059.009766	36.040398
744.707581	1302.649902	3381.399170	2058.348389	36.353519
745.028198	1302.429443	3367.504395	2054.819580	36.434036
745.348816	1299.562378	3355.815430	2044.894897	36.247124
745.669373	1297.357056	3337.620605	2042.027710	36.498749
745.989929	1295.261963	3316.558350	2032.985352	36.497536
746.310364	1293.497437	3301.892090	2030.779907	36.710041
746.630798	1294.159180	3289.431641	2030.118164	36.885136
746.951172	1290.409912	3286.343750	2030.448975	37.077335
747.271545	1286.109375	3276.529297	2029.567139	37.351807
747.591858	1290.299683	3275.537109	2028.133423	37.166019
747.912109	1295.261841	3266.936035	2019.531982	36.733765
748.232300	1291.512695	3258.555176	2023.281250	37.201462
748.552429	1294.159180	3245.542725	2017.106079	37.047913
748.872559	1289.637817	3235.066895	2015.452026	37.308697
749.192627	1293.387329	3235.287598	2012.695068	37.041435
749.512695	1293.166626	3236.941162	2006.630249	36.705059
749.832642	1293.938477	3234.956543	2001.116577	36.433361
750.152588	1295.592651	3234.625732	2004.976196	36.584396
750.472473	1295.592651	3243.116455	2005.086548	36.430565
750.792358	1297.246704	3246.204346	2001.116577	36.115196
751.112122	1298.570068	3241.242188	2002.109131	36.215019
751.431824	1300.775391	3249.181641	1995.161865	35.638691
751.751587	1300.334351	3246.093750	1991.412720	35.517155
752.071228	1299.452148	3243.447510	1995.382568	35.798977
752.390869	1300.665161	3240.911133	1993.287354	35.697647
752.710327	1303.752808	3238.595215	1991.964111	35.569374
753.029846	1303.201416	3238.595215	1987.773682	35.371212
753.349304	1304.524780	3236.610596	1983.473022	35.140686
753.668762	1305.186279	3230.545654	1977.297852	34.908371
753.988098	1304.965820	3223.157471	1973.658813	34.860592
754.307434	1304.193848	3213.674072	1973.438477	35.048523
754.626770	1303.862915	3210.917480	1973.548706	35.116238
754.946045	1302.760376	3209.262939	1967.924683	34.889244
755.265259	1299.011108	3208.050293	1968.806885	35.085491
755.584351	1300.885742	3207.277832	1966.822021	34.931759
755.903442	1299.562500	3202.756592	1964.947388	34.961483
756.222534	1298.459839	3192.391357	1965.278076	35.208149
756.541565	1296.033813	3191.288330	1960.205322	35.043922
756.860535	1295.813354	3191.178223	1954.140259	34.733517
757.179443	1294.820923	3185.995605	1952.596680	34.781334
757.498291	1297.467529	3183.789795	1952.817139	34.742188
757.817139	1300.665405	3188.752197	1951.714600	34.481953
758.135925	1302.540039	3184.892822	1953.037964	34.557705
758.454651	1301.657837	3183.569092	1952.596924	34.589256
758.773376	1305.958374	3179.820313	1946.531982	34.184673
759.092041	1306.178955	3185.002930	1946.973022	34.106125
759.410645	1302.540039	3189.193359	1944.987915	34.052250
759.729187	1301.547485	3180.482178	1947.854858	34.397545
760.047607	1301.768188	3185.223633	1950.611816	34.449642
760.366089	1305.406982	3187.319092	1954.140625	34.472050
760.684509	1305.186523	3201.543945	1962.962280	34.686275
761.002869	1305.627563	3227.237305	1972.445679	34.701015
761.321228	1304.193970	3265.833008	1984.685791	34.689960
761.639465	1306.840576	3313.470703	2007.181519	34.901348
761.957642	1306.730225	3365.739990	2029.236084	35.089966
762.275879	1304.965820	3409.297607	2047.761963	35.298431
762.593994	1303.752930	3447.561768	2065.846924	35.548599
762.912109	1302.539673	3483.180176	2079.520508	35.630852
763.230103	1305.296387	3503.359863	2095.399658	35.945427
763.548157	1302.649780	3515.710449	2102.788086	36.155285
763.866150	1302.980713	3529.274170	2109.293945	36.217743
764.184021	1301.326660	3539.860596	2114.145996	36.310341
764.501892	1298.018555	3546.587158	2113.594727	36.270905
764.819702	1295.923340	3544.491699	2114.366699	36.398418
765.137451	1296.474731	3548.792725	2110.727783	36.151783
765.455200	1292.504883	3554.416748	2118.777588	36.529835
765.772888	1293.607666	3544.161377	2117.564453	36.611290
766.090515	1293.828247	3534.347168	2117.012939	36.740803
766.408081	1295.371948	3534.897949	2111.499512	36.441978
766.725586	1293.938477	3525.415283	2108.412109	36.499310
767.043091	1294.269287	3515.600342	2104.552246	36.477360
767.360535	1294.820679	3500.824463	2095.289551	36.285923
767.677917	1293.497437	3468.404053	2086.026367	36.439674
767.995239	1291.512573	3422.089355	2069.816406	36.530197
768.312500	1292.174194	3362.983643	2045.446045	36.375717
768.629822	1290.299561	3302.553467	2018.208740	36.173824
768.947021	1290.520142	3246.204346	1992.294678	35.883839
769.264160	1294.379639	3190.406738	1967.704102	35.512386
769.581299	1294.379639	3148.392822	1948.627075	35.288177
769.898376	1292.505005	3111.230713	1931.093506	35.111866
770.215393	1292.174072	3077.928467	1917.970947	35.043839
770.532349	1292.504883	3049.698975	1905.951660	34.910587
770.849304	1291.512451	3019.925293	1896.688477	35.013397
771.166199	1290.740601	2998.863281	1891.726318	35.183990
771.483032	1287.542725	2981.770752	1883.566040	35.179638
771.799866	1288.645508	2961.260010	1882.242920	35.489193
772.116577	1291.622803	2940.528564	1869.451294	35.043148
772.433350	1293.938599	2928.509033	1864.489014	34.905220
772.749939	1294.931030	2919.025391	1864.489014	35.069267
773.066589	1294.048828	2905.131348	1864.047852	35.379879
773.383057	1297.357178	2888.811035	1855.997803	35.102535
773.699646	1298.680420	2876.460205	1851.366577	35.029358
774.016113	1300.885864	2860.029785	1849.051025	35.158085
774.332520	1303.201660	2851.208008	1838.464844	34.577583
774.648804	1308.494751	2842.055176	1832.951294	34.198624
774.965149	1307.943359	2831.689697	1828.099121	34.136639
775.281433	1313.126099	2820.993164	1824.349854	33.903767
775.597656	1313.677490	2814.156494	1822.034058	33.879620
775.913879	1312.905640	2807.540283	1819.718140	33.908787
776.229980	1314.449463	2797.836426	1815.417603	33.771912
776.546082	1312.023315	2787.691162	1810.675781	33.791645
776.862122	1315.882935	2780.854248	1807.367798	33.549110
777.178162	1317.978149	2771.812012	1805.603394	33.540646
777.494141	1315.331421	2767.621582	1801.964478	33.507977
777.809998	1314.780151	2755.822266	1793.583740	33.226204
778.125854	1316.544556	2750.309082	1789.393188	32.979519
778.441711	1317.426758	2744.133789	1784.431030	32.733017
778.757446	1316.323975	2737.847900	1779.909790	32.611889
779.073181	1313.567017	2733.547363	1778.145630	32.717258
779.388855	1316.323853	2727.702637	1774.837402	32.486923
779.704468	1315.552124	2723.623047	1768.221191	32.148170
780.020020	1310.258911	2717.888672	1765.023071	32.307087
780.335571	1311.251343	2708.736328	1767.890015	32.675747
780.651062	1310.479492	2703.222168	1762.155884	32.430714
780.966553	1307.722656	2697.708740	1757.634644	32.368092
781.281860	1301.657471	2686.020020	1756.201050	32.834145
781.597290	1301.767944	2678.631592	1752.672607	32.748680
781.912476	1299.231812	2675.102783	1751.018555	32.836418
782.227722	1300.775635	2666.060547	1747.269287	32.703331
782.542908	1299.011108	2654.923096	1746.387085	32.994469
782.858093	1299.452148	2642.682373	1741.865845	32.936550
783.173218	1302.539917	2640.256836	1738.116455	32.561188
783.488281	1300.003662	2639.595215	1734.367188	32.425072
783.803345	1299.562622	2630.883789	1724.332397	31.905884
784.118225	1301.547485	2618.202148	1723.340088	32.035172
784.433167	1302.208862	2609.821533	1721.354858	32.054295
784.748047	1303.532227	2603.425537	1718.046631	31.888340
785.062866	1306.619995	2590.193115	1715.400269	31.847057
785.377686	1305.958374	2579.276123	1714.187256	32.060253
785.692444	1306.619995	2568.689697	1706.578491	31.690681
786.007141	1305.517334	2564.830078	1699.190063	31.260918
786.321716	1308.825439	2558.765137	1701.285400	31.398312
786.636353	1311.141113	2562.073242	1702.388184	31.276443
786.950928	1309.487061	2567.256104	1698.307983	30.913540
787.265442	1308.715088	2574.313721	1698.528687	30.800728
787.579834	1304.414551	2570.674561	1701.947144	31.394232
787.894226	1308.163696	2576.850098	1698.197876	30.743151
788.208618	1304.193970	2578.834961	1697.426025	30.850416
788.522949	1305.517212	2574.424072	1692.794678	30.520559
788.837219	1302.870605	2574.424072	1692.243286	30.621809
789.151367	1303.752808	2579.937500	1690.037720	30.268730
789.465515	1301.657593	2579.937744	1696.433594	30.883371
789.779602	1299.893188	2571.005615	1698.307983	31.343788
790.093689	1303.973267	2559.427002	1700.403320	31.576635
790.407776	1300.554688	2555.016113	1705.255371	32.260910
790.721741	1299.672607	2549.943848	1700.513550	32.060318
791.035645	1298.018555	2541.562988	1696.654053	32.056393
791.349548	1296.695190	2534.615967	1696.984985	32.335655
791.663391	1293.938477	2536.270020	1693.235474	32.140938
791.977173	1296.805664	2532.630859	1690.148071	31.828321
792.290894	1296.254150	2521.714111	1688.273438	31.989563
792.604614	1298.790771	2510.466064	1685.626831	31.925720
792.918274	1299.231812	2501.754639	1680.443848	31.701023
793.231812	1298.680542	2485.764893	1675.702148	31.760305
793.545410	1298.459839	2473.083496	1672.834961	31.871922
793.858948	1300.113892	2456.983398	1671.622070	32.113232
794.172363	1304.524780	2451.690186	1668.313843	31.711998
794.485840	1302.209106	2442.427490	1668.534546	32.127655
794.799194	1308.494629	2439.449951	1670.078125	31.971510
795.112488	1307.171265	2438.126953	1670.188599	32.098282
795.425781	1309.156128	2435.370117	1668.644775	31.920101
795.738953	1305.958374	2428.533203	1667.983032	32.249489
796.052185	1307.061035	2428.753906	1659.271729	31.399923
796.365234	1307.171265	2428.754150	1657.617554	31.245687
796.678284	1305.627441	2429.966797	1655.301880	31.100435
796.991333	1308.825317	2427.540771	1652.545166	30.724510
797.304382	1309.927979	2429.305176	1655.632568	30.883656
797.617310	1312.023193	2428.974121	1659.271729	31.088970
797.930115	1312.574463	2422.468262	1656.184326	30.958805
798.242981	1314.890259	2417.726318	1654.750732	30.816954
798.555786	1313.236084	2413.425781	1655.632568	31.121586
798.868530	1317.205933	2412.764160	1655.522461	30.880743
799.181213	1313.346436	2411.110352	1655.742920	31.190357
799.493896	1313.125854	2406.479004	1652.104004	31.003536
799.806519	1316.985474	2406.037842	1650.008911	30.579195
800.119080	1318.198608	2402.068115	1644.936401	30.145493
800.431580	1315.000610	2392.033203	1638.760986	30.060406
800.744080	1313.897949	2382.329346	1633.798706	29.941160
801.056458	1315.000732	2373.948486	1628.505615	29.605322
801.368835	1312.133667	2360.054199	1621.227539	29.495926
801.681152	1314.890381	2348.144531	1616.926880	29.231579
801.993408	1316.765015	2338.440430	1614.721313	29.163500
802.305664	1319.962891	2329.397949	1609.428345	28.675985
802.617798	1320.845093	2318.812012	1607.994751	28.773464
802.929993	1320.403809	2310.431396	1603.363525	28.580994
803.242065	1321.396240	2301.058105	1600.165527	28.455664
803.554016	1318.418945	2295.985596	1597.188232	28.516653
803.865967	1318.639404	2289.479492	1592.666992	28.225821
804.177979	1316.103271	2288.045898	1588.587036	28.034964
804.489807	1314.890381	2288.045654	1589.579468	28.226645
804.801697	1311.251343	2286.281494	1590.020508	28.590824
805.113464	1310.369263	2280.547363	1586.491821	28.461018
805.425232	1306.730225	2282.311523	1586.491577	28.676374
805.736938	1305.627563	2277.900879	1585.058228	28.739929
806.048584	1300.554932	2273.269287	1583.293945	29.067013
806.360168	1297.467285	2267.535400	1584.065796	29.544163
806.671753	1296.915771	2257.280029	1582.632202	29.750839
806.983276	1298.790527	2257.831299	1582.852661	29.619402
807.294739	1300.223999	2252.979248	1582.963135	29.675947
807.606140	1301.437012	2248.568359	1580.757813	29.491241
807.917542	1301.326782	2247.906738	1578.883057	29.322010
808.228760	1301.216431	2242.393311	1578.111206	29.420057
808.540100	1300.223999	2231.917236	1576.126343	29.613003
808.851318	1297.026123	2225.080322	1574.472046	29.895445
809.162476	1297.356934	2217.361328	1571.494751	29.797447
809.473633	1297.246704	2212.840088	1568.076416	29.579693
809.784668	1291.071411	2206.113525	1566.642700	30.115694
810.095703	1295.813110	2194.975830	1564.988647	29.936243
810.406738	1298.570068	2186.594971	1562.562500	29.728045
810.717590	1302.870605	2174.465332	1559.144165	29.402836
811.028503	1303.311890	2163.548096	1552.858521	29.009083
811.339294	1303.201416	2153.733887	1547.234619	28.691814
811.650085	1302.209106	2148.661377	1546.021729	28.804060
811.960876	1299.231812	2137.082764	1540.067017	28.744396
812.271545	1301.988525	2129.143311	1536.538330	28.356216
812.582153	1309.045898	2126.496582	1534.332886	27.559704
812.892761	1307.281616	2116.902832	1531.906860	27.744486
813.203308	1302.980957	2115.579590	1534.994507	28.552048
813.513855	1303.973511	2111.058594	1532.347900	28.296198
813.824280	1303.311768	2107.530029	1530.914307	28.301090
814.134705	1301.988525	2105.765869	1533.891724	28.851671
814.445068	1301.437012	2096.943604	1530.363037	28.777390
814.755371	1301.437012	2098.156738	1528.488525	28.498291
815.065613	1299.562378	2102.016113	1528.819336	28.569492
815.375854	1302.980835	2101.354492	1529.921997	28.425432
815.686035	1302.208984	2104.111328	1528.047363	28.162828
815.996155	1303.311646	2104.442139	1530.363037	28.341373
816.306152	1308.053467	2105.544922	1527.606201	27.530418
816.616211	1306.840454	2114.036133	1527.054810	27.281408
816.926208	1303.091187	2117.675049	1530.032227	27.859751
817.236145	1303.752930	2126.166016	1533.340454	27.916327
817.546021	1304.524780	2139.619141	1541.941528	28.429932
817.855774	1305.186401	2151.638916	1550.101685	28.934320
818.165588	1305.958252	2168.951660	1558.261841	29.235865
818.475281	1309.928101	2192.218750	1569.068604	29.371330
818.784973	1305.406860	2222.102783	1578.000610	29.736551
819.094604	1299.231689	2250.112061	1589.910156	30.569405
819.404175	1298.790405	2295.434082	1602.922241	30.515604
819.713684	1298.680298	2358.620117	1631.703369	31.419054
820.023254	1297.577515	2484.661865	1689.375977	33.005108
820.332642	1295.923340	2704.766113	1781.894775	34.494370
820.642090	1295.923584	2994.231445	1900.327393	35.588589
820.951416	1296.144043	3298.804688	2031.331299	36.710526
821.260681	1292.725586	3552.982910	2130.576660	37.068836
821.569946	1293.497559	3751.914551	2206.554199	37.140022
821.879150	1294.159180	3915.779785	2268.196777	37.154026
822.188293	1295.592773	4045.460449	2321.237793	37.297977
822.497437	1298.018799	4152.204102	2363.472412	37.329517
822.806458	1298.018799	4247.811035	2399.641846	37.345783
823.115479	1298.790649	4328.861328	2430.628418	37.353508
823.424438	1300.334473	4405.721191	2454.116211	37.154205
823.733337	1295.813232	4468.245605	2478.817383	37.290131
824.042236	1296.144043	4520.073730	2495.468506	37.200703
824.351013	1295.372192	4567.932129	2514.104736	37.240952
824.659790	1297.467407	4607.079102	2530.976318	37.270500
824.968445	1297.908447	4665.522949	2560.419189	37.489765
825.277100	1301.106445	4735.656250	2591.957275	37.584282
825.585693	1304.635010	4822.220703	2628.457520	37.634407
825.894287	1309.376709	4879.562012	2653.819824	37.657516
826.202820	1314.890381	4901.395996	2651.394043	37.264786
826.511292	1313.787720	4834.019531	2623.715820	37.211414
826.819702	1316.213745	4662.435059	2548.620117	36.829796
827.128113	1320.073242	4409.911133	2441.324951	36.288368
827.436401	1319.962769	4141.618164	2324.656494	35.606537
827.744751	1321.506592	3911.148438	2236.769287	35.343216
828.052917	1322.057983	3731.293945	2166.305176	35.042114
828.361145	1319.521729	3583.308105	2105.986328	34.741116
828.669312	1320.183350	3465.977295	2059.781738	34.467354
828.977356	1315.993164	3366.732178	2020.965942	34.376522
829.285400	1312.464233	3275.867920	1990.309937	34.524010
829.593384	1310.920532	3197.353516	1959.874634	34.401123
829.901306	1307.833008	3122.257813	1935.835571	34.611660
830.209167	1312.133667	3057.858887	1911.354858	34.325058
830.517029	1312.795288	2998.532471	1888.418213	34.146660
830.824829	1314.669922	2946.704346	1869.010010	33.966202
831.132568	1311.802856	2898.073975	1846.293701	33.694798
831.440247	1308.935791	2841.724609	1815.968994	33.079128
831.747925	1308.384399	2783.059814	1798.435791	33.231136
832.055481	1305.848022	2716.786133	1773.514160	33.145760
832.363037	1306.178833	2668.706787	1758.186035	33.174160
832.670532	1304.635010	2628.898438	1746.717773	33.383293
832.977966	1306.178833	2611.034180	1733.154419	32.722061
833.285400	1308.825317	2591.847168	1732.051514	32.986671
833.592712	1306.840454	2572.659668	1725.545410	33.077785
833.900085	1307.391724	2552.700195	1719.811157	33.117855
834.207275	1302.760254	2539.798096	1715.951660	33.401680
834.514526	1301.767822	2527.668213	1710.658691	33.354332
834.821716	1302.760376	2517.964111	1713.194702	33.774940
835.128784	1303.091187	2508.921631	1711.320313	33.854603
835.435852	1306.399292	2503.297852	1706.247925	33.407063
835.742798	1308.163696	2494.696533	1699.079956	32.946098
836.049805	1307.722534	2485.323730	1698.859619	33.214733
836.356750	1309.597168	2474.847656	1692.022461	32.819149
836.663574	1306.950562	2463.930664	1685.626831	32.729713
836.970398	1307.060913	2452.021484	1686.178223	33.111824
837.277161	1304.524658	2437.244629	1674.930298	32.700546
837.583923	1305.075928	2424.122314	1672.283813	32.814358
837.890564	1308.053345	2396.774658	1662.800415	32.583828
838.197205	1308.604858	2354.650391	1642.289673	31.899645
838.503784	1311.692505	2308.005371	1620.014648	30.946318
838.810303	1309.376709	2257.059326	1595.644287	30.207115
839.116699	1306.509766	2211.626953	1573.920776	29.544352
839.423096	1309.046021	2160.791260	1558.813477	29.324198
839.729492	1308.715210	2120.541992	1542.493042	28.796516
840.035828	1304.745361	2089.996582	1530.362915	28.731895
840.342102	1302.760620	2067.500732	1516.468628	27.945181
840.648315	1308.494751	2039.601807	1502.794800	26.576141
840.954529	1311.692505	2021.517090	1499.155884	26.409819
841.260620	1313.015747	2003.432251	1486.474609	25.123800
841.566711	1310.258911	1989.207275	1477.321899	24.606140
841.872803	1309.707397	1968.365845	1471.918579	24.627510
842.178772	1312.795044	1954.250977	1467.507568	24.118963
842.484680	1310.920532	1935.394165	1458.685791	23.662369
842.790588	1312.574585	1921.830688	1455.487915	23.457020
843.096436	1313.567017	1911.354858	1448.320190	22.541973
843.402222	1314.118286	1899.996826	1439.057251	21.325062
843.707947	1315.551880	1889.300415	1434.646362	20.757261
844.013611	1315.993042	1878.162720	1426.265625	19.615534
844.319275	1313.125977	1861.070679	1422.626709	19.983902
844.624817	1314.118530	1844.529785	1408.070679	17.713076
844.930359	1311.913086	1820.380005	1397.815430	16.894382
845.235901	1311.030884	1800.530884	1385.905884	15.296221
845.541321	1315.993164	1778.035400	1377.414795	13.293510
845.846680	1311.913086	1765.354004	1369.144287	12.621534
846.152039	1311.472046	1751.459839	1360.432861	11.127767
846.457275	1316.323975	1736.793335	1355.580933	9.336461
846.762512	1318.308838	1724.553223	1350.067261	7.817566
847.067749	1316.654785	1716.392822	1347.310425	7.668932
847.372925	1315.110840	1705.365479	1340.583740	6.527251
847.677979	1313.125977	1699.410889	1339.701660	6.879814
847.983032	1314.669922	1687.391235	1336.614014	5.887533
848.288025	1310.369263	1681.767456	1335.070313	6.650826
848.592957	1309.045898	1679.782349	1334.739380	6.930390
848.897888	1312.905518	1675.812744	1335.070190	6.107532
849.202759	1312.133667	1675.151001	1331.982666	5.467782
849.507507	1308.715210	1670.739990	1332.092773	6.457448
849.812317	1308.825439	1668.093506	1333.636719	6.906063
850.117004	1308.163818	1667.211182	1336.393433	7.862365
850.421631	1305.958374	1663.682617	1338.047485	8.970348
850.726257	1304.745361	1661.146240	1334.077637	8.230136
851.030823	1304.635010	1660.154053	1337.165405	9.150113
851.335327	1303.421875	1660.264282	1336.062622	9.147104
851.639771	1301.326782	1656.404785	1339.370850	10.714285
851.944153	1296.805664	1654.419800	1343.671387	13.105109
852.248535	1297.136353	1657.507446	1344.443481	13.127337
852.552856	1295.041260	1663.792725	1343.450928	13.127994
852.857056	1291.733032	1663.131104	1345.546265	14.489367
853.161255	1286.770874	1662.579834	1349.185303	16.608021
853.465393	1284.124268	1660.594727	1349.846924	17.457586
853.769531	1279.382568	1652.765381	1349.626343	18.812803
854.073547	1280.044189	1649.788086	1345.987305	17.834808
854.377563	1280.375000	1644.715576	1348.523560	18.704630
854.681580	1280.485474	1645.156616	1347.751587	18.445692
854.985474	1280.926392	1640.194336	1350.067261	19.244932
855.289307	1279.492920	1640.525269	1348.744141	19.181444
855.593140	1276.736084	1639.312134	1345.987183	19.099745
855.896851	1277.066895	1640.525269	1345.656372	18.871344
856.200623	1276.736084	1638.981445	1341.245361	17.808172
856.504272	1275.633423	1635.783691	1338.819336	17.544319
856.807922	1278.169678	1635.452759	1333.967407	15.617232
857.111389	1280.044312	1639.312256	1332.203003	14.518047
857.414978	1278.390259	1637.768555	1334.408569	15.587561
857.718445	1279.382568	1635.121826	1334.298462	15.437119
858.021790	1284.565308	1632.585693	1330.990234	13.339715
858.325195	1287.322144	1635.452881	1326.358765	11.213207
858.628479	1291.071655	1630.380371	1323.050537	9.424716
858.931763	1289.637817	1624.315308	1321.396606	9.489371
859.234985	1288.866089	1626.410522	1318.860352	8.886019
859.538147	1291.071533	1623.763916	1317.536987	7.954932
859.841248	1294.710571	1626.410522	1315.882935	6.382987
860.144287	1297.687866	1629.828857	1316.323975	5.610903
860.447266	1298.459717	1628.615723	1318.970459	6.212440
860.750305	1296.915894	1632.585571	1319.301270	6.668870
861.053223	1299.121338	1634.680786	1319.962891	6.210987
861.356018	1295.592651	1635.342407	1315.110962	5.744908
861.658813	1294.489746	1634.460205	1311.913086	5.124957
861.961609	1299.672607	1630.049316	1314.559570	4.506057
862.264343	1299.562256	1629.056885	1319.631958	6.091056
862.567017	1301.216309	1630.821289	1320.734741	5.921765
862.869629	1302.539673	1627.843994	1321.286133	5.762745
863.172180	1302.429443	1623.322754	1323.050537	6.426153
863.474670	1302.980713	1619.463135	1324.484009	6.794468
863.777161	1304.083496	1617.037231	1323.491577	6.201581
864.079590	1303.973267	1616.044800	1323.050537	6.113108
864.381958	1302.760254	1622.330322	1326.689453	7.487935
864.684265	1300.665161	1622.991943	1328.564209	8.655517
864.986511	1297.246704	1621.889160	1330.549072	10.258168
865.288757	1299.341797	1621.338013	1329.666992	9.417873
865.590942	1301.988281	1621.117432	1329.005371	8.465879
865.893066	1303.642578	1622.661133	1330.880127	8.537920
866.195068	1301.988403	1619.352905	1331.321167	9.242610
866.497131	1300.223999	1619.353027	1329.666992	9.226047
866.799133	1304.193848	1623.874023	1332.203369	8.761732
867.100952	1304.965698	1619.794067	1332.534058	8.756631
867.402832	1306.619751	1616.816650	1326.799805	6.505563
867.704651	1309.597168	1615.272827	1326.799927	5.627782
868.006409	1309.045898	1617.808960	1331.431396	7.250057
868.308105	1307.612305	1620.345459	1331.541626	7.651674
868.609802	1310.810303	1620.896973	1325.697266	4.800904
868.911438	1310.148682	1618.360474	1325.145874	4.865872
869.213013	1310.479370	1617.478394	1326.028076	5.064741
869.514465	1310.258911	1621.117432	1322.940430	4.079515
869.815979	1312.133545	1620.345459	1323.161011	3.577884
870.117371	1311.802734	1622.771362	1320.624756	2.836949
870.418701	1315.000610	1624.425537	1322.940430	2.565992
870.720093	1317.536987	1622.440674	1320.293945	0.904206
871.021301	1319.080811	1621.558350	1321.065796	0.656242
871.322571	1320.955322	1622.550781	1322.830078	0.621613
871.623718	1319.301392	1625.638550	1330.438843	3.635684
871.924805	1318.088379	1625.417969	1332.975098	4.843894
872.225891	1318.970581	1625.528442	1335.401123	5.359687
872.526917	1321.396484	1629.277588	1336.724365	4.978507
872.827881	1323.491699	1626.631104	1337.606445	4.656190
873.128784	1318.970459	1619.242920	1335.401001	5.471878
873.429626	1317.867798	1620.345581	1333.085205	5.030917
873.730408	1317.757568	1618.691406	1339.150391	7.108812
874.031189	1314.338989	1621.338013	1342.127563	9.051682
874.331848	1314.780151	1621.227661	1341.245483	8.636171
874.632568	1311.692627	1620.786499	1339.481079	8.990295
874.933167	1311.251343	1620.896973	1342.679077	10.149581
875.233704	1309.156250	1623.102295	1344.112427	11.134454
875.534241	1308.494629	1626.630981	1343.120117	10.883852
875.834717	1307.171509	1627.513184	1347.972046	12.736568
876.135071	1303.752930	1634.570679	1348.523438	13.533285
876.435425	1302.539917	1634.019165	1347.420776	13.539568
876.735779	1304.635132	1635.893799	1346.869385	12.749630
877.036011	1298.901001	1636.004150	1347.089966	14.295021
877.336182	1297.246948	1638.650635	1348.192627	14.922416
877.636353	1294.931152	1645.928589	1349.185059	15.457067
877.936462	1294.931030	1651.001099	1343.450928	13.626503
878.236511	1297.908447	1661.366821	1346.317871	13.319111
878.536560	1297.798218	1679.782349	1349.074707	13.423722
878.836487	1297.246826	1703.049805	1358.668457	15.135825
879.136414	1294.379639	1762.486816	1383.369507	19.010576
879.436279	1291.843506	1852.138428	1420.090454	22.889187
879.736084	1293.276855	1963.513550	1465.192017	25.649918
880.035828	1290.961182	2086.908691	1513.711914	27.985605
880.335510	1293.938477	2202.694824	1560.908447	29.377508
880.635193	1293.276855	2303.594238	1599.503906	30.309986
880.934753	1297.797852	2393.576904	1637.989014	31.045599
881.234314	1296.474854	2473.193359	1667.100952	31.496582
881.533752	1298.569946	2539.467529	1689.155640	31.476063
881.833252	1297.798096	2600.889404	1711.651245	31.759336
882.132629	1298.570068	2658.892822	1733.705566	31.987665
882.431946	1298.680298	2704.766113	1748.592285	31.997477
882.731323	1299.893433	2746.559326	1768.551758	32.395756
883.030579	1298.459839	2780.192627	1782.666626	32.678413
883.329712	1298.018677	2813.053955	1794.355713	32.760757
883.628845	1298.790527	2833.675049	1803.728760	32.897472
883.927979	1298.900879	2847.128174	1804.831421	32.678055
884.226990	1299.452148	2858.045166	1811.999268	32.885242
884.526001	1296.144043	2861.684082	1812.109619	32.957672
884.824951	1296.695435	2855.398682	1811.558228	33.031483
885.123840	1295.702881	2838.306396	1804.831421	33.004498
885.422729	1297.687744	2793.645996	1782.666626	32.419281
885.721497	1300.223999	2709.948975	1749.915771	31.899256
886.020203	1301.216553	2605.962158	1709.666260	31.304930
886.318909	1302.760376	2484.331299	1660.374390	30.265980
886.617554	1302.980835	2367.773193	1613.729004	29.183922
886.916138	1302.980957	2268.858643	1573.700195	28.028315
887.214661	1300.554932	2181.522705	1536.869019	26.824373
887.513184	1301.106323	2099.369629	1504.338623	25.459307
887.811523	1298.018677	2028.905518	1481.291748	25.075438
888.109924	1303.752808	1794.686401	1403.328979	20.283022
888.408264	1292.174194	1871.105347	1387.118896	16.400000
888.706543	1294.489868	1690.478760	1424.170532	32.748562
889.004761	1331.541504	1743.740479	1419.539063	21.348320
889.302979	1313.015747	1655.742920	1359.330200	13.513505
889.601135	1329.225830	1637.217163	1389.434570	19.548841
889.899170	1282.911255	1678.900146	1319.962891	9.356736
890.197205	1313.015747	1667.321533	1333.857178	5.882329
890.495178	1299.121338	1597.849854	1282.911255	-5.426360
890.793091	1271.332642	1570.061157	1299.121338	9.302324
>>>>>End Processed Spectral Data<<<<<
