Jaz Data File
++++++++++++++++++++++++++++++++++++
Date: Thu Sep 26 04:29:48 2019
User: jaz
Dark Spectrum Present: Yes
Reference Spectrum Present: Yes
Processed Spectrum Present: Yes
Spectrometers: JAZA3541
Integration Time (usec): 100000 (JAZA3541)
Spectra Averaged: 1 (JAZA3541)
Boxcar Smoothing: 10 (JAZA3541)
Correct for Electrical Dark: No (JAZA3541)
Strobe/Lamp Enabled: Yes (JAZA3541)
Correct for Detector Non-linearity: No (JAZA3541)
Correct for Stray Light: No (JAZA3541)
Number of Pixels in Processed Spectrum: 2048
>>>>>Begin Processed Spectral Data<<<<<
W	D	R	S	P
190.543274	0.000000	0.000000	0.000000	0.000000
190.921555	0.000000	0.000000	0.000000	0.000000
191.299805	1296.805664	1336.172974	1160.177856	-347.059052
191.678024	1229.649658	1322.278564	1123.126343	-115.000076
192.056229	1345.435913	1313.015747	1146.283569	614.285400
192.434387	1331.541504	1278.279907	1153.230713	334.783051
192.812531	1303.752808	1324.594360	1213.439575	-433.332550
193.190659	1310.699951	1296.805664	1197.229492	816.669861
193.568741	1319.962891	1359.330200	1222.702515	-247.058731
193.946793	0.000000	0.000000	0.000000	0.000000
194.324829	1207.815674	1211.785522	1087.949463	-3019.415039
194.702835	1271.994385	1273.317627	1146.283569	-9500.211914
195.080811	1337.606445	1335.070313	1202.412354	5330.718262
195.458755	1337.827148	1332.203125	1203.515137	2388.183594
195.836685	1338.268188	1331.541626	1207.374512	1945.922241
196.214569	1339.811890	1336.172974	1207.705322	3630.382324
196.592422	1341.907104	1340.032471	1209.469727	7064.706543
196.970261	1342.679077	1342.127686	1207.705444	24478.724609
197.348068	1343.781860	1343.120117	1211.013550	20063.419922
197.725861	1344.222900	1342.127563	1210.682739	6373.207031
198.103622	1343.561279	1338.157837	1210.241699	2467.308350
198.481323	1340.253052	1337.496216	1211.895874	4655.959961
198.859039	1337.937378	1335.290771	1213.770508	4691.550293
199.236694	1335.070313	1335.621460	1212.447266	-22248.681641
199.614334	1333.416138	1335.511230	1211.344482	-5826.551270
199.991959	1329.115479	1337.937134	1212.557617	-1321.269775
200.369553	1324.373657	1337.826904	1210.793213	-844.260437
200.747101	1322.499023	1341.355835	1211.123779	-590.636658
201.124619	1320.514038	1341.576294	1210.131470	-524.077637
201.502136	1316.323608	1346.538452	1211.785400	-345.982941
201.879623	1313.677246	1349.736450	1213.990845	-276.452026
202.257065	1311.030640	1351.500854	1214.542114	-238.418610
202.634476	1309.927979	1352.934570	1214.762817	-221.280411
203.011871	1305.186279	1354.809082	1215.975708	-179.777374
203.389221	1303.091064	1361.866455	1217.629883	-145.403000
203.766571	1304.745117	1367.931519	1219.945557	-134.205399
204.143875	1300.334229	1365.064331	1222.371582	-120.442642
204.521164	1296.254272	1365.284912	1225.679688	-102.236610
204.898392	1297.798096	1363.300049	1227.885254	-106.733978
205.275620	1298.459717	1368.703369	1225.128418	-104.395622
205.652817	1293.718018	1368.482910	1225.569458	-91.150482
206.029984	1293.607666	1372.673218	1225.459229	-86.192322
206.407135	1291.953613	1374.988892	1225.128418	-80.478081
206.784225	1292.394775	1374.437378	1224.136108	-83.199051
207.161301	1293.607910	1372.893555	1226.010742	-85.257767
207.538376	1298.570190	1373.555176	1229.649780	-91.912277
207.915405	1302.209229	1370.798462	1227.223633	-109.325607
208.292404	1303.422119	1370.798584	1229.649780	-109.492744
208.669373	1305.406860	1366.718506	1225.900635	-129.675568
209.046310	1302.319336	1363.961670	1227.334106	-121.645668
209.423218	1303.863159	1361.645874	1225.790039	-135.115005
209.800095	1305.737793	1357.124756	1223.694946	-159.656921
210.176956	1308.715210	1353.265137	1225.679688	-186.387558
210.553787	1308.163818	1355.911743	1226.451660	-171.132370
210.930603	1309.597412	1356.242554	1229.098145	-172.578033
211.307358	1315.221313	1353.485718	1229.980347	-222.768311
211.684113	1317.316406	1349.846680	1229.539307	-269.832031
212.060837	1316.985596	1348.413086	1228.657104	-281.054871
212.437531	1316.765015	1350.839233	1229.208374	-256.958618
212.814178	1314.008179	1354.037109	1228.988037	-212.396729
213.190826	1312.574585	1351.280273	1229.098267	-215.669373
213.567413	1313.125977	1352.383057	1228.436523	-215.730392
213.943985	1310.258789	1357.345337	1227.554199	-175.643768
214.320541	1309.266479	1357.124756	1229.098145	-167.511963
214.697052	1307.612305	1361.315186	1229.318604	-145.790512
215.073563	1309.266357	1363.300049	1230.641968	-145.509933
215.449997	1303.863159	1360.874023	1224.577148	-139.071762
215.826431	1301.326904	1362.086914	1224.466797	-126.497849
216.202850	1300.334351	1364.954102	1225.679932	-115.528793
216.579224	1298.459717	1369.695923	1229.980591	-96.129662
216.955582	1300.885742	1374.989014	1231.744873	-93.303398
217.331894	1300.554932	1374.217041	1231.083374	-94.311119
217.708191	1300.003418	1376.863647	1230.642212	-90.243301
218.084442	1300.113770	1383.480103	1226.892822	-87.830353
218.460678	1296.915771	1384.141602	1229.098267	-77.749336
218.836899	1295.041260	1385.685303	1228.767456	-73.114349
219.213074	1292.615234	1387.339478	1228.105957	-68.102180
219.589233	1294.269287	1392.191650	1227.664673	-68.017776
219.965347	1296.805542	1398.697510	1229.980469	-65.584244
220.341431	1295.592529	1399.359131	1229.760010	-63.442879
220.717499	1296.254150	1400.241455	1233.729736	-60.126968
221.093552	1295.041260	1402.336548	1235.163330	-55.806671
221.469543	1299.011108	1407.078247	1233.950195	-60.204159
221.845535	1302.980835	1407.409058	1233.509155	-66.525772
222.221466	1305.296631	1411.709595	1233.729736	-67.253922
222.597397	1305.186279	1417.884766	1231.744751	-65.166382
222.973297	1302.760376	1426.706543	1232.075562	-57.028641
223.349167	1300.554932	1437.403076	1238.250854	-45.527893
223.725006	1297.467285	1446.996826	1240.456299	-38.126904
224.100800	1295.041260	1454.385010	1240.566650	-34.186852
224.476578	1295.372070	1465.081543	1241.889771	-31.514034
224.852325	1297.577515	1475.778076	1244.867065	-29.579283
225.228058	1298.680298	1495.847778	1251.704102	-23.825529
225.603760	1297.577637	1523.195313	1257.769043	-17.644270
225.979416	1295.261963	1552.086792	1273.317627	-8.544476
226.355057	1295.372192	1590.351318	1282.359985	-4.411230
226.730652	1296.805664	1642.069214	1293.497437	-0.958175
227.106232	1296.915894	1691.912231	1307.832886	2.763821
227.481796	1294.159180	1736.903687	1318.419067	5.479433
227.857315	1292.946167	1778.145630	1329.115479	7.454524
228.232788	1296.033813	1815.638184	1335.401001	7.576377
228.608246	1296.695435	1848.058350	1340.804443	7.999996
228.983704	1297.026245	1883.345459	1349.405640	8.933597
229.359100	1297.577637	1916.206665	1358.117310	9.786103
229.734482	1293.166748	1945.870117	1368.703491	11.572906
230.109833	1290.189453	1973.768921	1378.627930	12.937556
230.485153	1290.189331	1989.979126	1387.560059	13.914282
230.860443	1289.527710	2012.585205	1392.963379	14.305317
231.235703	1293.166748	2031.331421	1401.233887	14.639977
231.610931	1293.607788	2055.481445	1409.504395	15.212050
231.986145	1293.056396	2079.300049	1415.679565	15.596078
232.361313	1290.189209	2098.708252	1425.714355	16.762146
232.736465	1287.983765	2121.313965	1432.220459	17.308468
233.111572	1285.888550	2134.656982	1433.874390	17.435362
233.486664	1288.865845	2141.052734	1438.175171	17.520725
233.861725	1290.409668	2141.604248	1437.733887	17.307936
234.236755	1292.284302	2138.957520	1435.638794	16.931501
234.611771	1296.474731	2120.873047	1434.977295	16.800442
234.986740	1298.900635	2101.023926	1434.315430	16.882042
235.361679	1299.782959	2083.710938	1436.410889	17.428633
235.736588	1298.570068	2073.235107	1436.190186	17.765112
236.111496	1297.908447	2069.375488	1439.057373	18.296171
236.486343	1298.459717	2071.139893	1447.107178	19.237904
236.861160	1301.106323	2071.250000	1452.731079	19.687853
237.235962	1300.334351	2079.961426	1462.876099	20.848654
237.610733	1302.760376	2089.996338	1472.690430	21.585657
237.985474	1301.437134	2106.978271	1482.173828	22.436682
238.360199	1300.665283	2140.501221	1502.353760	24.015223
238.734879	1301.767944	2177.662842	1527.606201	25.783716
239.109543	1300.334473	2227.616455	1552.197021	27.161377
239.484177	1304.635132	2281.650146	1581.970581	28.385996
239.858749	1310.810303	2350.680908	1624.425537	30.159063
240.233322	1311.361694	2434.047119	1660.926025	31.136446
240.607864	1313.126099	2511.899414	1706.799072	32.839649
240.982391	1314.559570	2592.618896	1756.311523	34.564278
241.356857	1316.213745	2651.063232	1790.826782	35.555546
241.731308	1315.000610	2704.435059	1822.916138	36.555557
242.105728	1317.977905	2744.684814	1851.917969	37.424648
242.480118	1312.354126	2785.926758	1879.486084	38.486870
242.854492	1310.479492	2835.880127	1906.833740	39.094925
243.228836	1309.045898	2893.442383	1940.025635	39.824612
243.603134	1312.905518	2957.290283	1986.891357	40.987114
243.977402	1312.023193	3046.721436	2042.799438	42.126995
244.351654	1310.920532	3168.241699	2111.168457	43.086136
244.725861	1310.810303	3315.235107	2191.667725	43.945644
245.100067	1311.912964	3466.970215	2277.900879	44.824238
245.474213	1311.361694	3603.377197	2357.407471	45.638683
245.848343	1316.985474	3710.341553	2426.769043	46.369350
246.222443	1318.198486	3794.700195	2477.825195	46.825191
246.596512	1318.419067	3855.019287	2516.530762	47.232975
246.970566	1321.286133	3892.181641	2539.908691	47.400703
247.344574	1320.845093	3904.862793	2555.787598	47.791569
247.718567	1317.206055	3891.740234	2559.647217	48.258873
248.092529	1318.749756	3859.430420	2559.647217	48.841141
248.466431	1315.441650	3833.075195	2549.391846	49.012302
248.840332	1313.236206	3807.051025	2534.505127	48.971916
249.214203	1311.030640	3809.476563	2539.467285	49.168034
249.588043	1313.787598	3825.797363	2546.745605	49.082531
249.961838	1310.038330	3853.696045	2568.358887	49.468941
250.335617	1313.677124	3886.888428	2585.561279	49.427891
250.709381	1313.456665	3901.664795	2599.566162	49.691116
251.083084	1318.198608	3899.569824	2605.520752	49.869705
251.456787	1314.780029	3882.367188	2593.060303	49.785275
251.830460	1316.434204	3829.656738	2569.130859	49.844238
252.204071	1313.456787	3746.069824	2524.360107	49.777885
252.577667	1310.038452	3638.995117	2470.547119	49.829556
252.951248	1310.369263	3513.615234	2406.809814	49.764778
253.324799	1308.604858	3406.099365	2352.003906	49.745018
253.698303	1305.737671	3326.152100	2306.020508	49.508797
254.071793	1305.296631	3267.817627	2273.269287	49.322918
254.445236	1304.083618	3233.853760	2250.333008	49.034306
254.818665	1300.113770	3219.959473	2239.856934	48.948891
255.192062	1300.003418	3219.077393	2241.069824	49.037525
255.565430	1300.444458	3243.888672	2245.921875	48.649578
255.938782	1301.878052	3283.365967	2262.131836	48.461250
256.312103	1304.745117	3340.266846	2287.825439	48.296234
256.685364	1306.730225	3419.442383	2329.287842	48.400234
257.058594	1304.965820	3518.357178	2378.138672	48.485455
257.431793	1302.098633	3646.714600	2439.450439	48.509087
257.804993	1302.760254	3790.178955	2498.556396	48.073776
258.178162	1299.672729	3928.240234	2567.035645	48.214966
258.551270	1298.128906	4052.517578	2630.001465	48.354561
258.924377	1294.379639	4145.587402	2675.544189	48.441387
259.297485	1293.938599	4222.999023	2712.044189	48.415031
259.670502	1293.056396	4286.625977	2741.928223	48.399471
260.043518	1295.151489	4346.063477	2765.085449	48.180149
260.416473	1298.569946	4394.473145	2788.353027	48.121113
260.789459	1297.026123	4449.830078	2813.164307	48.088566
261.162354	1297.246704	4497.467773	2828.822998	47.858452
261.535278	1298.349365	4541.796875	2845.804932	47.710209
261.908142	1298.790527	4576.092285	2858.927002	47.604298
262.280975	1301.216553	4595.279297	2867.638672	47.552891
262.653717	1302.870605	4609.834961	2873.924072	47.507420
263.026520	1300.113892	4627.809570	2875.137207	47.330750
263.399261	1297.357056	4643.688477	2871.498047	47.040794
263.771973	1296.915894	4654.495605	2870.064697	46.853657
264.144653	1298.239258	4653.502930	2866.977051	46.754532
264.517334	1301.106323	4633.103027	2854.185303	46.611061
264.889954	1302.208862	4586.678223	2826.506836	46.409264
265.262543	1305.627563	4506.179199	2783.390381	46.172127
265.635071	1308.053589	4405.610840	2727.812988	45.834808
266.007599	1311.802856	4310.224609	2672.787109	45.390018
266.380127	1312.133545	4240.201660	2619.966553	44.665390
266.752594	1315.882935	4205.575684	2592.288330	44.170971
267.125031	1315.000732	4197.084473	2581.371094	43.939404
267.497437	1313.236328	4212.963867	2579.165771	43.656841
267.869843	1316.544556	4239.098633	2585.341064	43.413960
268.242218	1313.567261	4277.473633	2595.375977	43.247276
268.614532	1311.913208	4335.697754	2619.635742	43.247871
268.986816	1312.354126	4430.973633	2657.679688	43.138496
269.359100	1311.471924	4539.150879	2697.377930	42.938160
269.731354	1310.038452	4652.510742	2737.296387	42.700668
270.103516	1311.030762	4749.219727	2775.450684	42.592770
270.475708	1311.361572	4830.049805	2810.627686	42.608665
270.847839	1314.890381	4902.499023	2836.872314	42.423298
271.219971	1318.419067	4961.053711	2860.360596	42.330391
271.592041	1320.403809	5006.596191	2871.828857	42.087467
271.964081	1321.065552	5036.369629	2876.570801	41.867508
272.336151	1316.434204	5064.048340	2878.224854	41.674263
272.708130	1316.654785	5090.182129	2882.084473	41.484520
273.080109	1313.015869	5107.385254	2885.061768	41.431019
273.452026	1311.582275	5141.238770	2898.735107	41.443737
273.823914	1310.369263	5176.085449	2909.983154	41.379494
274.195770	1310.369263	5215.893555	2921.561523	41.254185
274.567627	1309.376831	5261.987793	2931.707031	41.044521
274.939423	1310.700073	5304.332031	2947.034668	40.973595
275.311249	1312.243896	5345.464355	2954.864014	40.727257
275.682983	1310.479492	5376.120117	2961.480225	40.608624
276.054688	1309.707520	5401.151855	2967.434814	40.516922
276.426422	1307.943115	5403.577148	2957.510498	40.276241
276.798065	1312.243896	5370.495117	2941.300537	40.141838
277.169708	1313.236206	5325.172852	2924.649658	40.165478
277.541321	1317.757446	5277.536133	2906.895752	40.131996
277.912903	1316.985352	5267.832031	2899.617432	40.058048
278.284424	1316.764893	5279.741211	2896.750488	39.868660
278.655945	1315.882813	5301.685547	2903.918213	39.842297
279.027435	1312.574707	5332.010254	2920.348877	40.000000
279.398865	1310.920532	5391.226563	2949.130127	40.149181
279.770294	1307.502075	5467.424805	2979.785889	40.199875
280.141663	1310.810303	5539.763672	3017.609375	40.359848
280.513031	1313.015869	5615.631348	3049.919189	40.368549
280.884369	1315.993164	5680.912598	3079.141602	40.393608
281.255676	1314.559570	5725.462402	3098.108398	40.435005
281.626953	1313.787720	5763.727051	3116.744385	40.516430
281.998199	1316.654907	5805.189453	3135.711426	40.526733
282.369385	1313.346680	5856.245605	3158.316895	40.612179
282.740540	1313.236328	5915.572754	3176.953125	40.495014
283.111694	1311.802856	5983.280273	3210.586670	40.646320
283.482819	1310.479492	6070.064941	3259.216553	40.943420
283.853912	1314.559570	6165.339844	3300.789551	40.946609
284.224945	1315.441772	6257.858398	3350.081055	41.166893
284.595978	1313.346436	6348.502930	3391.543945	41.273743
284.966980	1311.030762	6425.914551	3433.227051	41.490604
285.337952	1309.817749	6500.238281	3472.703857	41.670734
285.708893	1306.730103	6535.746094	3501.705811	41.976837
286.079803	1305.406860	6558.352051	3536.993408	42.482574
286.450684	1304.745239	6574.893066	3562.687012	42.843994
286.821533	1307.391846	6588.677246	3589.373047	43.208824
287.192322	1306.399414	6596.506836	3606.575439	43.480705
287.563110	1307.391968	6602.571289	3632.379150	43.907623
287.933868	1303.642700	6627.272461	3657.410645	44.213593
288.304596	1299.672852	6668.735352	3701.409668	44.732891
288.675262	1300.885742	6725.304199	3749.708984	45.144440
289.045929	1301.326782	6777.683594	3804.734863	45.713020
289.416565	1300.113770	6826.645020	3856.783936	46.261753
289.787170	1296.805664	6843.957520	3904.531738	47.010181
290.157745	1293.718018	6845.170898	3944.119873	47.742489
290.528259	1293.497437	6840.870605	3979.737793	48.423645
290.898773	1294.820801	6830.614746	4005.762207	48.971142
291.269226	1294.269287	6813.852539	4027.485840	49.518532
291.639679	1290.630371	6797.202148	4055.936279	50.218285
292.010101	1294.820801	6810.876465	4098.060059	50.819633
292.380463	1293.828369	6840.539551	4145.808105	51.417492
292.750824	1298.680298	6882.332031	4196.202148	51.892956
293.121155	1300.775391	6928.756836	4254.426270	52.481533
293.491455	1307.502197	6990.068359	4312.209473	52.875885
293.861725	1310.920532	7072.000977	4369.771973	53.095100
294.231964	1313.125977	7184.479004	4445.198242	53.344982
294.602142	1314.669678	7298.721680	4525.807617	53.661602
294.972321	1314.669800	7398.077148	4612.922852	54.217197
295.342468	1316.213623	7496.991699	4687.577637	54.545948
295.712555	1317.095825	7559.295410	4746.683594	54.941975
296.082672	1318.419067	7583.776855	4780.096191	55.251068
296.452728	1315.882813	7585.761719	4800.275879	55.573532
296.822693	1319.080688	7589.400879	4815.052246	55.754276
297.192657	1321.065552	7589.180664	4824.756348	55.897041
297.562622	1322.388916	7606.824219	4843.171875	56.023853
297.932556	1326.027954	7627.886230	4860.815430	56.091194
298.302460	1328.233398	7634.833496	4873.828125	56.220383
298.672333	1327.792358	7640.347656	4886.729980	56.378716
299.042145	1329.005127	7636.597656	4887.832520	56.421326
299.411957	1330.218140	7623.033691	4885.406738	56.495991
299.781677	1326.027954	7584.768555	4867.763184	56.588627
300.151428	1326.579224	7523.125977	4841.518555	56.724163
300.521149	1326.248291	7458.727051	4806.341797	56.748566
300.890839	1322.829956	7386.829590	4755.947266	56.614735
301.260468	1317.095825	7310.961914	4709.191406	56.592785
301.630096	1318.418945	7223.515625	4660.120117	56.590118
301.999695	1319.080688	7102.436523	4595.279785	56.648758
302.369232	1316.323975	6976.063965	4521.948242	56.639072
302.738739	1314.449219	6859.727051	4441.890137	56.398273
303.108246	1310.699951	6722.106445	4359.847168	56.346668
303.477692	1311.251343	6610.841309	4296.661621	56.332851
303.847137	1311.361816	6522.182129	4247.369629	56.344444
304.216553	1311.361572	6456.680176	4210.648438	56.348057
304.585876	1310.369141	6397.794434	4173.486816	56.278324
304.955231	1309.597046	6350.267090	4140.625488	56.163731
305.324493	1306.619751	6311.010254	4112.836914	56.075104
305.693787	1306.178711	6280.244629	4090.451172	55.975784
306.063049	1306.509521	6274.399414	4080.527100	55.838955
306.432251	1307.391846	6272.414551	4070.602783	55.653545
306.801422	1305.627319	6267.783691	4066.191895	55.632355
307.170593	1304.524658	6268.334961	4069.059082	55.693794
307.539673	1303.642456	6275.171875	4065.971436	55.562965
307.908783	1304.304077	6290.831055	4066.742920	55.398056
308.277832	1302.650146	6307.150879	4078.211670	55.461304
308.646851	1300.444702	6338.357910	4101.588867	55.601276
309.015839	1303.973389	6378.717773	4122.541016	55.541077
309.384796	1298.239258	6410.586914	4138.530273	55.557468
309.753723	1295.151733	6446.205566	4152.204102	55.465393
310.122620	1294.600220	6472.339844	4166.759766	55.471302
310.491486	1296.144165	6484.690430	4177.787109	55.538544
310.860352	1299.342041	6501.231445	4187.049805	55.512669
311.229126	1299.452148	6515.456055	4183.852539	55.299046
311.597931	1298.680298	6523.726074	4181.866699	55.180119
311.966675	1300.224121	6544.016602	4184.513672	55.003883
312.335388	1300.665161	6579.523926	4197.525879	54.876648
312.704071	1298.680298	6617.236816	4215.941406	54.850620
313.072723	1301.326904	6632.564941	4225.975586	54.858711
313.441345	1301.988525	6630.139160	4234.908203	55.045738
313.809875	1302.650146	6611.061523	4219.028809	54.938824
314.178436	1298.459839	6573.018066	4202.818848	55.063549
314.546967	1304.193970	6535.194824	4180.543945	54.986610
314.915466	1304.635132	6494.283691	4146.580566	54.761806
315.283936	1308.604858	6440.911621	4112.947266	54.640972
315.652374	1309.266602	6398.125977	4086.702393	54.578751
316.020752	1307.943237	6345.084961	4046.783447	54.372906
316.389130	1313.236328	6299.542480	4019.436035	54.272633
316.757416	1313.346680	6259.072266	3991.647217	54.153843
317.125732	1312.574585	6233.378418	3970.254150	54.009056
317.494019	1313.126099	6201.399414	3952.169678	53.987232
317.862274	1315.441895	6169.530762	3931.327637	53.890354
318.230469	1314.338989	6137.441406	3910.927734	53.836483
318.598663	1315.441772	6109.211914	3892.843262	53.765644
318.966797	1315.221069	6076.571289	3880.823242	53.883919
319.334930	1314.449341	6049.113281	3862.187500	53.810329
319.703003	1310.148682	6018.347656	3840.684570	53.747425
320.071045	1307.612305	5975.341309	3814.990723	53.717308
320.439056	1306.178711	5939.722656	3793.156738	53.673344
320.807037	1306.399292	5937.627441	3777.718262	53.362064
321.175049	1305.296631	5958.910156	3760.956787	52.768890
321.542969	1301.878052	5990.778809	3775.182373	52.748058
321.910828	1306.178711	6035.219238	3799.662842	52.727062
322.278717	1304.965820	6093.112305	3820.724609	52.541393
322.646515	1308.053345	6142.183594	3846.087402	52.502396
323.014313	1307.501953	6192.908691	3876.743652	52.590130
323.382111	1304.855469	6229.739746	3898.246338	52.658920
323.749817	1304.745117	6278.259766	3919.639160	52.576382
324.117523	1303.752808	6305.828125	3924.380859	52.390816
324.485199	1301.326782	6320.052734	3933.754150	52.452099
324.852814	1304.193970	6319.501465	3932.541016	52.406498
325.220428	1306.399292	6317.957520	3932.871582	52.408295
325.588013	1305.075928	6324.794434	3926.144775	52.215454
325.955536	1308.384155	6334.498535	3929.343018	52.146824
326.323059	1308.825317	6352.804199	3934.195313	52.049583
326.690552	1309.597168	6376.622070	3934.746582	51.808495
327.058014	1311.030640	6396.030273	3944.340332	51.785839
327.425415	1314.338989	6409.152344	3952.059570	51.772663
327.792816	1317.977905	6423.708984	3954.485107	51.638195
328.160187	1320.955322	6430.545410	3953.051758	51.512871
328.527496	1321.837646	6416.541504	3954.375000	51.672035
328.894775	1322.940430	6410.255859	3956.360107	51.764427
329.262054	1325.697144	6391.839844	3944.450439	51.691269
329.629303	1323.712280	6378.275879	3932.982178	51.622063
329.996490	1321.837646	6364.161621	3928.019775	51.686127
330.363647	1317.977905	6370.558105	3926.696533	51.631416
330.730774	1316.985718	6381.474609	3925.042725	51.496948
331.097839	1316.544434	6412.020020	3929.122803	51.272514
331.464935	1316.103394	6438.044434	3937.172607	51.173363
331.831970	1312.353882	6459.437500	3950.184570	51.249035
332.198975	1311.802490	6487.336426	3963.417725	51.233654
332.565948	1311.582153	6516.007324	3976.980957	51.214088
332.932892	1304.965698	6553.610352	3995.947998	51.270046
333.299744	1305.406860	6581.950195	4023.957275	51.521423
333.666656	1301.878174	6619.553711	4037.079590	51.436031
334.033478	1300.444702	6650.540039	4049.209473	51.377865
334.400299	1300.665283	6674.027344	4064.867920	51.442699
334.767090	1298.570068	6710.527344	4075.233154	51.306080
335.133850	1299.562622	6735.669434	4089.458740	51.321579
335.500549	1296.805786	6758.166016	4108.314941	51.480019
335.867218	1291.622803	6781.985352	4125.518066	51.615814
336.233917	1292.725586	6818.154785	4135.222168	51.443905
336.600525	1292.505005	6834.694824	4137.758301	51.338070
336.967102	1293.938599	6855.757324	4142.720215	51.220325
337.333649	1296.915894	6867.004395	4148.013672	51.185860
337.700195	1294.269287	6866.563965	4144.595703	51.151752
338.066681	1296.254150	6856.970215	4136.876465	51.083752
338.433136	1295.813110	6847.266602	4127.393066	51.006104
338.799591	1296.254272	6825.983398	4120.445801	51.072872
339.165985	1296.584961	6811.758789	4108.866699	50.991714
339.532318	1300.775391	6816.390625	4111.733887	50.963642
339.898651	1300.995972	6828.851074	4115.152344	50.908649
340.264954	1300.444580	6846.163574	4122.320801	50.883869
340.631226	1305.627319	6861.712891	4119.454102	50.644051
340.997467	1305.406860	6901.410645	4124.195313	50.371456
341.363678	1306.840454	6942.652344	4144.375488	50.348293
341.729828	1308.274048	6995.914551	4170.509277	50.323772
342.095947	1305.627563	7056.674316	4201.165039	50.348007
342.462067	1306.178833	7114.677734	4222.999023	50.216419
342.828156	1305.076050	7183.377441	4248.802734	50.077843
343.194183	1304.414551	7254.171875	4278.024902	49.978683
343.560211	1309.597290	7313.718750	4303.057129	49.856750
343.926178	1311.582275	7371.282227	4331.948730	49.843498
344.292114	1310.259155	7404.143066	4357.090820	49.998188
344.658020	1307.502197	7440.643066	4382.453125	50.136646
345.023926	1307.943237	7478.025391	4390.833496	49.965141
345.389771	1309.817871	7515.187500	4405.831055	49.892487
345.755585	1307.061157	7535.036621	4420.276855	49.987606
346.121368	1309.376953	7556.099121	4439.905273	50.114735
346.487122	1309.707642	7582.233398	4457.217773	50.179310
346.852844	1309.597412	7608.037109	4482.249512	50.372036
347.218536	1308.163818	7628.216309	4496.144531	50.442310
347.584167	1309.487061	7650.822266	4499.562500	50.306053
347.949768	1309.487061	7669.127930	4515.111328	50.405746
348.315369	1310.259033	7693.718750	4533.526367	50.494049
348.680939	1312.684937	7708.384766	4544.002441	50.523281
349.046448	1312.464478	7717.426270	4546.097656	50.486378
349.411957	1310.810303	7721.727051	4545.767090	50.460125
349.777435	1313.677490	7716.654785	4543.010254	50.434860
350.142792	1315.772705	7705.848145	4547.972656	50.581562
350.508209	1317.757568	7707.170898	4548.634766	50.566101
350.873566	1320.734985	7710.369629	4549.075684	50.524654
351.238892	1324.153320	7723.822754	4553.044922	50.454037
351.604187	1317.647217	7751.722656	4563.631836	50.449902
351.969482	1319.521973	7817.224609	4583.701172	50.235897
352.334717	1317.647339	7876.330566	4618.327148	50.325340
352.699890	1318.308838	7959.255371	4663.648438	50.374443
353.065063	1317.647217	8043.062500	4715.035645	50.515671
353.430237	1317.095825	8157.305176	4768.077148	50.451401
353.795319	1313.456787	8287.425781	4822.992676	50.323368
354.160370	1313.897827	8413.466797	4883.311523	50.276485
354.525421	1315.441650	8548.000977	4947.931152	50.224121
354.890442	1315.993164	8704.146484	5024.240234	50.191799
355.255402	1310.589600	8870.106445	5116.207520	50.342079
355.620331	1311.912964	9055.035156	5210.270020	50.346062
355.985260	1311.913086	9232.242188	5301.906250	50.376610
356.350098	1310.699951	9388.499023	5386.595703	50.458000
356.714935	1313.015869	9533.837891	5461.912109	50.468143
357.079742	1313.456909	9660.432617	5539.323242	50.627514
357.444519	1311.361694	9805.770508	5608.244141	50.584827
357.809296	1311.030762	9967.540039	5685.875488	50.538204
358.173981	1309.266479	10156.877930	5782.033203	50.553379
358.538605	1307.171265	10367.388672	5886.020508	50.537960
358.903259	1303.091187	10606.127930	6004.783691	50.539326
359.267914	1305.958008	10871.113281	6136.229004	50.498615
359.632477	1302.208740	11147.125000	6280.355469	50.565659
359.997009	1303.091064	11412.661133	6402.758301	50.443954
360.361542	1299.893188	11615.783203	6498.364746	50.392860
360.726013	1303.201416	11769.945313	6573.680664	50.354527
361.090485	1304.304321	11863.676758	6627.492676	50.411980
361.454895	1310.259033	11911.866211	6659.473145	50.456631
361.819244	1311.251343	11933.588867	6671.160645	50.458847
362.183594	1308.935791	11933.038086	6670.500000	50.466045
362.547913	1305.958374	11891.907227	6646.129395	50.445839
362.912201	1310.148682	11832.580078	6620.214844	50.464252
363.276489	1311.692383	11753.514648	6568.275879	50.341629
363.640686	1309.045898	11666.289063	6518.764648	50.300247
364.004883	1308.053467	11603.984375	6466.715820	50.103893
364.369049	1307.502075	11540.247070	6431.207520	50.071663
364.733154	1305.627319	11501.651367	6392.061035	49.886440
365.097198	1305.296631	11440.780273	6355.119629	49.823212
365.461273	1304.855469	11349.916992	6311.561523	49.842464
365.825287	1303.863037	11219.022461	6243.192871	49.815945
366.189270	1305.517212	11049.423828	6166.553711	49.887966
366.553223	1306.509644	10853.798828	6066.977539	49.861984
366.917114	1304.083740	10603.810547	5946.449707	49.919384
367.281006	1309.156250	10322.946289	5809.380371	49.925991
367.644867	1308.715088	10066.894531	5678.155762	49.889824
368.008698	1311.251465	9856.163086	5572.404297	49.867722
368.372498	1305.958374	9704.648438	5488.486816	49.799767
368.736237	1305.075928	9600.442383	5429.380859	49.718174
369.099976	1302.429565	9538.358398	5379.427246	49.502583
369.463654	1301.988525	9494.360352	5345.794434	49.360622
369.827332	1302.208862	9463.153320	5327.930176	49.329109
370.190948	1304.193848	9440.435547	5314.035645	49.283710
370.554535	1302.650146	9416.837891	5296.392090	49.219246
370.918091	1301.106445	9393.791016	5289.775879	49.287346
371.281647	1303.091309	9380.999023	5279.300293	49.223255
371.645111	1305.848267	9366.443359	5285.365234	49.370014
372.008575	1305.186523	9363.686523	5285.254883	49.389694
372.371979	1305.406982	9347.367188	5291.540527	49.566692
372.735382	1308.604858	9362.143555	5302.126953	49.587170
373.098724	1308.384155	9392.909180	5317.564941	49.590801
373.462067	1307.501953	9422.242188	5337.083496	49.657555
373.825348	1305.847900	9491.492188	5359.027344	49.515701
374.188599	1304.855347	9567.139648	5390.455566	49.448795
374.551819	1305.517090	9684.690430	5443.386230	49.382782
374.915009	1303.091187	9826.390625	5504.698242	49.295544
375.278168	1303.532227	9977.463867	5575.493164	49.250572
375.641266	1299.672729	10109.459961	5642.759277	49.298428
376.004395	1302.319214	10216.204102	5699.218750	49.326412
376.367462	1305.296631	10289.535156	5734.064941	49.294868
376.730469	1302.980957	10335.959961	5765.933594	49.407322
377.093475	1300.995972	10366.173828	5793.612305	49.559052
377.456421	1299.672852	10399.367188	5804.859375	49.509209
377.819336	1303.201538	10434.763672	5817.871094	49.440273
378.182281	1304.304199	10477.661133	5828.788086	49.322006
378.545135	1306.619873	10523.974609	5846.541504	49.254066
378.907928	1304.965820	10570.621094	5876.535645	49.338871
379.270752	1303.752808	10610.319336	5890.871094	49.289051
379.633484	1304.304077	10644.283203	5900.906250	49.214264
379.996246	1308.604858	10675.931641	5918.439453	49.211845
380.358948	1305.737671	10694.016602	5933.326172	49.291122
380.721558	1306.509521	10717.394531	5947.000000	49.309818
381.084198	1307.281494	10758.856445	5967.621094	49.307545
381.446747	1309.156006	10778.814453	5989.565918	49.425335
381.809326	1310.589722	10797.670898	6006.326660	49.496117
382.171875	1312.574707	10791.716797	6004.011719	49.492210
382.534363	1312.354126	10755.877930	5994.086426	49.576118
382.896790	1311.361572	10704.710938	5977.766113	49.677746
383.259247	1315.441772	10669.204102	5960.784180	49.662819
383.621613	1316.544556	10660.161133	5947.220703	49.559788
383.983948	1316.765015	10687.950195	5957.696289	49.523415
384.346283	1317.647217	10738.124023	5987.139160	49.567474
384.708588	1315.772705	10823.144531	6017.133789	49.449642
385.070831	1320.073242	10899.012695	6064.440430	49.529148
385.433075	1315.662354	10992.963867	6113.070801	49.573822
385.795258	1316.765015	11075.448242	6157.290039	49.602234
386.157440	1312.133667	11151.536133	6199.304199	49.669384
386.519531	1312.795288	11244.496094	6237.127930	49.581963
386.881622	1310.810303	11316.504883	6280.575684	49.669373
387.243683	1310.700073	11391.710938	6319.281250	49.683323
387.605713	1307.391724	11473.091797	6345.416016	49.559052
387.967682	1309.817749	11555.907227	6381.034180	49.494164
388.329651	1307.832886	11652.283203	6416.210449	49.382782
388.691559	1308.053345	11748.441406	6458.775879	49.334591
389.053467	1303.752686	11868.749023	6511.265625	49.290249
389.415314	1301.326782	11987.513672	6565.299805	49.259605
389.777130	1303.752808	12107.820313	6624.736816	49.249821
390.138885	1299.782959	12230.442383	6673.367676	49.160667
390.500641	1300.665039	12323.181641	6716.592773	49.135128
390.862366	1296.584961	12410.408203	6756.731934	49.129330
391.224060	1296.364502	12484.620117	6802.605469	49.214474
391.585693	1297.246704	12571.514648	6843.958496	49.197979
391.947296	1298.569946	12659.623047	6881.009766	49.136642
392.308868	1304.524658	12724.023438	6916.407227	49.142986
392.670441	1304.304077	12789.525391	6942.431641	49.090279
393.031952	1307.171265	12819.077148	6964.485352	49.143154
393.393433	1306.399414	12846.205078	6981.577148	49.179146
393.754883	1308.494507	12861.644531	6984.886230	49.132847
394.116302	1307.502075	12850.395508	6986.430176	49.198479
394.477692	1311.141113	12853.373047	6984.224609	49.150661
394.839020	1310.589722	12852.491211	6978.269531	49.105251
395.200348	1310.589722	12851.718750	6977.277344	49.099941
395.561646	1308.825317	12834.958008	6967.573730	49.094944
395.922882	1312.574585	12799.230469	6951.143066	49.087986
396.284088	1313.787476	12739.682617	6922.582031	49.088444
396.645264	1316.103271	12662.161133	6875.164551	48.995533
397.006409	1316.985474	12567.545898	6829.511719	48.997791
397.367523	1312.905396	12464.992188	6774.816406	48.976582
397.728577	1317.426514	12368.834961	6735.449219	49.025631
398.089600	1319.080688	12297.267578	6692.884766	48.949837
398.450592	1319.631958	12241.248047	6664.765625	48.940868
398.811584	1319.631958	12182.804688	6627.052246	48.857002
399.172546	1317.536865	12098.225586	6595.845215	48.960773
399.533447	1316.323853	12017.835938	6558.572754	48.986061
399.894318	1310.479492	11962.148438	6528.468750	48.987526
400.255127	1308.935791	11911.533203	6499.797852	48.958401
400.615936	1307.502197	11882.752930	6487.557129	48.982807
400.976685	1307.171387	11886.833008	6491.086426	48.998871
401.337433	1305.517212	11916.826172	6509.611816	49.042912
401.698151	1304.745483	11971.852539	6537.951660	49.059280
402.058807	1301.657715	12056.542969	6579.524414	49.074135
402.419434	1299.672729	12151.487305	6638.520020	49.197739
402.780060	1297.467285	12260.105469	6692.113281	49.209373
403.140594	1296.364624	12359.020508	6749.233398	49.290771
403.501129	1292.394775	12453.856445	6798.525879	49.331627
403.861633	1291.181763	12540.641602	6838.002930	49.307446
404.222076	1289.196777	12626.102539	6885.750977	49.365799
404.582550	1287.983765	12698.000000	6920.486816	49.364548
404.942932	1289.307007	12768.574219	6953.237305	49.340519
405.303284	1293.607666	12843.891602	6988.415039	49.304482
405.663605	1292.174316	12899.579102	7017.307129	49.323109
406.023895	1293.056396	12936.077148	7045.425781	49.406158
406.384125	1290.409912	12989.669922	7073.325195	49.429752
406.744354	1290.850952	13056.826172	7097.474609	49.350975
407.104553	1291.291992	13123.429688	7129.785156	49.344364
407.464691	1296.364624	13183.198242	7161.653320	49.342731
407.824829	1296.916016	13253.110352	7195.065430	49.331329
408.184906	1296.805664	13333.279297	7216.458496	49.180958
408.544922	1298.129028	13397.016602	7236.638184	49.083099
408.904938	1299.562500	13444.985352	7250.422852	48.996731
409.264923	1300.224121	13466.709961	7246.893555	48.877460
409.624847	1298.239258	13452.485352	7239.395996	48.881329
409.984802	1301.437256	13428.113281	7222.854980	48.829689
410.344666	1303.091187	13393.708008	7205.652344	48.819351
410.704529	1305.076050	13355.223633	7180.400391	48.757282
411.064331	1307.612305	13323.023438	7170.916016	48.798195
411.424133	1306.399414	13317.508789	7170.364746	48.821178
411.783875	1306.509644	13312.107422	7161.542480	48.769192
412.143555	1310.369263	13321.479492	7170.474609	48.789040
412.503235	1308.274048	13338.792969	7192.308105	48.909233
412.862885	1304.635010	13348.716797	7192.308105	48.884365
413.222473	1305.406860	13404.625000	7223.295410	48.911331
413.582062	1303.642578	13483.800781	7254.613281	48.857910
413.941559	1302.870605	13553.383789	7285.930664	48.839260
414.301086	1304.855591	13638.513672	7319.454102	48.765732
414.660522	1306.399414	13709.198242	7358.380371	48.795284
415.019958	1303.863037	13795.209961	7392.013184	48.738945
415.379364	1302.429688	13906.364258	7446.928711	48.750641
415.738708	1300.555054	14027.223633	7505.041504	48.751850
416.098053	1300.996216	14169.366211	7581.791016	48.808006
416.457336	1300.996094	14353.409180	7686.550781	48.922409
416.816559	1302.870728	14553.443359	7804.211426	49.064606
417.175812	1306.840454	14794.830078	7917.240234	49.009529
417.535004	1302.319336	15084.958008	8052.765625	48.977894
417.894135	1306.289063	15413.351563	8209.793945	48.936516
418.253265	1303.091187	15806.914063	8386.670898	48.839394
418.612335	1300.775513	16211.945313	8571.488281	48.760178
418.971405	1302.870728	16630.541016	8789.938477	48.846745
419.330414	1304.304077	17066.005859	9004.638672	48.854713
419.689423	1303.642334	17500.701172	9211.951172	48.825584
420.048370	1306.178711	17901.873047	9410.111328	48.831535
420.407257	1306.619751	18312.748047	9610.146484	48.826668
420.766144	1307.281372	18696.716797	9798.491211	48.829704
421.125000	1310.479370	19089.509766	9990.254883	48.820293
421.483795	1311.692383	19479.652344	10192.274414	48.880455
421.842560	1309.817749	19892.181641	10403.446289	48.936882
422.201324	1305.627563	20295.669922	10608.333008	48.987278
422.560028	1306.730225	20666.406250	10801.751953	49.045353
422.918671	1310.259033	21005.935547	10960.764648	48.998096
423.277283	1307.281494	21295.291016	11110.736328	49.046680
423.635925	1306.950806	21519.697266	11224.979492	49.068188
423.994476	1306.178833	21684.664063	11300.736328	49.044655
424.353027	1301.437134	21815.447266	11345.286133	48.960922
424.711487	1299.562500	21918.664063	11397.775391	48.975037
425.069946	1303.422119	21966.853516	11417.845703	48.948421
425.428375	1300.003662	21932.335938	11410.125977	49.001354
425.786743	1302.980957	21839.044922	11369.544922	49.018955
426.145081	1302.650146	21688.634766	11312.975586	49.103958
426.503418	1303.201538	21511.423828	11214.611328	49.046421
426.861725	1303.642578	21295.402344	11105.221680	49.028095
427.219971	1305.958252	21063.716797	10988.773438	49.007664
427.578186	1305.737671	20870.742188	10884.676758	48.959557
427.936371	1306.509521	20683.941406	10793.810547	48.960567
428.294495	1304.524658	20465.931641	10680.781250	48.933029
428.652618	1305.406982	20213.738281	10566.429688	48.978527
429.010712	1308.604858	19949.083984	10447.446289	49.026863
429.368744	1307.502197	19655.095703	10306.958008	49.049789
429.726746	1309.266479	19377.318359	10166.251953	49.020142
430.084717	1308.163818	19099.431641	10018.926758	48.960888
430.442688	1307.060913	18835.882813	9895.642578	48.996914
430.800568	1309.376709	18608.390625	9784.708008	48.993145
431.158417	1306.840454	18434.820313	9698.364258	48.993069
431.516235	1306.068604	18281.431641	9618.856445	48.969723
431.874023	1311.692505	18144.582031	9561.183594	49.008175
432.231812	1313.567261	18015.671875	9493.585938	48.975971
432.589508	1312.574707	17917.308594	9450.250000	49.008163
432.947205	1313.015869	17823.136719	9399.083008	48.976425
433.304840	1313.015747	17743.410156	9375.263672	49.069107
433.662476	1316.213623	17696.322266	9339.206055	48.980091
434.020050	1314.890381	17657.066406	9317.482422	48.968948
434.377594	1312.795166	17623.541016	9311.197266	49.037624
434.735138	1308.825195	17599.613281	9313.733398	49.137638
435.092621	1308.935669	17586.931641	9296.862305	49.071930
435.450043	1307.612305	17582.742188	9295.097656	49.077858
435.807465	1309.707520	17606.451172	9311.307617	49.099377
436.164856	1308.053345	17642.402344	9313.954102	49.012672
436.522156	1303.973267	17711.433594	9322.554688	48.871555
436.879486	1305.737671	17791.822266	9357.510742	48.839817
437.236755	1306.840454	17887.759766	9388.718750	48.742039
437.593994	1306.730225	17994.613281	9450.801758	48.802303
437.951172	1304.635010	18134.107422	9514.098633	48.780281
438.308380	1308.053467	18255.406250	9566.698242	48.731174
438.665497	1306.840454	18378.800781	9625.142578	48.724934
439.022583	1309.266602	18541.562500	9697.591797	48.677929
439.379608	1306.399414	18692.748047	9766.954102	48.662060
439.736633	1303.973389	18803.460938	9819.885742	48.663776
440.093628	1303.311646	18901.603516	9871.492188	48.687572
440.450562	1302.098633	18996.988281	9916.593750	48.683517
440.807495	1300.003540	19074.402344	9942.508789	48.623333
441.164368	1297.687866	19164.937500	9976.692383	48.574932
441.521210	1294.820679	19226.908203	10008.339844	48.591774
441.878021	1295.813232	19294.947266	10040.870117	48.585983
442.234833	1294.820801	19409.521484	10082.995117	48.514042
442.591522	1293.056274	19506.119141	10126.551758	48.500877
442.948242	1294.379517	19605.806641	10177.939453	48.513744
443.304901	1289.748169	19723.906250	10227.340820	48.483868
443.661530	1290.961060	19876.414063	10301.885742	48.483749
444.018127	1295.372070	20038.294922	10372.129883	48.427658
444.374664	1293.717773	20193.007813	10446.673828	48.430161
444.731201	1294.710327	20324.121094	10511.403320	48.433941
445.087738	1294.159058	20459.091797	10569.517578	48.397549
445.444183	1294.048950	20529.777344	10598.297852	48.369621
445.800598	1288.535278	20607.960938	10629.946289	48.352425
446.156982	1294.710449	20632.111328	10640.863281	48.332001
446.513336	1294.379639	20623.511719	10641.855469	48.359520
446.869598	1296.143921	20639.279297	10634.688477	48.278343
447.225891	1296.254272	20655.710938	10646.487305	48.298016
447.582153	1298.569946	20644.904297	10637.004883	48.269791
447.938354	1298.900757	20658.910156	10637.776367	48.237972
448.294495	1300.113892	20673.464844	10644.392578	48.232635
448.650665	1300.775269	20647.441406	10646.929688	48.308861
449.006775	1304.304199	20650.308594	10639.319336	48.252941
449.362823	1304.634888	20653.947266	10643.179688	48.262928
449.718842	1306.068604	20646.886719	10637.554688	48.247631
450.074860	1303.201416	20633.435547	10639.208008	48.297432
450.430817	1299.121338	20615.460938	10621.454102	48.261383
450.786713	1303.091187	20522.720703	10576.793945	48.251209
451.142578	1302.429443	20414.103516	10514.489258	48.201218
451.498444	1299.672852	20259.611328	10443.144531	48.225220
451.854248	1298.790649	20091.447266	10350.185547	48.164532
452.210022	1296.364624	19887.664063	10248.623047	48.152950
452.565765	1297.687866	19641.093750	10127.986328	48.138817
452.921478	1298.790527	19413.382813	10020.692383	48.148491
453.277191	1300.665039	19194.601563	9912.954102	48.129646
453.632813	1293.717896	19016.619141	9815.803711	48.085167
453.988434	1291.953491	18836.214844	9722.513672	48.053093
454.343964	1291.512451	18654.484375	9647.967773	48.128021
454.699524	1291.512451	18502.417969	9569.124023	48.095150
455.054993	1289.858398	18362.921875	9505.607422	48.121120
455.410400	1292.946045	18256.728516	9455.985352	48.120392
455.765839	1292.505005	18209.533203	9418.602539	48.035023
456.121216	1291.843384	18214.494141	9417.611328	48.017113
456.476593	1290.850952	18258.162109	9442.090820	48.040848
456.831909	1292.505005	18381.447266	9494.691406	47.997044
457.187195	1290.299438	18541.011719	9572.652344	48.011654
457.542450	1292.725586	18748.433594	9662.635742	47.949421
457.897644	1294.049072	18936.558594	9763.205078	48.004261
458.252808	1294.710571	19188.201172	9876.564453	47.960758
458.607971	1291.733398	19381.619141	9979.558594	48.025867
458.963013	1290.079224	19505.677734	10046.604492	48.071579
459.318085	1288.755859	19596.982422	10093.691406	48.092781
459.673096	1285.116821	19666.013672	10127.985352	48.109016
460.028076	1286.440063	19745.630859	10166.470703	48.106281
460.383057	1284.786133	19806.941406	10205.175781	48.160645
460.737976	1287.983887	19834.839844	10231.419922	48.220764
461.092865	1292.725586	19855.791016	10235.942383	48.177475
461.447723	1296.916016	19856.453125	10236.604492	48.167625
461.802551	1298.239258	19856.453125	10226.017578	48.106880
462.157288	1297.467407	19858.546875	10224.473633	48.095295
462.512054	1300.224121	19875.419922	10212.013672	47.976826
462.866760	1298.349487	19855.460938	10195.692383	47.945732
463.221405	1300.224121	19807.162109	10185.989258	48.013161
463.576019	1303.091187	19712.216797	10144.966797	48.029854
463.930603	1302.539917	19614.736328	10096.118164	48.020332
464.285156	1299.121338	19475.904297	10007.237305	47.907906
464.639709	1298.128906	19264.953125	9892.995117	47.837425
464.994171	1297.908203	19023.126953	9770.702148	47.800785
465.348633	1296.584961	18747.886719	9636.942383	47.792183
465.703033	1295.923462	18464.816406	9505.829102	47.818489
466.057434	1298.790649	18214.716797	9379.457031	47.769577
466.411774	1299.562622	18037.949219	9280.762695	47.682014
466.766083	1301.106445	17885.222656	9198.609375	47.620884
467.120331	1305.737793	17779.470703	9145.568359	47.589886
467.474548	1301.106445	17689.046875	9098.371094	47.579281
467.828735	1303.752930	17619.908203	9050.953125	47.481777
468.182922	1304.083740	17569.181641	9006.512695	47.355564
468.537048	1303.752808	17523.308594	8981.922852	47.338966
468.891144	1301.878296	17492.320313	8965.161133	47.332138
469.245178	1301.878174	17462.218750	8952.370117	47.341156
469.599213	1302.539917	17443.248047	8934.726563	47.285328
469.953186	1298.680298	17429.464844	8928.770508	47.301422
470.307129	1296.805664	17448.871094	8933.732422	47.281425
470.661041	1296.364624	17470.375000	8933.291992	47.217278
471.014923	1294.159180	17540.398438	8949.501953	47.120708
471.368713	1291.402344	17554.513672	8951.707031	47.102333
471.722504	1291.733154	17527.056641	8949.723633	47.168697
472.076294	1294.159180	17506.875000	8938.366211	47.149456
472.429993	1294.820679	17450.636719	8910.908203	47.141457
472.783722	1298.680298	17445.673828	8897.123047	47.057941
473.137329	1298.900757	17468.169922	8896.792969	46.989704
473.490967	1297.136353	17501.912109	8906.606445	46.958195
473.844543	1299.893188	17586.824219	8939.137695	46.904140
474.198090	1304.304077	17671.072266	8992.067383	46.971783
474.551605	1302.319214	17800.201172	9033.639648	46.862499
474.905060	1308.384155	17940.027344	9103.112305	46.866856
475.258484	1308.935547	18086.910156	9171.481445	46.862305
475.611877	1306.178711	18251.660156	9260.913086	46.943104
475.965240	1308.273926	18447.281250	9360.598633	46.982445
476.318573	1309.266235	18634.302734	9455.985352	47.022808
476.671844	1309.597168	18851.650391	9552.694336	46.990498
477.025116	1311.912964	19080.025391	9664.621094	47.009537
477.378326	1311.582275	19312.589844	9781.069336	47.050072
477.731506	1315.882690	19547.250000	9889.356445	47.025951
478.084656	1316.323975	19827.232422	10010.876953	46.969887
478.437744	1317.867554	20118.792969	10133.941406	46.891705
478.790833	1320.844971	20460.417969	10288.874023	46.855953
479.143890	1321.506836	20876.585938	10477.992188	46.824081
479.496826	1319.191040	21361.125000	10710.997070	46.860775
479.849823	1318.308838	22011.734375	11024.613281	46.905258
480.202728	1315.441650	22825.765625	11393.916016	46.854126
480.555603	1315.110840	23823.623047	11880.437500	46.939247
480.908478	1315.441772	25161.562500	12519.908203	46.986538
481.261292	1316.985596	26807.597656	13330.193359	47.127972
481.614075	1312.574707	28644.851563	14297.946289	47.509289
481.966797	1312.464355	30482.433594	15321.826172	48.026657
482.319489	1309.045898	32214.595703	16229.699219	48.278233
482.672150	1305.296631	33764.917969	16997.859375	48.344872
483.024780	1306.730103	35107.265625	17635.013672	48.307766
483.377350	1302.870605	36224.988281	18175.238281	48.314274
483.729919	1298.018677	37244.351563	18637.941406	48.238361
484.082428	1299.011108	38192.691406	19085.980469	48.211426
484.434937	1295.702881	39178.636719	19555.300781	48.200062
484.787384	1295.151489	40234.167969	20059.466797	48.188980
485.139771	1292.725586	41388.390625	20629.685547	48.227062
485.492157	1292.835815	42569.632813	21190.203125	48.204727
485.844482	1293.387207	43648.093750	21720.613281	48.228939
486.196777	1294.710449	44636.695313	22191.259766	48.213181
486.549072	1296.033813	45404.960938	22562.876953	48.214378
486.901276	1296.695313	45975.839844	22839.550781	48.216805
487.253448	1298.239258	46288.355469	22980.808594	48.194073
487.605591	1302.208984	46303.132813	22995.583984	48.206512
487.957703	1299.672607	46083.031250	22887.736328	48.205551
488.309784	1299.562378	45554.933594	22633.558594	48.206570
488.661835	1296.033691	44797.800781	22238.339844	48.141281
489.013855	1298.349365	44004.054688	21752.259766	47.895027
489.365814	1299.231567	43266.445313	21248.093750	47.534393
489.717743	1303.532349	42634.578125	20845.046875	47.280472
490.069611	1305.186401	42050.355469	20531.763672	47.187382
490.421509	1304.965820	41502.742188	20268.984375	47.176785
490.773315	1302.981079	41014.894531	20014.697266	47.118649
491.125092	1306.619995	40491.542969	19761.291016	47.096359
491.476807	1304.524780	39882.945313	19465.759766	47.076145
491.828522	1307.612305	39140.375000	19104.066406	47.039795
492.180176	1309.707520	38236.800781	18673.671875	47.022289
492.531830	1309.156128	37205.195313	18162.339844	46.949982
492.883423	1306.178711	36045.132813	17625.640625	46.977413
493.234985	1304.745239	34956.851563	17104.490234	46.950241
493.586487	1304.965698	33935.281250	16615.761719	46.921997
493.937988	1305.296509	33071.078125	16190.991211	46.860786
494.289429	1307.391846	32372.283203	15839.553711	46.780022
494.640869	1306.950562	31790.261719	15559.792969	46.756218
494.992218	1303.752808	31337.705078	15345.204102	46.751926
495.343567	1308.053345	30892.642578	15125.320313	46.704269
495.694855	1309.266479	30385.390625	14876.102539	46.659710
496.046112	1310.589722	29761.578125	14585.202148	46.657825
496.397339	1310.479492	28948.871094	14192.082031	46.607643
496.748535	1314.008179	28032.728516	13750.550781	46.546177
497.099670	1311.030884	27087.691406	13309.901367	46.549358
497.450806	1309.817871	26246.529297	12899.135742	46.474926
497.801880	1306.840576	25569.789063	12561.701172	46.387024
498.152924	1311.582275	24976.521484	12273.007813	46.319263
498.503937	1313.897827	24514.037109	12071.871094	46.370300
498.854889	1314.449219	24176.052734	11907.565430	46.335842
499.205841	1312.243774	23892.431641	11767.409180	46.302383
499.556702	1311.140991	23686.552734	11650.079102	46.206696
499.907562	1307.943115	23485.634766	11548.297852	46.174122
500.258362	1310.148560	23315.595703	11461.512695	46.131142
500.609161	1309.707520	23158.457031	11370.097656	46.045612
500.959900	1308.494507	22990.400391	11272.396484	45.954918
501.310608	1307.171265	22819.037109	11200.829102	45.991634
501.661255	1307.171265	22611.285156	11114.263672	46.033798
502.011902	1309.266602	22391.291016	11010.607422	46.017124
502.362488	1311.913086	22170.857422	10900.997070	45.971088
502.713043	1309.487061	21960.457031	10794.583008	45.930508
503.063568	1309.817871	21776.964844	10701.843750	45.888298
503.414063	1310.369263	21571.416016	10615.611328	45.926758
503.764496	1309.487061	21409.425781	10540.955078	45.927837
504.114899	1307.722656	21250.632813	10481.960938	46.002506
504.465271	1306.950684	21128.449219	10412.158203	45.936020
504.815613	1310.699951	21029.423828	10367.498047	45.929935
505.165894	1314.559570	20931.613281	10312.801758	45.869488
505.516174	1314.890381	20892.464844	10291.851563	45.853287
505.866394	1313.125977	20881.437500	10270.458008	45.774677
506.216583	1311.802856	20873.714844	10270.348633	45.795860
506.566711	1311.802734	20907.458984	10281.375977	45.773273
506.916840	1310.810303	20949.033203	10304.642578	45.797588
507.266907	1311.251343	21002.847656	10337.393555	45.837536
507.616882	1312.464355	21083.457031	10357.242188	45.747715
507.966858	1310.589966	21133.298828	10386.576172	45.785801
508.316803	1311.251587	21188.214844	10427.045898	45.861099
508.666748	1311.030884	21251.291016	10452.628906	45.844929
509.016632	1309.707642	21313.376953	10469.168945	45.788902
509.366486	1309.046021	21402.917969	10505.669922	45.768303
509.716309	1306.840454	21490.474609	10544.707031	45.769093
510.066040	1308.715088	21588.066406	10588.263672	45.758606
510.415771	1308.935669	21689.849609	10632.705078	45.747555
510.765503	1303.863037	21797.253906	10672.842773	45.717079
511.115173	1302.870483	21897.271484	10710.225586	45.679192
511.464752	1302.650024	21996.625000	10743.748047	45.622448
511.814270	1304.965820	22078.666016	10787.966797	45.649071
512.163818	1302.980835	22163.134766	10821.048828	45.627987
512.513306	1300.444580	22225.990234	10850.823242	45.639809
512.862793	1297.797974	22280.796875	10874.530273	45.640438
513.212219	1294.931030	22320.494141	10897.798828	45.672348
513.561646	1295.482178	22372.982422	10912.684570	45.627811
513.911011	1294.710449	22402.203125	10932.204102	45.659115
514.260315	1298.128906	22437.380859	10956.574219	45.689629
514.609558	1299.893188	22506.414063	10984.363281	45.667412
514.958801	1300.665283	22600.585938	11035.419922	45.703247
515.308044	1304.193970	22745.705078	11086.035156	45.621040
515.657227	1303.311890	22949.488281	11160.910156	45.539677
516.006348	1307.171387	23197.712891	11251.995117	45.429779
516.355408	1308.935669	23468.322266	11372.412109	45.414059
516.704529	1306.950684	23702.210938	11482.244141	45.435028
517.053467	1310.810181	23927.384766	11577.960938	45.396576
517.402466	1309.817627	24100.404297	11651.953125	45.378983
517.751404	1310.589600	24227.660156	11717.235352	45.410015
518.100281	1315.882813	24354.253906	11769.834961	45.376263
518.449219	1316.764893	24445.224609	11806.004883	45.352093
518.798035	1314.228638	24541.933594	11844.599609	45.335392
519.146851	1311.471924	24637.761719	11870.955078	45.268597
519.495544	1311.582275	24703.267578	11904.587891	45.285347
519.844299	1311.582031	24792.478516	11940.206055	45.264984
520.192932	1310.589600	24892.824219	11985.638672	45.267334
520.541626	1311.912964	24987.878906	12022.138672	45.236698
520.890198	1313.236084	25089.660156	12077.606445	45.273293
521.238770	1315.993042	25211.404297	12107.159180	45.159992
521.587280	1313.897827	25350.234375	12150.385742	45.083778
521.935791	1315.000488	25468.556641	12196.258789	45.050335
522.284180	1312.905273	25587.652344	12248.087891	45.047569
522.632629	1310.810181	25735.308594	12330.682617	45.118111
522.981018	1313.346436	25881.085938	12411.070313	45.171936
523.329346	1309.376709	26049.583984	12491.127930	45.196674
523.677551	1312.795288	26239.253906	12583.755859	45.216854
524.025818	1310.810303	26502.146484	12687.523438	45.161213
524.374023	1305.848267	26813.333984	12833.744141	45.194164
524.722229	1304.304443	27208.441406	13012.716797	45.199005
525.070374	1302.760376	27733.115234	13246.164063	45.188206
525.418457	1301.878174	28432.574219	13575.107422	45.237431
525.766541	1303.532227	29419.845703	14028.766602	45.259258
526.114563	1305.406860	30673.535156	14613.321289	45.314137
526.462585	1304.414429	32059.880859	15280.692383	45.443233
526.810547	1302.319214	33429.792969	15944.423828	45.575024
527.158447	1303.311523	34649.191406	16544.748047	45.707108
527.506348	1306.509521	35670.535156	17014.177734	45.709625
527.854065	1305.406860	36507.835938	17401.015625	45.723003
528.201904	1305.296631	37179.289063	17710.216797	45.729286
528.549622	1304.965820	37700.105469	17955.464844	45.749241
528.897339	1304.965820	38087.820313	18121.312500	45.717896
529.245056	1305.848022	38392.945313	18250.992188	45.690132
529.592712	1304.965942	38621.097656	18358.291016	45.699600
529.940369	1302.209106	38808.785156	18435.808594	45.681591
530.287903	1298.239258	39002.093750	18523.808594	45.686497
530.635437	1300.003662	39242.042969	18628.457031	45.670853
530.982910	1296.254272	39534.929688	18742.808594	45.625416
531.330383	1298.349487	39778.742188	18868.410156	45.659771
531.677795	1296.364624	39893.535156	18920.238281	45.661049
532.025208	1296.805664	39896.734375	18927.406250	45.675217
532.372498	1296.144043	39700.453125	18831.138672	45.658924
532.719788	1294.379639	39259.023438	18625.703125	45.651222
533.067078	1295.261841	38522.738281	18285.730469	45.639591
533.414307	1297.577637	37499.183594	17817.513672	45.633156
533.761536	1299.782959	36364.812500	17275.964844	45.561577
534.108643	1298.790649	35301.566406	16730.777344	45.384487
534.455811	1298.349487	34402.292969	16286.598633	45.276321
534.802856	1298.459717	33658.390625	15935.709961	45.232635
535.149902	1300.996094	33076.042969	15657.383789	45.181328
535.496887	1300.665161	32572.203125	15408.388672	45.113625
535.843811	1298.790527	32153.277344	15230.076172	45.151569
536.190796	1300.113892	31807.683594	15080.548828	45.170540
536.537659	1300.885742	31473.228516	14942.154297	45.211166
536.884460	1301.216553	31187.402344	14802.772461	45.176579
537.231323	1303.973267	30885.589844	14662.395508	45.157848
537.578064	1306.950806	30573.738281	14507.129883	45.102932
537.924805	1308.274048	30209.177734	14359.144531	45.157307
538.271423	1307.502197	29892.691406	14209.835938	45.136429
538.618164	1308.935547	29722.433594	14102.870117	45.027664
538.964783	1312.795288	29751.984375	14114.669922	45.014908
539.311279	1312.354126	29938.345703	14190.315430	44.986950
539.657776	1313.787720	30217.447266	14316.247070	44.985512
540.004333	1312.023193	30474.714844	14422.440430	44.956127
540.350769	1311.030762	30722.937500	14534.477539	44.959503
540.697144	1310.920410	30910.619141	14611.227539	44.933926
541.043518	1307.501953	31016.039063	14647.948242	44.904419
541.389893	1307.832764	30991.449219	14652.468750	44.956230
541.736145	1312.243652	30870.919922	14596.670898	44.942566
542.082458	1311.030762	30728.115234	14519.039063	44.899105
542.428711	1313.677490	30558.958984	14435.454102	44.868011
542.774902	1311.030884	30414.613281	14380.098633	44.905357
543.121033	1314.559570	30309.851563	14318.235352	44.847542
543.467102	1315.772705	30228.580078	14273.684570	44.817207
543.813171	1314.449341	30173.115234	14231.449219	44.759518
544.159180	1314.118530	30124.265625	14212.704102	44.770985
544.505127	1316.103394	30064.390625	14192.963867	44.791748
544.851135	1315.882813	29946.505859	14140.804688	44.794422
545.197021	1314.228760	29733.347656	14031.195313	44.747929
545.542908	1312.574585	29327.765625	13860.382813	44.789303
545.888733	1313.125977	28734.279297	13603.116211	44.819378
546.234558	1312.574585	27955.421875	13248.037109	44.798000
546.580322	1314.449219	27086.472656	12849.291992	44.757225
546.926025	1314.449219	26190.398438	12432.904297	44.695602
547.271667	1315.331421	25366.664063	12056.102539	44.657700
547.617371	1312.464233	24569.062500	11702.679688	44.676422
547.962952	1309.376709	23836.634766	11375.059570	44.682236
548.308533	1316.875244	23176.984375	11083.167969	44.676323
548.654053	1318.749878	22597.058594	10814.875000	44.628193
548.999573	1316.985596	22105.242188	10586.499023	44.590145
549.344971	1317.426514	21676.394531	10400.249023	44.613373
549.690430	1313.456787	21303.451172	10228.775391	44.598904
550.035767	1313.897827	20995.458984	10079.355469	44.536396
550.381104	1314.338867	20720.439453	9956.732422	44.534412
550.726440	1308.715088	20440.898438	9836.094727	44.570866
551.071655	1308.053345	20193.007813	9725.932617	44.574524
551.416931	1305.737671	19905.525391	9582.466797	44.499054
551.762085	1305.958130	19601.064453	9434.150391	44.428234
552.107178	1303.752686	19293.402344	9288.701172	44.386345
552.452332	1302.539795	18985.742188	9147.220703	44.362328
552.797424	1304.304077	18713.041016	9026.693359	44.359276
553.142395	1299.011108	18451.914063	8914.766602	44.399223
553.487366	1300.113770	18255.408203	8822.137695	44.363865
553.832336	1301.106323	18065.296875	8739.212891	44.369015
554.177185	1299.782959	17916.652344	8673.820313	44.376816
554.522095	1301.326782	17807.810547	8623.646484	44.360264
554.866943	1304.745361	17704.042969	8571.598633	44.311981
555.211731	1306.068604	17624.757813	8523.520508	44.228134
555.556396	1300.885742	17547.566406	8482.608398	44.204247
555.901123	1302.760376	17476.771484	8455.812500	44.225594
556.245789	1303.201538	17389.656250	8412.695313	44.195526
556.590454	1305.406860	17291.294922	8377.629883	44.240414
556.934998	1303.642700	17206.494141	8337.270508	44.228722
557.279541	1307.722656	17093.353516	8279.596680	44.165951
557.624023	1306.620117	16953.750000	8217.403320	44.166458
557.968567	1311.361694	16822.525391	8161.274414	44.161179
558.312988	1313.567017	16687.994141	8102.389160	44.156590
558.657349	1316.213745	16581.359375	8061.366699	44.186626
559.001770	1315.000732	16496.228516	8017.368164	44.149048
559.346069	1317.757568	16420.470703	7991.344727	44.188000
559.690308	1318.970459	16366.767578	7974.030273	44.226139
560.034485	1318.529541	16310.417969	7948.889160	44.226311
560.378723	1321.727173	16279.982422	7928.378906	44.167263
560.722900	1318.970459	16237.306641	7903.677734	44.138348
561.067017	1315.662354	16214.701172	7887.909180	44.111885
561.411072	1315.110962	16186.361328	7883.608398	44.169102
561.755127	1317.206055	16158.242188	7864.310059	44.114872
562.099182	1316.213745	16149.860352	7859.568359	44.111572
562.443115	1316.103394	16154.382813	7861.332520	44.110432
562.787048	1318.198486	16166.845703	7859.017090	44.049927
563.130920	1317.536865	16204.117188	7872.360352	44.031761
563.474792	1314.559570	16275.242188	7903.677246	44.042896
563.818604	1309.817749	16366.658203	7934.223145	43.995983
564.162354	1314.890259	16455.423828	7978.772949	44.013527
564.506042	1312.133545	16567.021484	8024.646484	44.002373
564.849731	1311.582153	16664.722656	8059.824219	43.953495
565.193420	1309.376709	16735.189453	8093.236816	43.977329
565.537048	1304.304077	16789.001953	8116.614746	43.993820
565.880615	1304.965820	16818.666016	8131.832520	44.005405
566.224121	1303.201416	16827.597656	8141.315430	44.047535
566.567627	1303.642578	16828.146484	8141.315430	44.044388
566.911072	1306.509766	16823.736328	8137.235352	44.020275
567.254517	1305.848022	16856.265625	8140.763184	43.953255
567.597839	1307.612305	16881.408203	8156.973145	43.980034
567.941223	1305.847900	16914.271484	8175.829590	44.014576
568.284485	1305.186401	16938.753906	8189.282715	44.034073
568.627808	1306.289063	17000.615234	8212.661133	44.005535
568.970947	1304.855591	17070.197266	8249.381836	44.049324
569.314148	1310.589600	17146.837891	8277.281250	43.992058
569.657288	1314.449341	17232.078125	8309.921875	43.947956
570.000366	1315.772461	17313.900391	8337.270508	43.889500
570.343445	1316.213745	17378.958984	8355.132813	43.821396
570.686462	1319.301392	17399.359375	8368.585938	43.838676
571.029419	1319.521851	17410.937500	8377.187500	43.859818
571.372314	1314.559570	17389.546875	8356.676758	43.807919
571.715210	1314.780029	17336.173828	8341.569336	43.858788
572.058105	1315.441650	17284.566406	8326.021484	43.900841
572.400879	1318.308716	17266.921875	8312.238281	43.852901
572.743713	1316.985474	17250.712891	8309.811523	43.886944
573.086426	1315.882813	17256.779297	8308.709961	43.867214
573.429077	1315.993042	17280.599609	8317.972656	43.859394
573.771790	1313.456787	17288.978516	8318.744141	43.850132
574.114441	1308.825317	17280.158203	8312.898438	43.854031
574.457031	1309.376709	17246.634766	8307.274414	43.909042
574.799561	1306.399414	17192.378906	8279.926758	43.897369
575.142029	1312.684937	17144.080078	8248.940430	43.813290
575.484436	1316.103271	17057.294922	8211.227539	43.803062
575.826904	1311.471802	16940.076172	8154.878906	43.787704
576.169250	1314.890381	16794.847656	8084.083984	43.728760
576.511597	1309.266357	16627.013672	8013.069336	43.764938
576.853943	1303.863037	16422.126953	7927.166504	43.809948
577.196167	1302.980835	16207.315430	7843.358398	43.882385
577.538391	1300.885742	15981.145508	7743.451660	43.885914
577.880554	1295.923462	15774.605469	7647.844727	43.870853
578.222717	1297.798096	15546.340820	7545.511230	43.848083
578.564819	1298.459717	15335.276367	7465.784180	43.936775
578.906860	1297.798096	15149.357422	7380.102539	43.910614
579.248901	1294.489990	14957.482422	7291.995605	43.895992
579.590942	1292.505005	14756.014648	7207.306641	43.932095
579.932861	1296.474854	14573.073242	7120.301270	43.865349
580.274780	1295.813232	14376.127930	7034.619141	43.873608
580.616638	1297.577515	14177.304688	6944.746094	43.845402
580.958496	1300.665161	13971.095703	6853.662109	43.826427
581.300232	1301.988525	13802.267578	6773.714844	43.772835
581.641968	1302.760376	13638.404297	6688.363770	43.658878
581.983704	1300.885620	13495.599609	6616.244629	43.587402
582.325317	1296.915771	13360.736328	6548.979004	43.535656
582.666992	1296.474731	13243.408203	6493.181641	43.498249
583.008606	1298.018555	13132.584961	6448.852051	43.523636
583.350098	1295.482300	13037.419922	6409.594727	43.554245
583.691589	1294.710449	12956.919922	6371.880859	43.535236
584.033081	1295.813232	12896.602539	6347.180176	43.543308
584.374512	1293.276978	12835.179688	6316.744629	43.523743
584.715881	1293.607666	12787.429688	6297.667480	43.536949
585.057190	1291.512451	12741.335938	6272.415039	43.502003
585.398499	1289.086548	12694.800781	6252.455566	43.516514
585.739807	1291.071655	12657.087891	6234.702148	43.494835
586.081055	1291.622803	12628.416992	6220.035645	43.472725
586.422180	1291.622803	12602.281250	6211.544434	43.498104
586.763367	1289.637939	12593.017578	6204.045898	43.477333
587.104431	1289.196777	12593.017578	6195.003418	43.399544
587.445496	1290.189331	12597.098633	6194.672852	43.375988
587.786499	1287.211914	12592.797852	6198.202148	43.438618
588.127502	1283.021484	12621.468750	6197.430176	43.342873
588.468445	1284.234619	12627.754883	6200.849121	43.342930
588.809326	1284.124390	12634.040039	6210.883301	43.407887
589.150208	1287.322266	12639.332031	6212.978516	43.390171
589.491028	1290.740723	12626.099609	6221.138672	43.495735
589.831848	1290.299683	12624.998047	6214.411621	43.442814
590.172546	1291.291992	12613.971680	6208.788086	43.430496
590.513245	1289.307251	12605.810547	6202.502441	43.416199
590.853943	1289.307251	12610.994141	6196.437500	43.342751
591.194458	1290.189331	12623.235352	6195.113770	43.279842
591.535095	1288.645508	12624.227539	6195.113770	43.283779
591.875610	1289.527588	12644.406250	6202.281250	43.265575
592.216125	1291.622803	12648.376953	6207.684570	43.287560
592.556580	1291.071411	12667.343750	6229.297852	43.408127
592.897034	1287.763184	12700.867188	6238.670898	43.379154
593.237366	1287.652954	12718.510742	6252.345215	43.432369
593.577698	1288.535156	12771.110352	6269.437500	43.377922
593.918030	1289.307007	12819.409180	6295.571289	43.419079
594.258301	1292.284302	12873.332031	6326.889160	43.472794
594.598511	1292.063843	12952.838867	6354.016602	43.410088
594.938721	1294.379639	13037.417969	6385.994629	43.358585
595.278809	1299.231567	13118.026367	6422.385254	43.347515
595.618958	1298.790527	13172.391602	6450.615234	43.388897
595.958984	1299.011108	13228.298828	6470.794434	43.353661
596.299011	1302.098633	13252.007813	6487.005371	43.388672
596.638977	1299.011108	13278.141602	6500.788574	43.423664
596.978943	1297.908447	13289.832031	6506.964355	43.438030
597.318848	1300.665161	13285.533203	6496.929199	43.356873
597.658630	1300.113770	13271.526367	6489.872070	43.351261
597.998474	1298.128662	13238.885742	6478.734375	43.385906
598.338257	1297.356934	13184.189453	6464.950195	43.473259
598.677979	1298.680298	13151.439453	6449.842773	43.459610
599.017700	1297.026245	13096.192383	6429.332520	43.497192
599.357361	1300.444580	13052.415039	6407.939941	43.460754
599.696960	1305.737671	13013.156250	6378.497070	43.329441
600.036560	1307.171265	12965.298828	6359.309570	43.335758
600.376038	1303.973389	12926.591797	6337.916504	43.311611
600.715576	1303.422119	12884.029297	6329.094727	43.397316
601.055054	1302.870850	12840.801758	6316.192871	43.450790
601.394409	1301.878174	12806.395508	6295.130859	43.402542
601.733826	1303.752930	12760.414063	6277.045898	43.409618
602.073120	1301.878296	12756.113281	6275.282227	43.419781
602.412415	1297.577515	12743.873047	6283.221680	43.556835
602.751587	1296.915894	12771.220703	6292.595215	43.537968
603.090820	1298.459839	12801.544922	6309.356445	43.561329
603.429993	1293.166748	12848.080078	6333.505859	43.620743
603.769104	1292.063965	12883.807617	6341.225586	43.558258
604.108154	1293.828369	12909.392578	6361.073730	43.624615
604.447205	1296.144165	12946.553711	6375.740234	43.600151
604.786194	1298.349487	12976.877930	6385.664551	43.561268
605.125183	1302.319336	13007.534180	6392.281250	43.484566
605.464111	1300.665039	13028.486328	6395.700195	43.444004
605.802979	1299.562378	13050.870117	6413.342773	43.516693
606.141846	1300.113770	13074.911133	6430.766602	43.573174
606.480652	1297.908325	13114.829102	6451.166504	43.609146
606.819336	1295.702881	13167.648438	6478.403809	43.655029
607.158020	1295.261719	13228.960938	6502.774414	43.637035
607.496765	1300.003296	13292.807617	6524.277344	43.561737
607.835388	1301.216431	13331.182617	6539.826660	43.546345
608.173950	1305.076050	13348.386719	6538.282715	43.453224
608.512512	1303.201416	13325.559570	6529.791504	43.473915
608.851013	1301.216431	13280.789063	6520.087891	43.564758
609.189514	1304.965820	13184.080078	6474.324219	43.516361
609.527893	1305.186279	13073.698242	6421.944336	43.478374
609.866333	1304.414673	12945.449219	6356.663574	43.400345
610.204712	1303.091309	12806.505859	6284.325195	43.302223
610.542969	1304.304321	12678.920898	6220.917969	43.224438
610.881226	1305.627563	12564.238281	6171.295410	43.217304
611.219482	1303.532349	12470.395508	6125.642090	43.182312
611.557678	1301.547363	12383.722656	6091.347656	43.220757
611.895813	1299.011108	12310.279297	6063.558594	43.269741
612.233948	1298.018555	12237.611328	6041.173828	43.357697
612.571960	1302.098633	12167.256836	6012.061523	43.349236
612.910034	1306.619873	12098.998047	5976.664063	43.271687
613.247986	1306.730103	12027.210938	5939.833008	43.217308
613.585938	1308.935547	11942.411133	5894.731934	43.126034
613.923828	1305.737671	11822.654297	5837.721191	43.092319
614.261658	1308.715088	11693.414063	5784.018066	43.095161
614.599487	1306.730103	11548.295898	5730.094238	43.190315
614.937317	1307.943115	11424.239258	5674.517090	43.163765
615.275024	1307.612305	11309.556641	5617.285645	43.088356
615.612732	1306.399414	11213.178711	5578.910645	43.127148
615.950378	1305.627441	11119.227539	5536.897461	43.116390
616.288025	1302.429443	11032.443359	5504.035645	43.181915
616.625549	1303.421997	10971.901367	5477.459961	43.171608
616.963074	1304.414307	10919.523438	5458.603027	43.204796
617.300537	1305.517212	10871.445313	5439.856934	43.219433
617.638000	1305.296631	10823.035156	5428.829590	43.324718
617.975464	1309.266357	10790.614258	5413.060547	43.282814
618.312744	1310.369141	10753.563477	5399.055664	43.297707
618.650024	1309.486938	10720.259766	5389.241699	43.351967
618.987305	1308.274048	10683.428711	5376.339844	43.391991
619.324585	1305.958374	10658.507813	5360.239746	43.349476
619.661743	1302.429565	10644.723633	5347.668945	43.300278
619.998901	1299.783081	10616.824219	5338.847168	43.351360
620.336060	1298.018799	10589.255859	5321.864746	43.307968
620.673096	1295.151611	10567.752930	5313.594727	43.336739
621.010193	1298.459717	10548.125000	5302.016113	43.283257
621.347168	1296.254272	10527.833984	5296.392090	43.331020
621.684082	1297.908447	10493.208984	5283.490723	43.343685
622.020996	1297.356934	10457.591797	5267.059570	43.336258
622.357849	1298.128906	10433.993164	5263.420410	43.403572
622.694641	1299.562500	10412.929688	5248.975586	43.336487
623.031433	1303.863037	10391.095703	5235.742676	43.268177
623.368164	1305.296631	10386.905273	5226.920410	43.182041
623.704895	1306.619873	10376.759766	5212.144531	43.059147
624.041504	1307.832886	10383.927734	5213.026855	43.027248
624.378174	1305.737671	10402.343750	5224.384766	43.078117
624.714783	1311.692505	10445.901367	5237.506836	42.979248
625.051331	1308.715210	10478.101563	5254.047852	43.027222
625.387756	1309.156250	10514.711914	5264.964844	42.971970
625.724304	1309.486938	10534.119141	5277.866699	43.019386
626.060669	1310.589600	10552.314453	5282.718750	42.980389
626.397034	1310.369141	10560.364258	5285.695801	42.976528
626.733337	1310.369141	10564.333984	5287.239746	42.974777
627.069641	1307.502075	10570.950195	5279.741211	42.880783
627.405884	1309.486938	10560.474609	5282.938965	42.951656
627.742126	1308.935669	10550.439453	5280.733398	42.977829
628.078308	1308.053467	10538.639648	5276.984375	42.997604
628.414429	1304.524780	10513.057617	5258.789551	42.941307
628.750488	1304.414551	10493.319336	5252.724121	42.968231
629.086548	1301.767944	10460.126953	5236.403809	42.962234
629.422546	1299.121338	10419.546875	5214.569824	42.930546
629.758545	1297.798096	10365.293945	5197.257324	43.004807
630.094421	1294.710571	10318.648438	5176.746582	43.019314
630.430298	1293.497437	10264.283203	5154.913086	43.044338
630.766113	1293.276855	10200.986328	5134.291992	43.120125
631.101929	1292.615479	10124.567383	5108.929199	43.210308
631.437622	1293.166626	10043.185547	5083.015137	43.312466
631.773376	1288.865967	9950.115234	5040.781250	43.318409
632.109070	1292.725586	9856.714844	4997.333496	43.257969
632.444641	1292.946167	9763.423828	4971.199219	43.424385
632.780273	1293.387329	9687.446289	4926.427734	43.281097
633.115784	1294.489990	9618.195313	4901.616211	43.335583
633.451294	1297.246826	9549.165039	4873.938477	43.343761
633.786682	1299.121338	9481.458008	4848.795898	43.382160
634.122131	1302.650146	9403.604492	4824.425781	43.473591
634.457458	1301.106323	9351.556641	4796.306641	43.416206
634.792847	1303.311768	9290.575195	4767.194824	43.367580
635.128113	1303.201538	9227.279297	4744.699707	43.430897
635.463318	1304.414429	9176.002930	4720.439453	43.396896
635.798584	1300.775513	9127.813477	4694.083984	43.353676
636.133728	1301.657715	9074.221680	4672.249512	43.365250
636.468872	1304.965820	9012.358398	4647.989746	43.374252
636.803955	1305.737793	8963.067383	4620.752441	43.292046
637.139038	1303.201416	8913.554688	4597.815430	43.291210
637.473999	1305.406860	8849.266602	4574.327148	43.332199
637.808899	1305.958374	8783.101563	4549.846680	43.384060
638.143799	1307.391846	8715.173828	4516.103516	43.315414
638.478638	1309.156128	8654.302734	4475.302734	43.105286
638.813538	1309.156006	8589.573242	4444.756836	43.068974
639.148315	1305.516968	8517.233398	4418.291504	43.162743
639.483032	1306.509521	8454.048828	4376.057129	42.945518
639.817749	1303.421875	8386.782227	4343.085938	42.912743
640.152405	1302.098633	8323.044922	4309.673340	42.837170
640.487000	1301.547363	8252.250000	4282.436523	42.886154
640.821594	1301.326782	8187.410156	4256.191406	42.910671
641.156128	1299.121338	8138.338379	4224.212402	42.769386
641.490662	1297.687744	8078.791504	4200.944824	42.813934
641.825134	1298.569946	8018.140625	4183.301270	42.930294
642.159546	1298.459717	7977.560059	4160.143555	42.845348
642.493896	1302.760376	7925.291016	4140.294434	42.846676
642.828186	1301.216553	7883.938477	4119.012207	42.805935
643.162537	1299.562622	7849.974609	4101.919434	42.781384
643.496765	1293.718140	7814.246094	4094.200439	42.948708
643.830994	1292.505005	7780.061523	4081.188232	42.985107
644.165100	1293.387329	7751.059570	4063.103516	42.890320
644.499268	1292.615479	7734.409180	4050.201660	42.807735
644.833313	1291.071655	7720.955566	4044.578125	42.823578
645.167358	1288.535278	7705.075684	4041.380127	42.902321
645.501343	1287.652954	7682.139648	4046.342285	43.141685
645.835327	1287.873535	7662.069824	4041.269287	43.195969
646.169189	1289.638062	7648.727539	4034.212158	43.159863
646.503052	1289.417358	7636.818359	4031.344971	43.197647
646.836914	1293.387207	7626.342285	4034.983887	43.290955
647.170654	1295.041260	7611.676270	4027.816162	43.263145
647.504395	1296.584961	7607.376465	4030.353027	43.318943
647.838074	1296.695435	7601.641602	4029.250488	43.339863
648.171753	1299.562500	7598.995605	4034.102295	43.409298
648.505371	1300.665283	7600.097656	4035.535645	43.414551
648.838928	1301.988525	7603.184570	4032.337891	43.330650
649.172424	1304.635010	7610.131836	4033.440430	43.276611
649.505920	1302.870728	7606.382324	4032.999512	43.311237
649.839294	1308.274048	7598.001465	4034.433105	43.343040
650.172729	1310.920532	7596.127441	4035.755859	43.353153
650.506104	1314.890381	7600.207520	4027.485840	43.157654
650.839355	1317.536987	7584.989746	4029.249512	43.266579
651.172668	1318.308838	7565.913086	4031.234863	43.423458
651.505859	1316.875244	7542.977051	4026.382813	43.518524
651.839111	1319.080688	7527.979980	4015.576172	43.429527
652.172241	1321.175903	7515.959961	4007.526367	43.364716
652.505371	1319.521729	7502.616211	3989.441650	43.180965
652.838379	1320.845093	7475.930176	3978.965820	43.185768
653.171387	1319.632202	7461.924805	3977.863037	43.277504
653.504333	1318.088379	7438.988281	3967.938232	43.291836
653.837280	1318.970459	7418.918945	3960.439453	43.303139
654.170227	1319.080811	7399.731934	3955.808350	43.362583
654.503052	1315.662354	7379.772461	3945.884033	43.373577
654.835876	1315.441895	7365.657715	3940.039551	43.380234
655.168579	1312.243896	7348.234375	3938.716064	43.513527
655.501343	1312.574707	7332.906250	3929.343018	43.465519
655.833984	1310.920532	7323.863770	3927.909668	43.522598
656.166626	1312.464233	7319.673340	3929.453613	43.564144
656.499268	1313.456787	7342.720215	3937.723877	43.525497
656.831787	1312.684937	7376.904785	3948.089600	43.458267
657.164307	1311.912964	7422.889160	3967.607910	43.457787
657.496765	1311.140991	7469.424316	3985.030762	43.419399
657.829224	1311.361572	7518.275391	4001.681885	43.343925
658.161621	1315.110718	7566.463379	4011.385498	43.131065
658.493958	1317.095703	7605.831055	4024.287598	43.048271
658.826233	1310.920410	7635.494629	4037.079590	43.104233
659.158508	1310.479370	7661.739746	4045.901367	43.068962
659.490723	1311.140991	7680.155273	4059.685547	43.154942
659.822876	1310.479492	7699.012695	4063.766113	43.097321
660.154968	1306.399414	7700.555664	4061.009033	43.080112
660.487061	1307.943115	7699.343750	4064.096436	43.122841
660.819153	1303.642700	7693.719727	4055.385010	43.062737
661.151123	1305.406982	7679.934570	4048.217529	43.027668
661.483093	1308.935791	7668.576660	4040.387939	42.949787
661.815002	1310.479614	7652.807129	4026.162598	42.818398
662.146851	1312.354126	7623.915039	4012.488770	42.780777
662.478760	1314.008057	7595.354980	4002.894775	42.807487
662.810486	1311.802612	7558.523926	3986.904785	42.824100
663.142212	1309.597168	7505.482910	3966.504883	42.881805
663.473938	1306.730103	7453.654785	3940.039551	42.839462
663.805603	1306.840332	7388.263184	3913.354248	42.860264
664.137207	1307.060913	7295.854980	3871.891357	42.827164
664.468689	1306.730103	7208.187500	3835.722168	42.853687
664.800293	1304.965820	7131.107910	3793.377197	42.711136
665.131775	1304.083496	7048.623535	3761.618652	42.780365
665.463196	1302.539795	6980.255859	3731.404053	42.778896
665.794617	1304.965820	6923.795410	3705.600342	42.724815
666.125916	1309.156250	6865.902344	3682.443359	42.710014
666.457275	1308.715210	6822.564941	3662.152832	42.682293
666.788574	1305.627563	6776.801270	3650.905029	42.866074
667.119812	1306.730225	6747.910645	3636.458984	42.816605
667.450928	1307.612305	6727.731445	3626.865234	42.789703
667.782104	1311.582153	6713.063965	3622.123535	42.776066
668.113159	1308.384155	6691.230469	3624.770020	43.032730
668.444214	1304.414307	6669.286621	3616.168945	43.090584
668.775208	1303.311523	6650.980469	3614.845703	43.225079
669.106201	1304.414307	6636.645996	3613.301758	43.300587
669.437134	1303.311646	6629.367676	3606.354492	43.241058
669.768005	1302.870605	6622.200195	3601.392090	43.210735
670.098877	1300.444702	6610.951660	3591.357422	43.139244
670.429688	1303.201416	6591.874023	3588.159912	43.204762
670.760437	1299.893311	6567.504395	3581.654053	43.316803
671.091187	1298.349487	6559.564941	3575.258301	43.277237
671.421814	1296.033813	6542.692871	3572.501465	43.388901
671.752441	1295.261963	6521.189941	3573.383545	43.592674
672.083008	1292.946167	6507.185059	3570.406250	43.677708
672.413574	1293.607788	6493.731934	3567.980225	43.736889
672.744080	1296.033813	6466.936035	3560.261230	43.787861
673.074524	1293.828369	6440.581055	3554.636963	43.926891
673.404968	1297.467407	6416.541504	3545.263428	43.910202
673.735352	1301.437256	6396.582520	3532.472168	43.787460
674.065613	1303.752930	6375.410156	3520.011475	43.698902
674.395935	1302.429688	6351.700684	3501.595703	43.554131
674.726196	1301.657837	6320.494141	3494.758545	43.697392
675.056335	1304.414551	6304.504395	3479.541016	43.501747
675.386536	1304.745361	6292.815430	3471.270508	43.434135
675.716614	1306.840454	6281.346680	3460.133545	43.286568
676.046692	1308.274048	6279.913086	3451.311279	43.105244
676.376770	1310.259033	6268.334961	3448.885498	43.134201
676.706726	1312.023315	6257.638184	3446.018311	43.149239
677.036621	1310.038452	6262.820801	3449.547363	43.198120
677.366516	1310.258911	6260.616211	3453.848145	43.301708
677.696411	1314.338989	6274.068359	3449.326660	43.046455
678.026184	1313.787720	6291.381836	3451.972900	42.956196
678.355957	1312.464355	6305.166016	3460.022949	43.013958
678.685669	1312.464355	6330.639160	3463.771973	42.870319
679.015320	1309.817749	6346.187500	3469.726563	42.886223
679.344971	1306.730103	6362.838379	3476.894043	42.921627
679.674561	1305.406860	6371.991211	3484.723633	43.013531
680.004150	1301.547241	6394.928711	3491.891113	43.003727
680.333618	1299.231689	6410.145996	3499.389404	43.048225
680.663086	1299.672729	6424.701660	3505.675293	43.043709
680.992493	1298.680298	6430.987305	3506.227051	43.012760
681.321899	1298.569824	6429.002930	3512.843262	43.159580
681.651184	1298.128784	6429.994629	3509.425293	43.089523
681.980530	1296.585083	6419.849609	3504.793945	43.101601
682.309753	1295.372070	6412.682129	3503.250000	43.145283
682.638977	1290.850952	6387.650391	3496.633545	43.277802
682.968079	1288.314697	6361.735840	3486.157471	43.320724
683.297241	1288.976318	6340.563965	3472.263428	43.219818
683.626343	1288.865845	6318.619629	3458.919922	43.144341
683.955383	1293.056396	6279.803711	3440.835449	43.069740
684.284363	1294.048950	6252.235352	3418.671143	42.850788
684.613281	1292.284546	6209.890137	3408.856689	43.040710
684.942139	1296.144043	6166.111816	3395.623779	43.110752
685.271057	1299.231567	6128.619629	3377.539063	43.034595
685.599792	1301.657593	6088.370117	3365.739990	43.121090
685.928589	1305.737671	6056.721191	3349.088867	43.009014
686.257324	1310.810181	6019.118164	3330.121582	42.888260
686.585999	1310.699951	5994.527344	3316.007080	42.813431
686.914612	1310.810303	5948.323242	3294.504150	42.774952
687.243164	1310.369141	5912.043457	3275.206055	42.698303
687.571777	1307.281494	5879.072754	3258.334473	42.675900
687.900269	1308.825317	5843.344727	3250.174561	42.812679
688.228699	1309.707520	5811.365234	3234.074707	42.747967
688.557129	1305.186401	5783.466309	3219.849365	42.754429
688.885498	1306.950806	5757.552246	3209.042725	42.737862
689.213867	1310.920532	5727.668457	3193.273926	42.618538
689.542114	1311.140991	5706.827148	3185.995850	42.652157
689.870361	1310.369141	5686.095703	3172.763428	42.561943
690.198608	1305.737671	5651.470215	3163.059570	42.738983
690.526794	1305.296631	5620.042969	3151.590820	42.790333
690.854858	1302.870605	5598.098633	3139.571533	42.761429
691.182922	1300.775513	5560.605957	3127.220703	42.876007
691.510986	1300.224121	5533.919922	3115.421387	42.875004
691.838928	1297.908447	5499.404785	3098.880615	42.865021
692.166931	1297.687866	5463.015137	3080.795898	42.808353
692.494812	1296.695557	5415.708496	3056.315430	42.719456
692.822632	1295.702881	5372.591309	3039.553955	42.774071
693.150452	1293.056396	5328.923828	3020.366455	42.798981
693.478149	1296.144043	5291.430664	2998.973633	42.620960
693.805908	1294.379639	5266.067871	2984.527832	42.554905
694.133606	1294.710449	5228.244141	2970.964355	42.614452
694.461243	1296.585083	5198.580078	2963.796387	42.727150
694.788818	1295.261841	5180.605957	2956.518311	42.756996
695.116333	1293.938477	5170.019531	2956.518311	42.893318
695.443848	1295.261719	5164.505371	2959.164551	43.003311
695.771301	1292.284302	5178.620605	2964.016846	43.015640
696.098755	1289.748047	5203.322266	2978.572754	43.153000
696.426147	1293.166626	5236.514160	3002.722168	43.352898
696.753418	1293.717896	5275.661133	3025.989990	43.503181
697.080688	1297.687744	5332.451660	3046.390381	43.340893
697.407898	1298.569946	5386.485352	3072.966309	43.405895
697.735107	1301.768066	5424.308594	3096.343994	43.530827
698.062317	1303.201660	5465.219727	3117.295898	43.586891
698.389404	1306.289307	5499.735352	3125.345947	43.378559
698.716492	1305.407104	5531.273438	3141.114990	43.439800
699.043457	1303.863281	5551.122559	3153.244873	43.542942
699.370483	1305.406982	5568.545410	3163.389404	43.582500
699.697388	1309.597412	5572.294434	3164.823242	43.522346
700.024292	1313.677490	5568.766113	3165.375000	43.517246
700.351135	1314.008423	5560.936523	3161.294678	43.496998
700.677917	1318.860352	5549.137695	3158.317383	43.483131
701.004639	1319.191162	5533.699219	3154.788574	43.554253
701.331299	1319.963013	5514.731934	3141.114502	43.414822
701.658020	1321.286133	5491.244629	3125.896973	43.276470
701.984619	1319.963013	5453.972168	3108.694336	43.268681
702.311218	1319.742432	5411.186523	3082.339355	43.080070
702.637756	1319.191040	5359.027344	3052.896484	42.915237
702.964233	1319.411621	5287.901855	3022.461426	42.914299
703.290649	1316.213867	5216.665527	2978.131592	42.608341
703.617065	1319.080933	5132.086914	2940.308105	42.518349
703.943481	1320.624756	5047.287109	2904.249023	42.494438
704.269775	1320.735107	4959.289551	2862.345703	42.368767
704.596008	1319.522095	4881.105957	2830.807861	42.432968
704.922241	1317.095947	4814.500977	2796.292480	42.294117
705.248474	1316.323975	4747.565430	2772.803955	42.447609
705.574585	1315.882935	4687.687500	2749.095703	42.505806
705.900696	1316.103271	4637.072266	2719.983643	42.273216
706.226746	1314.559570	4597.925781	2700.134766	42.199837
706.552734	1311.692505	4570.799316	2688.997070	42.260185
706.878723	1306.068604	4551.612305	2678.741455	42.294079
707.204651	1302.649902	4529.888672	2673.117676	42.465645
707.530518	1301.547363	4516.986328	2664.957520	42.401993
707.856323	1302.098633	4510.700684	2652.055664	42.073059
708.182068	1301.988403	4514.008789	2654.591797	42.110672
708.507813	1299.341797	4509.597656	2653.489014	42.181908
708.833496	1301.106201	4522.278809	2654.702148	42.021839
709.159180	1301.878052	4538.268066	2665.619141	42.137722
709.484802	1303.091187	4550.949219	2673.558838	42.196049
709.810303	1303.752563	4569.696289	2674.110352	41.959011
710.135864	1306.178711	4579.620117	2679.844482	41.963963
710.461304	1306.288818	4591.309570	2680.506104	41.832832
710.786743	1305.627319	4600.352051	2682.490967	41.789948
711.112122	1305.847900	4608.181152	2680.395752	41.623535
711.437500	1305.406860	4615.128418	2674.661621	41.370693
711.762817	1308.825195	4614.136230	2673.338379	41.282444
712.088013	1307.171143	4618.546875	2675.102783	41.310070
712.413269	1309.266357	4613.364258	2666.170654	41.067314
712.738403	1312.133423	4616.562012	2664.957520	40.939728
713.063538	1313.125977	4610.276855	2665.178467	41.006691
713.388611	1312.243652	4604.983398	2664.185547	41.058266
713.713623	1309.817749	4597.154297	2665.839600	41.249866
714.038574	1312.243652	4596.713379	2671.022461	41.369808
714.363525	1310.258789	4590.096680	2671.022461	41.488747
714.688477	1305.847900	4579.951660	2672.787109	41.750027
715.013306	1306.730103	4555.581543	2664.516602	41.792816
715.338135	1307.391724	4534.299316	2655.253662	41.769459
715.662842	1306.068604	4507.282227	2644.447021	41.808468
715.987549	1306.950684	4475.633789	2625.590332	41.614754
716.312195	1308.274048	4442.441406	2607.505615	41.453800
716.636841	1303.863037	4403.735840	2591.405762	41.535339
716.961426	1300.003540	4372.087891	2575.636719	41.523376
717.285950	1297.687744	4341.210938	2564.388916	41.619568
717.610474	1293.497437	4300.630371	2548.840332	41.745510
717.934937	1293.056396	4265.012695	2539.577637	41.942783
718.259277	1292.615234	4230.827637	2532.299561	42.191788
718.583679	1291.291992	4202.046875	2525.021484	42.385208
718.908020	1288.535156	4169.406738	2508.260254	42.338753
719.232239	1286.881104	4142.720703	2498.997559	42.443436
719.556519	1287.542725	4115.262695	2490.065674	42.526237
719.880737	1287.322144	4084.717285	2479.148682	42.604870
720.204834	1284.344727	4055.274902	2461.615234	42.486473
720.528931	1288.755615	4025.060303	2447.059326	42.330948
720.852966	1286.440063	3988.890625	2422.799561	42.049221
721.176941	1288.424805	3950.295410	2407.361084	42.035713
721.500916	1289.307129	3919.970703	2388.725098	41.792419
721.824829	1284.675537	3898.798096	2376.815674	41.778461
722.148743	1284.785767	3867.370117	2362.921387	41.746384
722.472534	1288.535034	3844.874268	2350.019287	41.523605
722.796326	1289.417236	3823.701660	2342.520752	41.554276
723.119995	1288.424805	3799.882813	2342.631104	41.975868
723.443665	1293.056396	3787.201172	2341.528320	42.037331
723.767334	1294.820801	3769.006348	2334.250244	42.010975
724.090942	1294.600220	3758.751221	2326.972168	41.895645
724.414551	1299.231689	3752.686035	2326.090088	41.853577
724.737976	1300.223999	3747.503418	2325.318115	41.887093
725.061462	1302.539795	3747.393555	2318.591309	41.558784
725.384888	1302.870728	3747.834717	2319.694092	41.588482
725.708252	1303.311768	3747.503662	2327.302734	41.894867
726.031616	1303.863159	3752.465820	2333.257324	42.040070
726.354858	1302.981079	3753.017090	2336.455811	42.182018
726.678162	1301.878296	3762.721436	2341.528320	42.247715
727.001404	1305.517334	3766.580811	2349.136963	42.405231
727.324463	1307.281860	3771.102051	2354.871094	42.518898
727.647583	1309.928345	3778.269775	2367.111572	42.829700
727.970642	1306.179077	3790.069092	2374.279053	43.001095
728.293701	1308.715210	3792.384766	2380.895752	43.169212
728.616699	1309.707642	3797.126221	2379.241211	42.997734
728.939575	1309.928223	3815.431152	2386.188721	42.955868
729.262512	1305.958252	3825.686768	2395.561768	43.242893
729.585266	1305.627441	3834.950195	2403.060303	43.388409
729.908142	1304.193848	3854.909180	2408.684082	43.301197
730.230896	1302.098633	3868.252197	2411.220459	43.221180
730.553467	1304.193848	3887.329346	2418.388428	43.133415
730.876160	1301.106201	3901.333740	2425.335205	43.235794
731.198792	1296.695313	3912.360840	2429.856445	43.322098
731.521362	1294.159058	3927.357910	2429.084229	43.100628
731.843872	1293.056152	3925.152832	2430.628174	43.219234
732.166321	1289.968506	3925.152832	2427.209961	43.156048
732.488770	1291.732910	3926.476074	2420.262939	42.832638
732.811157	1289.196655	3919.639404	2416.733887	42.864922
733.133484	1288.755615	3912.250732	2410.889404	42.772476
733.455811	1290.299438	3894.386475	2400.634277	42.638165
733.778015	1290.961182	3877.845947	2395.230957	42.687244
734.100281	1289.527710	3869.685547	2387.622314	42.559204
734.422424	1286.660522	3857.666016	2372.514648	42.234612
734.744507	1290.189331	3842.668945	2364.244141	42.078880
735.066589	1288.645508	3832.192627	2361.156738	42.165966
735.388611	1291.512695	3820.062988	2358.951172	42.215435
735.710571	1290.630493	3804.293945	2355.312012	42.355770
736.032532	1292.505005	3794.038574	2348.364990	42.208504
736.354431	1292.284424	3781.467529	2341.086914	42.134403
736.676270	1293.276733	3765.367920	2332.154785	42.024258
736.998108	1298.900879	3751.914551	2328.957031	41.991455
737.319824	1297.687866	3736.807373	2318.370605	41.846359
737.641541	1301.547485	3717.729980	2308.776855	41.686806
737.963135	1302.209106	3696.888672	2300.396484	41.683544
738.284790	1303.311890	3671.305176	2294.552002	41.859924
738.606323	1303.532227	3660.498047	2285.399414	41.658100
738.927856	1305.517334	3650.022217	2274.923584	41.348015
739.249390	1307.391968	3639.436279	2270.071533	41.280499
739.570740	1311.913086	3628.740234	2260.919189	40.961456
739.892212	1310.810303	3617.933350	2258.162109	41.062042
740.213562	1308.604858	3610.214355	2253.530518	41.054996
740.534790	1310.479614	3603.818359	2243.936768	40.702976
740.856079	1306.730347	3588.931641	2238.643555	40.833965
741.177246	1304.304443	3578.455322	2239.746582	41.133690
741.498413	1306.399536	3569.964600	2235.997314	41.067863
741.819580	1307.943237	3562.245605	2229.050293	40.859962
742.140625	1309.707642	3551.989990	2228.608887	40.980625
742.461670	1307.722534	3536.992920	2221.551758	40.992298
742.782654	1306.950562	3515.489990	2211.406738	40.952682
743.103577	1309.155884	3498.728760	2208.098633	41.055622
743.424438	1309.707275	3477.335938	2200.820557	41.110054
743.745300	1305.847900	3448.003418	2191.006592	41.320934
744.066101	1304.745117	3421.758545	2184.059082	41.535587
744.386902	1303.421875	3399.924561	2176.450195	41.642128
744.707581	1302.649902	3381.399170	2165.643311	41.515030
745.028198	1302.429443	3367.504395	2160.350342	41.544300
745.348816	1299.562378	3355.815430	2157.813965	41.738621
745.669373	1297.357056	3337.620605	2153.623535	41.968426
745.989929	1295.261963	3316.558350	2145.242920	42.051277
746.310364	1293.497437	3301.892090	2141.934814	42.244556
746.630798	1294.159180	3289.431641	2137.523926	42.268150
746.951172	1290.409912	3286.343750	2133.995117	42.265190
747.271545	1286.109375	3276.529297	2134.877441	42.642662
747.591858	1290.299683	3275.537109	2132.230713	42.409588
747.912109	1295.261841	3266.936035	2124.180908	42.041382
748.232300	1291.512695	3258.555176	2118.446533	42.039452
748.552429	1294.159180	3245.542725	2119.438965	42.292034
748.872559	1289.637817	3235.066895	2112.161377	42.279800
749.192627	1293.387329	3235.287598	2110.176270	42.061321
749.512695	1293.166626	3236.941162	2112.271484	42.139912
749.832642	1293.938477	3234.956543	2101.685059	41.614582
750.152588	1295.592651	3234.625732	2097.825439	41.372826
750.472473	1295.592651	3243.116455	2096.171387	41.107521
750.792358	1297.246704	3246.204346	2096.943359	41.032017
751.112122	1298.570068	3241.242188	2094.848145	40.988804
751.431824	1300.775391	3249.181641	2101.574707	41.100224
751.751587	1300.334351	3246.093750	2099.479736	41.071129
752.071228	1299.452148	3243.447510	2095.399658	40.943901
752.390869	1300.665161	3240.911133	2092.091553	40.790005
752.710327	1303.752808	3238.595215	2095.179199	40.903919
753.029846	1303.201416	3238.595215	2094.958740	40.909367
753.349304	1304.524780	3236.610596	2090.988770	40.705437
753.668762	1305.186279	3230.545654	2083.159180	40.406631
753.988098	1304.965820	3223.157471	2075.991699	40.195457
754.307434	1304.193848	3213.674072	2069.926514	40.101627
754.626770	1303.862915	3210.917480	2069.375244	40.141083
754.946045	1302.760376	3209.262939	2062.538086	39.851910
755.265259	1299.011108	3208.050293	2058.017090	39.758533
755.584351	1300.885742	3207.277832	2052.724121	39.437763
755.903442	1299.562500	3202.756592	2050.849609	39.475067
756.222534	1298.459839	3192.391357	2045.997803	39.470169
756.541565	1296.033813	3191.288330	2047.982666	39.675350
756.860535	1295.813354	3191.178223	2046.328491	39.597397
757.179443	1294.820923	3185.995605	2047.761963	39.813404
757.498291	1297.467529	3183.789795	2052.613770	40.032726
757.817139	1300.665405	3188.752197	2053.385742	39.866829
758.135925	1302.540039	3184.892822	2047.541260	39.578194
758.454651	1301.657837	3183.569092	2039.932495	39.230045
758.773376	1305.958374	3179.820313	2039.711914	39.157288
759.092041	1306.178955	3185.002930	2040.814575	39.100822
759.410645	1302.540039	3189.193359	2038.609009	39.014534
759.729187	1301.547485	3180.482178	2034.859741	39.028088
760.047607	1301.768188	3185.223633	2033.977661	38.875858
760.366089	1305.406982	3187.319092	2038.940063	38.978073
760.684509	1305.186523	3201.543945	2043.351196	38.925400
761.002869	1305.627563	3227.237305	2056.473877	39.073818
761.321228	1304.193970	3265.833008	2074.227295	39.254589
761.639465	1306.840576	3313.470703	2099.148926	39.484524
761.957642	1306.730225	3365.739990	2119.990479	39.497639
762.275879	1304.965820	3409.297607	2144.140137	39.878422
762.593994	1303.752930	3447.561768	2157.152344	39.807625
762.912109	1302.539673	3483.180176	2170.715820	39.812893
763.230103	1305.296387	3503.359863	2184.058838	39.978939
763.548157	1302.649780	3515.710449	2194.865479	40.315918
763.866150	1302.980713	3529.274170	2200.158691	40.299179
764.184021	1301.326660	3539.860596	2201.812988	40.226612
764.501892	1298.018555	3546.587158	2209.973145	40.557117
764.819702	1295.923340	3544.491699	2210.414307	40.669922
765.137451	1296.474731	3548.792725	2217.692383	40.900871
765.455200	1292.504883	3554.416748	2217.582031	40.898018
765.772888	1293.607666	3544.161377	2221.220703	41.217102
766.090515	1293.828247	3534.347168	2222.213379	41.436165
766.408081	1295.371948	3534.897949	2215.817627	41.100025
766.725586	1293.938477	3525.415283	2217.361328	41.381691
767.043091	1294.269287	3515.600342	2216.809814	41.530979
767.360535	1294.820679	3500.824463	2212.840088	41.614586
767.677917	1293.497437	3468.404053	2196.630127	41.525124
767.995239	1291.512573	3422.089355	2171.156982	41.286682
768.312500	1292.174194	3362.983643	2146.345703	41.248192
768.629822	1290.299561	3302.553467	2121.203613	41.292206
768.947021	1290.520142	3246.204346	2092.753174	41.020580
769.264160	1294.379639	3190.406738	2074.006836	41.118992
769.581299	1294.379639	3148.392822	2052.172852	40.873131
769.898376	1292.505005	3111.230713	2036.072876	40.884003
770.215393	1292.174072	3077.928467	2017.988281	40.644684
770.532349	1292.504883	3049.698975	2000.895996	40.313766
770.849304	1291.512451	3019.925293	1987.774048	40.283291
771.166199	1290.740601	2998.863281	1970.130371	39.774063
771.483032	1287.542725	2981.770752	1963.844849	39.918011
771.799866	1288.645508	2961.260010	1954.802490	39.827286
772.116577	1291.622803	2940.528564	1949.619385	39.905045
772.433350	1293.938599	2928.509033	1943.003174	39.708572
772.749939	1294.931030	2919.025391	1932.637451	39.265354
773.066589	1294.048828	2905.131348	1933.850220	39.712517
773.383057	1297.357178	2888.811035	1926.351563	39.523254
773.699646	1298.680420	2876.460205	1918.742920	39.299686
774.016113	1300.885864	2860.029785	1907.715576	38.920700
774.332520	1303.201660	2851.208008	1903.084229	38.751945
774.648804	1308.494751	2842.055176	1902.202026	38.714306
774.965149	1307.943359	2831.689697	1893.710938	38.442593
775.281433	1313.126099	2820.993164	1887.204834	38.072239
775.597656	1313.677490	2814.156494	1887.756104	38.259689
775.913879	1312.905640	2807.540283	1880.919312	38.003513
776.229980	1314.449463	2797.836426	1879.596313	38.098412
776.546082	1312.023315	2787.691162	1877.170166	38.297699
776.862122	1315.882935	2780.854248	1876.618896	38.276241
777.178162	1317.978149	2771.812012	1872.979858	38.175045
777.494141	1315.331421	2767.621582	1870.995117	38.261204
777.809998	1314.780151	2755.822266	1871.877197	38.659317
778.125854	1316.544556	2750.309082	1872.318237	38.763248
778.441711	1317.426758	2744.133789	1871.877075	38.862240
778.757446	1316.323975	2737.847900	1866.363525	38.693653
779.073181	1313.567017	2733.547363	1858.864990	38.401798
779.388855	1316.323853	2727.702637	1857.210938	38.323311
779.704468	1315.552124	2723.623047	1857.541870	38.491650
780.020020	1310.258911	2717.888672	1850.043335	38.347046
780.335571	1311.251343	2708.736328	1847.837769	38.396580
780.651062	1310.479492	2703.222168	1848.499390	38.630245
780.966553	1307.722656	2697.708740	1841.883179	38.429199
781.281860	1301.657471	2686.020020	1837.141357	38.680901
781.597290	1301.767944	2678.631592	1839.787964	39.075768
781.912476	1299.231812	2675.102783	1835.708008	38.991753
782.227722	1300.775635	2666.060547	1835.046143	39.132530
782.542908	1299.011108	2654.923096	1830.084106	39.167217
782.858093	1299.452148	2642.682373	1830.525146	39.537006
783.173218	1302.539917	2640.256836	1824.129150	38.991001
783.488281	1300.003662	2639.595215	1817.291992	38.615376
783.803345	1299.562622	2630.883789	1819.387329	39.045776
784.118225	1301.547485	2618.202148	1815.968994	39.070343
784.433167	1302.208862	2609.821533	1809.573120	38.800808
784.748047	1303.532227	2603.425537	1797.222656	37.979305
785.062866	1306.619995	2590.193115	1786.085205	37.353947
785.377686	1305.958374	2579.276123	1788.400879	37.888618
785.692444	1306.619995	2568.689697	1787.739380	38.121460
786.007141	1305.517334	2564.830078	1789.614014	38.441338
786.321716	1308.825439	2558.765137	1787.187866	38.270840
786.636353	1311.141113	2562.073242	1792.481079	38.478504
786.950928	1309.487061	2567.256104	1792.591309	38.409615
787.265442	1308.715088	2574.313721	1793.583740	38.311409
787.579834	1304.414551	2570.674561	1797.884277	38.970646
787.894226	1308.163696	2576.850098	1798.435669	38.644062
788.208618	1304.193970	2578.834961	1797.332764	38.688446
788.522949	1305.517212	2574.424072	1798.215088	38.828529
788.837219	1302.870605	2574.424072	1792.039795	38.470203
789.151367	1303.752808	2579.937500	1790.275513	38.123222
789.465515	1301.657593	2579.937744	1781.233032	37.517242
789.779602	1299.893188	2571.005615	1780.681763	37.824238
790.093689	1303.973267	2559.427002	1780.350830	37.944653
790.407776	1300.554688	2555.016113	1776.711914	37.957104
790.721741	1299.672607	2549.943848	1772.962769	37.855000
791.035645	1298.018555	2541.562988	1770.206055	37.971100
791.349548	1296.695190	2534.615967	1768.331421	38.099064
791.663391	1293.938477	2536.270020	1773.293701	38.585129
791.977173	1296.805664	2532.630859	1769.654785	38.261814
792.290894	1296.254150	2521.714111	1765.133423	38.261494
792.604614	1298.790771	2510.466064	1755.318970	37.677437
792.918274	1299.231812	2501.754639	1747.489746	37.276459
793.231812	1298.680542	2485.764893	1740.542603	37.222466
793.545410	1298.459839	2473.083496	1732.051514	36.913242
793.858948	1300.113892	2456.983398	1730.286987	37.184238
794.172363	1304.524780	2451.690186	1727.309937	36.854767
794.485840	1302.209106	2442.427490	1727.309937	37.282406
794.799194	1308.494629	2439.449951	1723.560669	36.700481
795.112488	1307.171265	2438.126953	1721.906494	36.671219
795.425781	1309.156128	2435.370117	1718.267456	36.326252
795.738953	1305.958374	2428.533203	1715.731201	36.502941
796.052185	1307.061035	2428.753906	1717.054688	36.551331
796.365234	1307.171265	2428.754150	1712.643555	36.151791
796.678284	1305.627441	2429.966797	1709.445679	35.916046
796.991333	1308.825317	2427.540771	1705.806885	35.485481
797.304382	1309.927979	2429.305176	1703.821777	35.188656
797.617310	1312.023193	2428.974121	1703.601196	35.057762
797.930115	1312.574463	2422.468262	1703.821777	35.250877
798.242981	1314.890259	2417.726318	1698.859375	34.816517
798.555786	1313.236084	2413.425781	1694.448608	34.649708
798.868530	1317.205933	2412.764160	1692.794678	34.282864
799.181213	1313.346436	2411.110352	1691.250732	34.424915
799.493896	1313.125854	2406.479004	1686.508911	34.150269
799.806519	1316.985474	2406.037842	1685.626831	33.849735
800.119080	1318.198608	2402.068115	1686.950195	34.021770
800.431580	1315.000610	2392.033203	1680.995361	33.981770
800.744080	1313.897949	2382.329346	1677.025269	33.986958
801.056458	1315.000732	2373.948486	1665.667358	33.114628
801.368835	1312.133667	2360.054199	1664.123657	33.589378
801.681152	1314.890381	2348.144531	1659.823120	33.383144
801.993408	1316.765015	2338.440430	1657.066162	33.308147
802.305664	1319.962891	2329.397949	1658.279053	33.515396
802.617798	1320.845093	2318.812012	1656.625000	33.646397
802.929993	1320.403809	2310.431396	1654.970947	33.793720
803.242065	1321.396240	2301.058105	1654.419678	33.993713
803.554016	1318.418945	2295.985596	1650.560059	33.976315
803.865967	1318.639404	2289.479492	1649.788086	34.109497
804.177979	1316.103271	2288.045898	1649.677979	34.320412
804.489807	1314.890381	2288.045654	1650.119019	34.447601
804.801697	1311.251343	2286.281494	1649.898682	34.731987
805.113464	1310.369263	2280.547363	1650.891235	35.098915
805.425232	1306.730225	2282.311523	1650.119263	35.198402
805.736938	1305.627563	2277.900879	1648.795898	35.295460
806.048584	1300.554932	2273.269287	1649.347412	35.857647
806.360168	1297.467285	2267.535400	1648.354858	36.171436
806.671753	1296.915771	2257.280029	1646.259644	36.376183
806.983276	1298.790527	2257.831299	1643.943848	35.989429
807.294739	1300.223999	2252.979248	1641.628174	35.833355
807.606140	1301.437012	2248.568359	1645.818481	36.360477
807.917542	1301.326782	2247.906738	1645.156616	36.323380
808.228760	1301.216431	2242.393311	1646.149048	36.649075
808.540100	1300.223999	2231.917236	1650.008545	37.542889
808.851318	1297.026123	2225.080322	1646.479858	37.654453
809.162476	1297.356934	2217.361328	1645.597656	37.852070
809.473633	1297.246704	2212.840088	1646.369751	38.130795
809.784668	1291.071411	2206.113525	1639.643066	38.093510
810.095703	1295.813110	2194.975830	1638.981445	38.165321
810.406738	1298.570068	2186.594971	1631.372803	37.476734
810.717590	1302.870605	2174.465332	1626.410400	37.120441
811.028503	1303.311890	2163.548096	1624.756348	37.367001
811.339294	1303.201416	2153.733887	1616.706299	36.859837
811.650085	1302.209106	2148.661377	1613.728760	36.802979
811.960876	1299.231812	2137.082764	1611.413330	37.259792
812.271545	1301.988525	2129.143311	1608.325562	37.035030
812.582153	1309.045898	2126.496582	1604.686523	36.166172
812.892761	1307.281616	2116.902832	1594.431152	35.467144
813.203308	1302.980957	2115.579590	1591.784790	35.540771
813.513855	1303.973511	2111.058594	1591.123169	35.578609
813.824280	1303.311768	2107.530029	1590.241089	35.678040
814.134705	1301.988525	2105.765869	1586.601929	35.409485
814.445068	1301.437012	2096.943604	1581.639648	35.223171
814.755371	1301.437012	2098.156738	1573.810425	34.186855
815.065613	1299.562378	2102.016113	1567.855713	33.434120
815.375854	1302.980835	2101.354492	1568.517334	33.259678
815.686035	1302.208984	2104.111328	1567.965942	33.140812
815.996155	1303.311646	2104.442139	1569.178955	33.186516
816.306152	1308.053467	2105.544922	1574.251465	33.379417
816.616211	1306.840454	2114.036133	1573.038452	32.978127
816.926208	1303.091187	2117.675049	1579.544800	33.938019
817.236145	1303.752930	2126.166016	1582.852905	33.936714
817.546021	1304.524780	2139.619141	1585.719849	33.672253
817.855774	1305.186401	2151.638916	1593.438965	34.054192
818.165588	1305.958252	2168.951660	1598.511475	33.899822
818.475281	1309.928101	2192.218750	1604.686768	33.408340
818.784973	1305.406860	2222.102783	1618.801758	34.187443
819.094604	1299.231689	2250.112061	1633.026733	35.103790
819.404175	1298.790405	2295.434082	1654.088867	35.649498
819.713684	1298.680298	2358.620117	1677.797485	35.767803
820.023254	1297.577515	2484.661865	1737.565308	37.064575
820.332642	1295.923340	2704.766113	1837.031006	38.407951
820.642090	1295.923584	2994.231445	1968.145264	39.581852
820.951416	1296.144043	3298.804688	2103.008789	40.289639
821.260681	1292.725586	3552.982910	2218.684570	40.966972
821.569946	1293.497559	3751.914551	2301.719727	41.011032
821.879150	1294.159180	3915.779785	2370.970703	41.074268
822.188293	1295.592773	4045.460449	2428.202148	41.187778
822.497437	1298.018799	4152.204102	2474.958008	41.235558
822.806458	1298.018799	4247.811035	2518.625977	41.379429
823.115479	1298.790649	4328.861328	2557.883057	41.553234
823.424438	1300.334473	4405.721191	2588.428467	41.479343
823.733337	1295.813232	4468.245605	2618.532715	41.694176
824.042236	1296.144043	4520.073730	2636.507324	41.575451
824.351013	1295.372192	4567.932129	2657.679932	41.628197
824.659790	1297.467407	4607.079102	2677.197998	41.688591
824.968445	1297.908447	4665.522949	2704.435547	41.766273
825.277100	1301.106445	4735.656250	2741.597412	41.941189
825.585693	1304.635010	4822.220703	2780.192871	41.948029
825.894287	1309.376709	4879.562012	2808.312256	41.984810
826.202820	1314.890381	4901.395996	2821.434814	42.005913
826.511292	1313.787720	4834.019531	2786.919434	41.847576
826.819702	1316.213745	4662.435059	2710.720947	41.674088
827.128113	1320.073242	4409.911133	2600.448242	41.438259
827.436401	1319.962769	4141.618164	2480.471436	41.128647
827.744751	1321.506592	3911.148438	2379.131104	40.840572
828.052917	1322.057983	3731.293945	2303.484131	40.735992
828.361145	1319.521729	3583.308105	2242.062256	40.752102
828.669312	1320.183350	3465.977295	2193.542480	40.700977
828.977356	1315.993164	3366.732178	2147.558838	40.549561
829.285400	1312.464233	3275.867920	2105.875977	40.410015
829.593384	1310.920532	3197.353516	2073.676270	40.433758
829.901306	1307.833008	3122.257813	2041.035767	40.409653
830.209167	1312.133667	3057.858887	2010.710571	40.016430
830.517029	1312.795288	2998.532471	1988.545532	40.086334
830.824829	1314.669922	2946.704346	1966.821777	39.959442
831.132568	1311.802856	2898.073975	1945.208374	39.930470
831.440247	1308.935791	2841.724609	1923.043579	40.064735
831.747925	1308.384399	2783.059814	1889.520874	39.407757
832.055481	1305.848022	2716.786133	1861.622070	39.390392
832.363037	1306.178833	2668.706787	1842.765381	39.381691
832.670532	1304.635010	2628.898438	1826.334473	39.395443
832.977966	1306.178833	2611.034180	1814.976563	38.992653
833.285400	1308.825317	2591.847168	1806.816650	38.813942
833.592712	1306.840454	2572.659668	1801.633789	39.088783
833.900085	1307.391724	2552.700195	1793.804321	39.059608
834.207275	1302.760254	2539.798096	1785.974854	39.062233
834.514526	1301.767822	2527.668213	1780.791870	39.075283
834.821716	1302.760376	2517.964111	1775.609131	38.911068
835.128784	1303.091187	2508.921631	1764.361450	38.253326
835.435852	1306.399292	2503.297852	1761.053345	37.986015
835.742798	1308.163696	2494.696533	1758.076050	37.918240
836.049805	1307.722534	2485.323730	1750.577393	37.606522
836.356750	1309.597168	2474.847656	1745.725464	37.427856
836.663574	1306.950562	2463.930664	1740.652954	37.485725
836.970398	1307.060913	2452.021484	1735.249390	37.397663
837.277161	1304.524658	2437.244629	1726.096924	37.217693
837.583923	1305.075928	2424.122314	1715.069580	36.637772
837.890564	1308.053345	2396.774658	1698.638916	35.875626
838.197205	1308.604858	2354.650391	1680.113037	35.515488
838.503784	1311.692505	2308.005371	1656.845581	34.643040
838.810303	1309.376709	2257.059326	1634.019287	34.256466
839.116699	1306.509766	2211.626953	1611.082397	33.650078
839.423096	1309.046021	2160.791260	1592.446411	33.272907
839.729492	1308.715210	2120.541992	1571.053589	32.314575
840.035828	1304.745361	2089.996582	1550.211914	31.259621
840.342102	1302.760620	2067.500732	1540.838867	31.131916
840.648315	1308.494751	2039.601807	1530.252686	30.331800
840.954529	1311.692505	2021.517090	1521.430908	29.547920
841.260620	1313.015747	2003.432251	1512.498779	28.893143
841.566711	1310.258911	1989.207275	1507.095459	28.991386
841.872803	1309.707397	1968.365845	1495.406616	28.193554
842.178772	1312.795044	1954.250977	1491.326416	27.832212
842.484680	1310.920532	1935.394165	1484.158813	27.741489
842.790588	1312.574585	1921.830688	1476.219116	26.859728
843.096436	1313.567017	1911.354858	1466.404907	25.567245
843.402222	1314.118286	1899.996826	1461.663086	25.183514
843.707947	1315.551880	1889.300415	1461.993896	25.523727
844.013611	1315.993042	1878.162720	1459.016602	25.441351
844.319275	1313.125977	1861.070679	1454.164551	25.739563
844.624817	1314.118530	1844.529785	1443.358032	24.365906
844.930359	1311.913086	1820.380005	1436.300537	24.463234
845.235901	1311.030884	1800.530884	1427.699219	23.834185
845.541321	1315.993164	1778.035400	1417.885010	22.052496
845.846680	1311.913086	1765.354004	1409.283691	21.473715
846.152039	1311.472046	1751.459839	1403.770020	20.977394
846.457275	1316.323975	1736.793335	1401.454224	20.246481
846.762512	1318.308838	1724.553223	1393.183838	18.431025
847.067749	1316.654785	1716.392822	1390.868042	18.565474
847.372925	1315.110840	1705.365479	1384.803101	17.858150
847.677979	1313.125977	1699.410889	1379.620239	17.213787
847.983032	1314.669922	1687.391235	1374.878540	16.153790
848.288025	1310.369263	1681.767456	1377.084106	17.963158
848.592957	1309.045898	1679.782349	1372.121826	17.013683
848.897888	1312.905518	1675.812744	1369.916382	15.709487
849.202759	1312.133667	1675.151001	1368.924072	15.643992
849.507507	1308.715210	1670.739990	1374.658325	18.215084
849.812317	1308.825439	1668.093506	1372.563110	17.740978
850.117004	1308.163818	1667.211182	1369.144653	16.984064
850.421631	1305.958374	1663.682617	1367.380249	17.170174
850.726257	1304.745361	1661.146240	1371.019165	18.595297
851.030823	1304.635010	1660.154053	1375.430054	19.913151
851.335327	1303.421875	1660.264282	1375.430054	20.179266
851.639771	1301.326782	1656.404785	1371.570313	19.782562
851.944153	1296.805664	1654.419800	1373.114258	21.338249
852.248535	1297.136353	1657.507446	1374.658081	21.511639
852.552856	1295.041260	1663.792725	1374.768311	21.620810
852.857056	1291.733032	1663.131104	1370.467773	21.199556
853.161255	1286.770874	1662.579834	1370.026611	22.153740
853.465393	1284.124268	1660.594727	1368.813477	22.495579
853.769531	1279.382568	1652.765381	1367.049072	23.478987
854.073547	1280.044189	1649.788086	1366.608032	23.411839
854.377563	1280.375000	1644.715576	1366.828491	23.728758
854.681580	1280.485474	1645.156616	1362.417725	22.467434
854.985474	1280.926392	1640.194336	1358.889038	21.700418
855.289307	1279.492920	1640.525269	1358.668579	21.930351
855.593140	1276.736084	1639.312134	1361.866455	23.479315
855.896851	1277.066895	1640.525269	1359.440430	22.663815
856.200623	1276.736084	1638.981445	1359.219971	22.770170
856.504272	1275.633423	1635.783691	1355.691162	22.228983
856.807922	1278.169678	1635.452759	1356.573242	21.944382
857.111389	1280.044312	1639.312256	1350.949463	19.736008
857.414978	1278.390259	1637.768555	1351.059692	20.220875
857.718445	1279.382568	1635.121826	1345.656372	18.629883
858.021790	1284.565308	1632.585693	1345.766724	17.585583
858.325195	1287.322144	1635.452881	1346.207764	16.914801
858.628479	1291.071655	1630.380371	1345.766724	16.119558
858.931763	1289.637817	1624.315308	1343.561157	16.112030
859.234985	1288.866089	1626.410522	1348.633789	17.706617
859.538147	1291.071533	1623.763916	1348.523438	17.268776
859.841248	1294.710571	1626.410522	1349.515869	16.522552
860.144287	1297.687866	1629.828857	1348.964600	15.438243
860.447266	1298.459717	1628.615723	1351.170166	15.965316
860.750305	1296.915894	1632.585571	1348.523560	15.374539
861.053223	1299.121338	1634.680786	1349.626343	15.050985
861.356018	1295.592651	1635.342407	1349.295532	15.806599
861.658813	1294.489746	1634.460205	1346.207764	15.212503
861.961609	1299.672607	1630.049316	1343.230347	13.184264
862.264343	1299.562256	1629.056885	1339.701782	12.182149
862.567017	1301.216309	1630.821289	1335.290771	10.337970
862.869629	1302.539673	1627.843994	1337.716797	10.813605
863.172180	1302.429443	1623.322754	1336.062744	10.481148
863.474670	1302.980713	1619.463135	1333.416260	9.616820
863.777161	1304.083496	1617.037231	1330.659424	8.491967
864.079590	1303.973267	1616.044800	1333.306030	9.399372
864.381958	1302.760254	1622.330322	1334.077881	9.799925
864.684265	1300.665161	1622.991943	1330.990356	9.408215
864.986511	1297.246704	1621.889160	1327.792358	9.409014
865.288757	1299.341797	1621.338013	1329.887573	9.486378
865.590942	1301.988281	1621.117432	1328.564209	8.327641
865.893066	1303.642578	1622.661133	1328.895020	7.915666
866.195068	1301.988403	1619.352905	1328.564209	8.373906
866.497131	1300.223999	1619.353027	1332.975098	10.262651
866.799133	1304.193848	1623.874023	1331.541504	8.554692
867.100952	1304.965698	1619.794067	1333.967407	9.211911
867.402832	1306.619751	1616.816650	1334.959961	9.136200
867.704651	1309.597168	1615.272827	1334.298218	8.080804
868.006409	1309.045898	1617.808960	1335.180420	8.464264
868.308105	1307.612305	1620.345459	1334.298218	8.533126
868.609802	1310.810303	1620.896973	1332.864746	7.112348
868.911438	1310.148682	1618.360474	1335.511230	8.228935
869.213013	1310.479370	1617.478394	1334.739380	7.902308
869.514465	1310.258911	1621.117432	1336.503662	8.442667
869.815979	1312.133545	1620.345459	1338.929688	8.694064
870.117371	1311.802734	1622.771362	1339.370728	8.865201
870.418701	1315.000610	1624.425537	1337.827026	7.377045
870.720093	1317.536987	1622.440674	1336.834473	6.329043
871.021301	1319.080811	1621.558350	1340.804321	7.181859
871.322571	1320.955322	1622.550781	1344.222778	7.714790
871.623718	1319.301392	1625.638550	1349.736572	9.935190
871.924805	1318.088379	1625.417969	1348.413208	9.867201
872.225891	1318.970581	1625.528442	1349.295532	9.892080
872.526917	1321.396484	1629.277588	1348.633789	8.846696
872.827881	1323.491699	1626.631104	1348.633667	8.293863
873.128784	1318.970459	1619.242920	1348.082275	9.695133
873.429626	1317.867798	1620.345581	1348.523438	10.134840
873.730408	1317.757568	1618.691406	1345.435791	9.197445
874.031189	1314.338989	1621.338013	1348.192627	11.027279
874.331848	1314.780151	1621.227661	1349.515869	11.334965
874.632568	1311.692627	1620.786499	1352.824097	13.307113
874.933167	1311.251343	1620.896973	1355.029541	14.138161
875.233704	1309.156250	1623.102295	1355.581055	14.787511
875.534241	1308.494629	1626.630981	1358.889160	15.840545
875.834717	1307.171509	1627.513184	1357.345337	15.662598
876.135071	1303.752930	1634.570679	1356.352783	15.899949
876.435425	1302.539917	1634.019165	1359.109619	17.065836
876.735779	1304.635132	1635.893799	1361.425415	17.143787
877.036011	1298.901001	1636.004150	1361.094604	18.449429
877.336182	1297.246948	1638.650635	1361.094727	18.701550
877.636353	1294.931152	1645.928589	1365.725952	20.169605
877.936462	1294.931030	1651.001099	1363.740845	19.324797
878.236511	1297.908447	1661.366821	1369.916260	19.811846
878.536560	1297.798218	1679.782349	1374.657959	20.121187
878.836487	1297.246826	1703.049805	1387.339355	22.201052
879.136414	1294.379639	1762.486816	1410.055420	24.711388
879.436279	1291.843506	1852.138428	1452.510376	28.675411
879.736084	1293.276855	1963.513550	1501.030273	30.997023
880.035828	1290.961182	2086.908691	1552.858521	32.903847
880.335510	1293.938477	2202.694824	1601.819702	33.879402
880.635193	1293.276855	2303.594238	1648.465088	35.156105
880.934753	1297.797852	2393.576904	1686.729736	35.493641
881.234314	1296.474854	2473.193359	1719.260010	35.929169
881.533752	1298.569946	2539.467529	1751.680298	36.514725
881.833252	1297.798096	2600.889404	1776.601807	36.743679
882.132629	1298.570068	2658.892822	1799.648804	36.835281
882.431946	1298.680298	2704.766113	1827.327026	37.597046
882.731323	1299.893433	2746.559326	1843.867920	37.601944
883.030579	1298.459839	2780.192627	1859.968018	37.895374
883.329712	1298.018677	2813.053955	1871.877197	37.877567
883.628845	1298.790527	2833.675049	1882.022339	37.998417
883.927979	1298.900879	2847.128174	1886.543701	37.955849
884.226990	1299.452148	2858.045166	1889.631104	37.866135
884.526001	1296.144043	2861.684082	1886.212646	37.691059
884.824951	1296.695435	2855.398682	1884.999390	37.743168
885.123840	1295.702881	2838.306396	1874.413086	37.515163
885.422729	1297.687744	2793.645996	1856.659424	37.365459
885.721497	1300.223999	2709.948975	1816.409912	36.616074
886.020203	1301.216553	2605.962158	1773.073120	36.164642
886.318909	1302.760376	2484.331299	1724.001465	35.650936
886.617554	1302.980835	2367.773193	1671.952881	34.652020
886.916138	1302.980957	2268.858643	1627.843994	33.633972
887.214661	1300.554932	2181.522705	1586.822510	32.494671
887.513184	1301.106323	2099.369629	1555.835815	31.910460
887.811523	1298.018677	2028.905518	1524.408325	30.974651
888.109924	1303.752808	1794.686401	1389.434570	17.452822
888.408264	1292.174194	1871.105347	1477.432129	31.999994
888.706543	1294.489868	1690.478760	1380.171753	21.637447
889.004761	1331.541504	1743.740479	1463.537842	32.022480
889.302979	1313.015747	1655.742920	1366.277344	15.540524
889.601135	1329.225830	1637.217163	1306.068604	-7.518792
889.899170	1282.911255	1678.900146	1391.750366	27.485395
890.197205	1313.015747	1667.321533	1319.962891	1.960776
890.495178	1299.121338	1597.849854	1359.330200	20.155043
890.793091	1271.332642	1570.061157	1336.172974	21.705439
>>>>>End Processed Spectral Data<<<<<
