Jaz Data File
++++++++++++++++++++++++++++++++++++
Date: Fri Jun 21 02:36:06 2019
User: jaz
Dark Spectrum Present: Yes
Reference Spectrum Present: Yes
Processed Spectrum Present: Yes
Spectrometers: JAZA3541
Integration Time (usec): 119000 (JAZA3541)
Spectra Averaged: 1 (JAZA3541)
Boxcar Smoothing: 10 (JAZA3541)
Correct for Electrical Dark: No (JAZA3541)
Strobe/Lamp Enabled: Yes (JAZA3541)
Correct for Detector Non-linearity: No (JAZA3541)
Correct for Stray Light: No (JAZA3541)
Number of Pixels in Processed Spectrum: 2048
>>>>>Begin Processed Spectral Data<<<<<
W	D	R	S	P
190.543274	0.000000	0.000000	0.000000	0.000000
190.921555	0.000000	0.000000	0.000000	0.000000
191.299805	1558.482544	1405.644653	1764.582031	-134.848419
191.678024	1533.009521	1440.380615	1815.527954	-305.000305
192.056229	1539.956665	1535.325317	1769.213379	-4950.107910
192.434387	1519.115234	1551.535278	1797.002075	857.145142
192.812531	1604.796997	1597.849854	1843.316650	-3433.348633
193.190659	1556.166748	1542.272461	1829.422241	-1966.675171
193.568741	1623.322754	1530.693848	1820.159302	-212.500137
193.946793	0.000000	0.000000	0.000000	0.000000
194.324829	1410.165894	1403.770142	1626.741211	-3386.237061
194.702835	1483.938232	1477.322021	1711.099731	-3433.407715
195.080811	1555.725708	1551.645752	1797.994385	-5938.021484
195.458755	1552.307251	1560.467407	1801.192383	3050.004395
195.836685	1553.520386	1565.540039	1801.413086	2062.394775
196.214569	1554.953857	1568.627808	1801.633545	1804.011841
196.592422	1551.425171	1571.164063	1803.398071	1276.530151
196.970261	1549.219727	1570.833130	1801.854126	1168.878418
197.348068	1548.999146	1571.274170	1798.325562	1119.309326
197.725861	1545.690796	1573.810425	1798.436035	898.821411
198.103622	1539.625854	1573.589844	1797.884277	760.388977
198.481323	1540.287598	1569.399536	1797.884277	884.848938
198.859039	1539.846436	1568.958374	1796.671509	882.198486
199.236694	1536.758789	1568.296631	1790.275513	803.849304
199.614334	1539.295166	1566.201660	1788.731812	927.049988
199.991959	1540.728760	1571.604858	1789.172852	804.648560
200.369553	1537.751465	1570.502075	1788.621338	766.000610
200.747101	1536.759033	1571.935669	1789.283081	717.874329
201.124619	1535.215210	1570.502197	1790.275513	722.816895
201.502136	1531.796631	1571.274048	1794.024780	664.248474
201.879623	1529.922119	1568.517334	1797.994629	694.574463
202.257065	1525.621216	1569.730225	1800.861572	624.000305
202.634476	1525.621216	1573.589600	1802.074829	576.324646
203.011871	1524.187744	1573.258911	1800.310303	562.698181
203.389221	1524.408203	1571.715088	1797.222656	576.690796
203.766571	1523.415649	1570.722656	1794.245483	572.494141
204.143875	1523.305542	1567.635010	1797.002075	617.414429
204.521164	1526.613770	1564.878296	1796.230103	704.611694
204.898392	1524.408203	1563.444702	1793.032349	688.135864
205.275620	1523.856812	1563.665405	1796.009644	683.653442
205.652817	1524.297852	1562.783081	1797.994385	711.172913
206.029984	1529.370483	1566.422241	1796.009644	719.639709
206.407135	1528.378052	1568.848267	1795.568604	660.215332
206.784225	1530.473389	1569.950928	1797.333130	675.978638
207.161301	1530.252808	1570.281616	1798.546143	670.250610
207.538376	1528.929443	1571.274170	1797.553345	634.373901
207.915405	1529.260376	1568.517456	1799.207642	687.639709
208.292404	1529.480835	1568.737671	1798.104858	684.273254
208.669373	1525.952148	1570.833008	1800.199951	611.057373
209.046310	1524.628784	1571.053589	1795.017090	582.422058
209.423218	1528.267822	1569.509644	1796.561035	650.536743
209.800095	1530.032227	1570.612549	1795.568604	654.347656
210.176956	1530.032227	1570.833130	1795.237915	649.999573
210.553787	1531.686279	1566.201660	1796.560791	767.410095
210.930603	1535.435425	1566.091553	1795.678711	848.911133
211.307358	1536.648438	1565.760620	1796.340454	892.039001
211.684113	1538.412842	1570.391968	1798.435669	813.101746
212.060837	1534.773804	1573.920776	1798.325317	673.236023
212.437531	1533.340210	1574.802856	1799.207642	641.221558
212.814178	1532.458130	1578.772705	1803.728638	585.713013
213.190826	1532.788940	1580.426758	1799.869019	560.647156
213.567413	1530.914307	1580.095947	1796.671265	540.358032
213.943985	1528.267822	1576.015869	1797.333130	563.510620
214.320541	1528.488281	1577.669800	1795.789307	543.498901
214.697052	1527.716431	1577.228760	1794.796509	539.421387
215.073563	1529.591064	1581.198486	1798.545776	521.155090
215.449997	1529.921875	1582.852661	1801.523193	513.125427
215.826431	1528.708862	1588.586670	1801.964478	456.355408
216.202850	1529.370483	1590.792236	1802.515625	444.704254
216.579224	1533.119751	1588.807495	1799.097290	477.623108
216.955582	1533.560791	1588.586914	1801.633423	487.173401
217.331894	1531.135010	1586.932861	1798.766357	479.644531
217.708191	1532.017090	1588.035400	1795.568481	470.473663
218.084442	1537.420532	1591.674438	1797.884155	480.082703
218.460678	1534.443115	1598.180420	1797.002075	411.939240
218.836899	1532.678711	1603.694214	1800.530640	377.173889
219.213074	1532.127563	1606.892090	1803.177490	362.538147
219.589233	1531.024658	1605.348389	1801.302856	363.649933
219.965347	1533.891846	1609.869385	1798.545898	348.331970
220.341431	1535.987061	1615.713867	1796.230103	326.418488
220.717499	1535.435669	1614.721558	1792.149902	323.783020
221.093552	1534.002075	1619.242554	1794.796509	305.951385
221.469543	1535.104858	1625.197510	1794.906860	288.372009
221.845535	1536.207642	1630.380249	1796.671265	276.581085
222.221466	1537.310303	1634.350098	1797.112305	267.727264
222.597397	1535.435547	1642.069214	1796.781494	245.087646
222.973297	1537.420532	1647.362183	1798.876709	237.813583
223.349167	1536.979492	1655.853271	1798.215088	219.758804
223.725006	1537.530640	1662.359375	1801.633789	211.572403
224.100800	1538.082153	1671.952881	1800.972046	196.375931
224.476578	1538.854004	1682.097900	1805.603638	186.220596
224.852325	1537.971680	1701.726563	1806.265015	163.838379
225.228058	1541.279907	1724.332397	1806.375366	144.819366
225.603760	1540.838867	1750.246460	1807.367920	127.277641
225.979416	1536.317749	1779.248169	1810.014282	112.664581
226.355057	1535.325195	1813.322388	1816.079224	100.991676
226.730652	1533.671143	1852.028076	1819.938843	89.920357
227.106232	1534.773926	1886.543335	1822.695557	81.849533
227.481796	1531.575928	1920.286865	1828.870728	76.482231
227.857315	1528.378052	1946.972900	1830.745483	72.233910
228.232788	1528.819214	1971.673950	1834.274170	68.974075
228.608246	1531.465698	1999.903687	1836.479370	65.112923
228.983704	1534.112305	2022.950684	1837.251709	62.012196
229.359100	1531.575928	2040.263428	1839.457031	60.524605
229.734482	1528.378052	2061.546143	1841.772827	58.779732
230.109833	1529.039795	2075.881592	1849.271606	58.560230
230.485153	1528.488403	2087.349609	1853.351318	58.129444
230.860443	1521.541260	2101.575195	1853.682251	57.262337
231.235703	1520.879517	2121.534668	1856.438965	55.865574
231.610931	1519.225464	2137.523926	1858.864990	54.931324
231.986145	1517.240479	2152.079834	1866.142822	54.959156
232.361313	1516.468506	2165.532959	1866.804443	53.975525
232.736465	1519.115112	2169.833984	1870.333374	53.973885
233.111572	1517.571289	2172.921387	1870.554077	53.861713
233.486664	1518.894653	2171.708252	1873.972656	54.391945
233.861725	1517.350586	2169.944092	1871.987671	54.342724
234.236755	1520.107422	2156.931885	1868.458862	54.701328
234.611771	1522.313110	2138.516357	1866.363647	55.833939
234.986740	1523.415771	2132.671875	1864.268555	55.945732
235.361679	1526.062256	2128.922607	1861.070557	55.569801
235.736588	1526.393188	2124.952881	1861.952759	56.061172
236.111496	1527.936890	2122.196045	1861.952759	56.207104
236.486343	1528.819092	2122.857666	1860.409058	55.819603
236.861160	1527.716309	2128.371582	1863.276001	55.865604
237.235962	1529.370483	2138.626465	1866.253296	55.294132
237.610733	1532.016968	2152.962158	1871.436035	54.661678
237.985474	1532.016968	2177.111572	1870.443604	52.461552
238.360199	1533.009521	2207.988037	1874.413452	50.579971
238.734879	1534.994385	2240.628662	1878.603638	48.695091
239.109543	1532.347900	2281.539551	1889.741211	47.703857
239.484177	1533.450562	2334.360352	1898.122192	45.532173
239.858749	1535.325195	2397.105469	1905.730835	42.981449
240.233322	1530.804199	2464.923096	1913.890991	41.010494
240.607864	1528.709106	2528.660889	1923.043579	39.435349
240.982391	1529.370728	2583.025391	1931.534546	38.168465
241.356857	1527.826904	2627.685547	1939.033081	37.387184
241.731308	1533.340454	2665.288574	1946.200684	36.473423
242.105728	1529.150024	2699.583252	1954.581787	36.348228
242.480118	1528.708984	2736.414307	1959.433838	35.664730
242.854492	1529.480957	2770.378418	1967.263062	35.279476
243.228836	1527.606323	2818.898193	1976.415771	34.756622
243.603134	1531.245361	2883.187256	1989.427856	33.890694
243.977402	1529.150146	2971.956787	2007.953491	33.185551
244.351654	1526.724121	3079.692871	2033.426392	32.627975
244.725861	1527.495972	3195.809814	2055.039795	31.621378
245.100067	1529.260376	3309.391113	2070.147217	30.384670
245.474213	1530.693970	3406.872070	2079.409912	29.246473
245.848343	1529.150146	3476.453857	2088.673096	28.733213
246.222443	1528.378174	3532.362061	2095.840576	28.316715
246.596512	1530.252808	3565.884766	2100.802734	28.028147
246.970566	1530.804077	3581.543457	2098.376953	27.676500
247.344574	1531.134888	3573.714355	2095.840820	27.646706
247.718567	1528.157471	3552.431641	2089.444824	27.727833
248.092529	1533.561035	3529.936035	2085.585449	27.651339
248.466431	1533.891724	3510.307617	2082.057129	27.735327
248.840332	1534.002197	3506.668945	2086.026855	27.983675
249.214203	1533.891846	3516.923828	2091.319824	28.109884
249.588043	1529.811768	3538.868408	2094.848633	28.124487
249.961838	1525.952148	3566.656982	2092.091797	27.742359
250.335617	1524.629028	3592.460938	2094.187012	27.543726
250.709381	1522.423584	3603.377930	2097.274414	27.624384
251.083084	1521.320801	3591.468262	2096.833252	27.800554
251.456787	1521.982422	3561.474365	2090.657959	27.883196
251.830460	1521.762085	3509.425293	2076.653320	27.916763
252.204071	1522.203125	3429.367188	2060.994629	28.250925
252.577667	1521.761963	3337.069092	2043.791992	28.757118
252.951248	1521.541260	3250.725830	2031.220825	29.475140
253.324799	1517.020142	3177.835449	2024.163452	30.535805
253.698303	1516.248169	3130.969482	2015.010742	30.888462
254.071793	1518.233032	3092.374268	2013.136353	31.439575
254.445236	1520.769287	3078.479736	2010.710205	31.452631
254.818665	1521.541260	3072.855957	2016.995850	31.937723
255.192062	1521.320801	3089.396729	2019.863037	31.793245
255.565430	1525.511108	3120.272949	2026.920532	31.441023
255.938782	1522.092651	3155.891113	2035.852661	31.445740
256.312103	1523.636475	3214.445801	2044.894897	30.828930
256.685364	1522.202881	3288.438721	2057.906738	30.330256
257.058594	1520.107666	3374.341064	2069.044434	29.604513
257.431793	1523.195435	3472.593750	2085.805908	28.860723
257.804993	1527.716431	3583.969238	2105.875488	28.117117
258.178162	1529.150024	3682.222412	2121.755127	27.523697
258.551270	1530.032227	3768.455322	2130.576660	26.828907
258.924377	1529.370483	3840.132080	2138.405762	26.356472
259.297485	1525.290405	3899.569580	2143.919678	26.055454
259.670502	1529.149780	3942.906982	2152.741699	25.834906
260.043518	1533.891602	3992.750732	2158.806641	25.414837
260.416473	1530.362793	4040.167725	2168.400391	25.421801
260.789459	1527.606079	4078.542725	2175.237061	25.387970
261.162354	1530.803955	4110.521484	2177.883545	25.083351
261.535278	1529.149902	4134.229980	2183.507324	25.118515
261.908142	1529.370483	4159.372070	2186.594971	24.989510
262.280975	1526.613647	4174.479004	2188.359375	24.991669
262.653717	1530.583374	4190.909668	2184.168701	24.567865
263.026520	1530.914307	4200.062012	2185.271484	24.515585
263.399261	1525.952148	4207.781250	2188.359131	24.699821
263.771973	1526.834351	4219.911133	2187.807861	24.543434
264.144653	1523.084961	4213.735840	2182.294189	24.499990
264.517334	1525.290405	4186.388184	2170.054199	24.229242
264.889954	1525.952148	4137.316406	2157.593506	24.188175
265.262543	1526.393188	4074.020508	2146.786865	24.351822
265.635071	1529.480835	3996.830078	2133.885254	24.496105
266.007599	1528.047363	3930.997070	2122.416748	24.734991
266.380127	1524.408325	3887.770752	2116.352051	25.046677
266.752594	1526.503418	3869.796143	2113.815186	25.063526
267.125031	1525.952148	3869.355225	2118.557129	25.288223
267.497437	1520.879517	3888.873535	2121.093262	25.346928
267.869843	1518.674072	3911.148438	2124.952637	25.341068
268.242218	1521.430908	3946.104980	2128.812500	25.050030
268.614532	1521.872070	4017.010498	2138.957275	24.731503
268.986816	1519.004883	4098.060547	2151.748779	24.533937
269.359100	1521.871948	4188.152832	2164.871338	24.115967
269.731354	1522.092407	4275.819824	2173.803467	23.666504
270.103516	1523.084961	4346.615234	2188.359375	23.561794
270.475708	1518.784424	4407.816406	2200.820313	23.607765
270.847839	1522.092529	4464.496094	2207.216064	23.284485
271.219971	1526.944702	4510.920898	2211.626953	22.945299
271.592041	1529.921875	4535.180664	2215.707031	22.819504
271.964081	1532.237671	4553.485840	2222.985107	22.862984
272.336151	1532.237671	4574.547852	2230.373535	22.947557
272.708130	1531.686279	4593.956055	2236.107666	23.003244
273.080109	1530.804077	4614.908203	2239.526123	22.979836
273.452026	1530.252686	4644.680664	2248.127441	23.049971
273.823914	1533.560913	4678.535156	2254.854004	22.934786
274.195770	1535.435425	4714.483887	2260.808594	22.817305
274.567627	1536.979126	4748.447754	2266.212158	22.707150
274.939423	1537.420288	4784.065918	2268.968994	22.532448
275.311249	1538.853882	4807.002441	2268.527832	22.326830
275.682983	1536.979370	4827.954590	2273.379883	22.376362
276.054688	1534.443115	4832.806641	2274.482422	22.436560
276.426422	1536.648560	4815.052734	2274.151611	22.495792
276.798065	1537.530640	4785.389648	2270.623047	22.571560
277.169708	1537.199951	4757.159668	2270.843506	22.784246
277.541321	1539.515625	4739.075195	2269.079346	22.802004
277.912903	1539.074585	4743.375977	2270.071533	22.812990
278.284424	1539.736206	4756.277344	2272.718262	22.787897
278.655945	1535.656250	4777.670410	2276.246826	22.843533
279.027435	1538.523315	4811.523926	2279.003662	22.623899
279.398865	1537.971924	4872.173828	2288.376953	22.506287
279.770294	1538.412964	4936.683105	2300.176270	22.416208
280.141663	1538.082275	4996.009766	2311.533936	22.367493
280.513031	1541.500610	5055.887695	2316.165527	22.042673
280.884369	1538.523193	5092.829102	2317.929932	21.928522
281.255676	1540.177368	5132.637207	2318.370850	21.661856
281.626953	1538.412964	5166.601074	2321.899658	21.594435
281.998199	1539.736206	5202.770996	2331.493408	21.614788
282.369385	1540.508057	5250.519043	2342.079590	21.605639
282.740540	1542.603271	5308.743164	2350.680908	21.456388
283.111694	1540.397827	5362.334961	2364.134033	21.552847
283.482819	1541.059326	5430.263184	2375.602295	21.457939
283.853912	1542.382813	5511.203613	2386.298828	21.263647
284.224945	1538.743774	5583.652832	2396.995117	21.218061
284.595978	1542.272461	5653.455566	2407.360840	21.042322
284.966980	1541.941650	5715.318359	2417.836670	20.987680
285.337952	1537.861450	5756.670410	2425.776123	21.046572
285.708893	1539.405273	5777.953613	2432.723633	21.076046
286.079803	1540.949097	5798.574219	2436.031738	21.023050
286.450684	1543.154785	5811.917480	2439.781006	21.004358
286.821533	1537.861572	5818.423340	2446.177002	21.219540
287.192322	1536.097412	5819.305176	2449.815918	21.332573
287.563110	1538.082275	5831.985840	2450.587891	21.251192
287.933868	1538.854126	5849.850098	2455.329346	21.259012
288.304596	1538.523315	5884.034668	2466.908203	21.364227
288.675262	1538.743896	5930.018555	2481.022949	21.457987
289.045929	1537.641113	5962.328613	2495.799561	21.654827
289.416565	1536.869141	5990.999023	2501.643799	21.660227
289.787170	1538.302734	5998.938477	2503.628906	21.641001
290.157745	1535.545898	6001.916016	2508.811768	21.790981
290.528259	1536.317749	5993.204102	2516.310303	21.988279
290.898773	1539.736084	6004.672852	2519.397949	21.941227
291.269226	1537.751221	6002.908691	2523.588379	22.078442
291.639679	1538.192261	5995.741211	2530.645752	22.264557
292.010101	1540.397827	6016.803223	2533.733398	22.190475
292.380463	1537.199829	6050.877441	2539.026367	22.195349
292.750824	1539.625854	6085.503418	2542.334717	22.057543
293.121155	1537.640869	6131.597168	2551.597412	22.071533
293.491455	1534.884155	6201.399414	2560.198730	21.971741
293.861725	1532.458130	6279.141602	2573.541748	21.932863
294.231964	1532.458130	6366.808594	2586.994873	21.813410
294.602142	1535.766235	6463.296875	2601.440430	21.626942
294.972321	1533.009399	6543.686035	2613.019043	21.554167
295.342468	1527.716309	6605.217773	2627.244141	21.654900
295.712555	1525.731445	6647.011230	2631.103760	21.583908
296.082672	1529.370483	6671.602051	2637.279053	21.545288
296.452728	1529.811523	6675.351074	2630.221680	21.385710
296.822693	1528.378052	6675.020020	2630.993408	21.423975
297.192657	1527.495850	6668.844727	2636.286621	21.566147
297.562622	1525.510986	6691.009766	2636.948242	21.516552
297.932556	1531.355469	6707.330566	2635.625000	21.334522
298.302460	1530.693848	6710.307129	2633.419678	21.289732
298.672333	1529.260376	6708.653320	2636.176514	21.371542
299.042145	1529.260376	6706.778809	2630.883545	21.277050
299.411957	1527.716553	6705.897461	2626.472900	21.218966
299.781677	1527.716553	6663.441406	2623.385010	21.334253
300.151428	1527.496094	6619.552734	2615.004395	21.356956
300.521149	1524.629028	6556.917969	2607.836426	21.525143
300.890839	1525.842041	6491.747559	2598.573730	21.601936
301.260468	1526.503662	6415.769531	2586.333252	21.676662
301.630096	1525.621338	6328.434570	2575.306152	21.855623
301.999695	1525.290527	6236.907715	2564.499023	22.056301
302.369232	1523.526245	6126.966309	2551.487061	22.330275
302.738739	1525.952148	6024.302246	2537.923340	22.496496
303.108246	1529.922119	5926.270020	2518.184814	22.479176
303.477692	1530.363159	5852.166504	2507.708984	22.614307
303.847137	1526.724121	5775.858398	2495.358398	22.796038
304.216553	1530.363037	5724.691406	2491.829590	22.923018
304.585876	1531.465820	5688.742188	2481.905029	22.862064
304.955231	1535.215088	5666.687988	2477.273926	22.802011
305.324493	1534.443115	5638.126953	2480.912598	23.063900
305.693787	1530.252686	5612.212891	2480.251221	23.273096
306.063049	1530.032227	5607.581055	2482.897705	23.368586
306.432251	1528.708740	5606.588379	2480.140869	23.331541
306.801422	1529.260132	5598.097656	2483.890137	23.461985
307.170593	1532.568481	5595.450684	2482.456543	23.379660
307.539673	1528.819092	5608.573730	2484.772217	23.431633
307.908783	1531.575928	5615.080078	2492.270752	23.526236
308.277832	1531.355347	5644.522949	2500.100342	23.552286
308.646851	1534.773926	5681.133301	2508.922119	23.494061
309.015839	1536.207520	5715.649414	2513.553467	23.384604
309.384796	1538.082153	5746.415039	2516.861572	23.258127
309.753723	1535.766357	5771.998047	2520.280029	23.240318
310.122620	1533.891724	5793.611816	2524.911377	23.264900
310.491486	1532.899292	5812.357422	2528.550293	23.265820
310.860352	1530.914307	5821.179199	2533.622803	23.371717
311.229126	1534.332886	5826.031250	2535.497314	23.327932
311.597931	1529.701416	5843.123535	2539.246826	23.404745
311.966675	1526.613892	5869.699219	2546.966064	23.493717
312.335388	1526.834351	5896.274414	2552.148682	23.465578
312.704071	1522.974854	5922.739746	2554.795410	23.451721
313.072723	1524.959717	5931.230957	2553.472168	23.342012
313.441345	1523.526245	5931.341309	2553.361816	23.363857
313.809875	1523.195313	5911.823242	2547.186279	23.332827
314.178436	1523.195190	5885.688477	2544.870605	23.419531
314.546967	1521.982178	5851.614258	2534.284668	23.380798
314.915466	1519.446045	5811.254883	2531.858643	23.589417
315.283936	1523.967163	5773.100586	2526.344971	23.590172
315.652374	1523.195557	5733.402344	2518.184814	23.632788
316.020752	1523.416016	5692.822266	2507.267822	23.596928
316.389130	1525.842041	5654.116699	2500.541260	23.610331
316.757416	1525.621460	5628.202637	2497.122803	23.680248
317.125732	1523.085205	5605.376465	2494.586426	23.797939
317.494019	1524.739258	5578.800781	2491.939941	23.857573
317.862274	1526.062378	5549.468262	2485.985352	23.858467
318.230469	1529.922119	5524.436523	2483.228516	23.865389
318.598663	1533.671265	5506.020996	2480.140869	23.826443
318.966797	1531.245239	5488.487793	2478.376465	23.934120
319.334930	1533.781494	5473.932129	2475.288818	23.895212
319.703003	1532.678711	5446.804688	2472.531982	24.011829
320.071045	1530.583374	5422.875000	2471.208740	24.166365
320.439056	1532.127197	5403.687988	2471.539551	24.264435
320.807037	1537.199829	5414.494629	2471.760010	24.103407
321.175049	1538.192261	5435.997559	2480.471436	24.174610
321.542969	1539.074463	5475.586426	2486.867432	24.076975
321.910828	1539.956665	5513.740234	2492.270508	23.964914
322.278717	1543.375122	5567.442871	2505.723877	23.914824
322.646515	1543.375122	5607.582031	2513.663330	23.873985
323.014313	1543.595581	5643.199707	2519.507813	23.805037
323.382111	1542.492798	5687.860352	2522.485352	23.640667
323.749817	1541.941650	5724.360840	2528.881104	23.597336
324.117523	1535.876587	5743.216797	2530.755859	23.646275
324.485199	1533.781372	5748.399414	2536.820801	23.799059
324.852814	1537.971680	5759.096191	2535.718018	23.636980
325.220428	1539.736084	5759.537598	2531.858643	23.511118
325.588013	1537.751221	5774.203125	2536.600342	23.577492
325.955536	1536.317627	5782.694336	2534.284668	23.501612
326.323059	1532.678711	5803.094727	2538.695313	23.557812
326.690552	1531.465698	5815.775879	2543.326904	23.617834
327.058014	1530.914307	5817.209473	2549.943115	23.774118
327.425415	1534.773804	5825.149414	2551.045654	23.687246
327.792816	1535.986938	5825.590332	2551.155762	23.665796
328.160187	1538.082031	5828.567871	2550.715088	23.601828
328.527496	1530.032227	5812.688477	2547.076172	23.747971
328.894775	1529.039673	5795.044434	2541.121582	23.724350
329.262054	1528.929443	5777.400879	2539.908447	23.796299
329.629303	1532.678711	5770.233398	2541.342041	23.802958
329.996490	1530.473267	5766.263672	2538.254639	23.792049
330.363647	1532.237549	5787.656738	2540.349609	23.690079
330.730774	1527.826660	5805.520996	2544.319336	23.762630
331.097839	1528.157593	5829.229004	2553.251465	23.833454
331.464935	1527.936890	5850.953125	2561.742676	23.913994
331.831970	1528.488159	5875.543457	2564.168457	23.824871
332.198975	1526.503296	5903.552734	2563.616943	23.694357
332.565948	1526.613647	5927.261230	2571.336182	23.740200
332.932892	1525.069824	5965.636719	2580.047852	23.757732
333.299744	1527.716431	5998.608398	2579.717285	23.529999
333.666656	1527.936890	6036.652344	2586.443848	23.476908
334.033478	1526.062256	6062.897461	2591.295898	23.479666
334.400299	1526.282837	6098.184570	2594.714355	23.369520
334.767090	1527.385620	6137.110352	2593.501221	23.127533
335.133850	1523.746704	6170.633301	2599.345703	23.146658
335.500549	1522.423462	6201.068848	2603.425781	23.105028
335.867218	1517.681763	6233.599121	2604.528564	23.046349
336.233917	1517.791992	6266.350586	2609.711426	22.994755
336.600525	1517.902222	6286.419434	2612.026855	22.944756
336.967102	1518.453491	6298.108398	2614.342529	22.928205
337.333649	1514.814697	6301.747070	2613.239746	22.946323
337.700195	1515.365967	6302.960449	2616.548096	23.000738
338.066681	1514.814697	6287.301270	2617.319824	23.101274
338.433136	1514.924805	6274.620605	2613.791260	23.086905
338.799591	1517.791992	6256.425781	2613.239990	23.117380
339.165985	1518.674072	6243.192871	2613.460449	23.172443
339.532318	1518.233032	6246.500977	2620.958740	23.321980
339.898651	1522.864380	6259.623535	2625.810791	23.284832
340.264954	1521.320679	6270.540039	2626.251953	23.265535
340.631226	1519.446045	6293.697754	2631.765381	23.298296
340.997467	1514.042603	6324.463379	2638.381836	23.372992
341.363678	1512.278320	6352.583984	2648.526855	23.474728
341.729828	1514.704224	6393.384766	2656.576904	23.405357
342.095947	1517.902100	6440.028809	2669.478760	23.395916
342.462067	1519.335693	6484.028320	2682.711426	23.432987
342.828156	1520.769165	6534.422852	2696.054443	23.441692
343.194183	1523.526001	6589.118164	2710.831055	23.438623
343.560211	1529.811523	6630.911621	2722.850830	23.387882
343.926178	1529.590942	6675.130859	2729.908203	23.327333
344.292114	1528.598511	6720.674316	2740.053223	23.332764
344.658020	1526.723877	6756.071289	2749.536621	23.383657
345.023926	1530.252563	6774.155273	2752.513916	23.308237
345.389771	1530.473267	6798.194824	2760.012695	23.341009
345.755585	1531.024414	6824.880859	2761.225342	23.238276
346.121368	1537.089478	6843.737305	2768.393311	23.203043
346.487122	1534.443115	6866.122559	2774.678955	23.261635
346.852844	1536.869019	6899.425781	2779.971924	23.181162
347.218536	1538.853882	6923.574219	2783.169922	23.108276
347.584167	1539.184814	6951.252930	2789.014404	23.093382
347.949768	1540.177246	6975.071289	2797.836426	23.140455
348.315369	1540.838867	6981.578125	2802.577881	23.190580
348.680939	1544.477905	6995.692871	2808.973877	23.196590
349.046448	1547.786133	7005.065430	2812.943604	23.182934
349.411957	1546.793701	7011.351074	2813.384766	23.178291
349.777435	1543.706055	7011.021484	2811.289551	23.184752
350.142792	1546.903931	7013.336914	2809.745605	23.101749
350.508209	1547.675903	7017.306641	2807.098877	23.025740
350.873566	1545.911499	7036.273926	2804.011230	22.914694
351.238892	1545.470459	7057.776855	2809.304688	22.927502
351.604187	1549.109253	7084.462891	2822.757813	23.009344
351.969482	1553.079102	7127.248535	2826.727783	22.849121
352.334717	1553.851196	7176.099609	2835.990723	22.804747
352.699890	1551.535400	7256.376465	2853.193359	22.816727
353.065063	1551.976318	7340.295410	2868.631348	22.746759
353.430237	1551.314819	7438.216309	2882.966797	22.620592
353.795319	1548.778442	7545.511719	2901.713135	22.561195
354.160370	1548.668213	7656.886230	2924.098389	22.517700
354.525421	1547.014282	7778.847656	2944.719238	22.428471
354.890442	1547.786133	7926.062500	2970.633301	22.307707
355.255402	1544.367676	8060.375000	2999.083496	22.325264
355.620331	1547.345093	8211.227539	3024.446289	22.165775
355.985260	1548.006714	8359.985352	3049.367920	22.040016
356.350098	1549.440186	8488.122070	3072.855957	21.955406
356.714935	1547.455322	8615.155273	3091.712646	21.849503
357.079742	1548.116943	8735.904297	3117.406006	21.832714
357.444519	1544.588135	8862.386719	3140.563232	21.809496
357.809296	1537.530762	9007.835938	3169.454590	21.845478
358.173981	1534.663574	9175.340820	3200.441650	21.801445
358.538605	1535.104736	9362.474609	3236.500732	21.736496
358.903259	1535.104736	9576.954102	3278.514404	21.679213
359.267914	1535.214966	9815.033203	3318.102295	21.532928
359.632477	1534.001831	10056.529297	3368.276367	21.522659
359.997009	1532.237549	10270.126953	3402.681152	21.406126
360.361542	1533.671021	10432.007813	3435.322266	21.370861
360.726013	1533.009399	10550.330078	3456.053223	21.326113
361.090485	1533.119751	10621.235352	3473.807373	21.354126
361.454895	1537.640869	10669.645508	3479.872070	21.268398
361.819244	1538.081787	10689.494141	3481.084717	21.231728
362.183594	1538.964233	10671.849609	3476.674072	21.216841
362.547913	1538.523071	10616.161133	3467.190186	21.246355
362.912201	1539.515625	10574.367188	3452.414063	21.172440
363.276489	1536.097168	10510.079102	3443.591797	21.255833
363.640686	1532.568359	10443.033203	3434.990723	21.350428
364.004883	1531.686279	10386.685547	3430.138672	21.439329
364.369049	1529.701416	10336.401367	3423.853516	21.508080
364.733154	1531.024780	10286.117188	3410.399902	21.466080
365.097198	1537.200073	10230.098633	3397.057373	21.395134
365.461273	1542.272461	10137.360352	3380.626953	21.388432
365.825287	1545.580688	10013.523438	3357.579590	21.398338
366.189270	1546.132080	9845.798828	3332.437500	21.522615
366.553223	1545.690796	9649.182617	3297.811768	21.621803
366.917114	1546.132080	9422.791992	3262.966064	21.796471
367.281006	1547.014282	9187.691406	3221.944824	21.921232
367.644867	1549.991577	8990.744141	3194.046143	22.095272
368.008698	1548.337524	8831.179688	3167.139160	22.227608
368.372498	1548.999146	8707.012695	3151.149658	22.382614
368.736237	1547.124634	8622.102539	3144.202393	22.573606
369.099976	1540.728760	8559.579102	3140.563721	22.793404
369.463654	1538.854126	8522.858398	3133.947266	22.839235
369.827332	1534.994629	8489.886719	3133.505859	22.983984
370.190948	1534.884277	8472.683594	3134.167480	23.051737
370.554535	1533.450684	8443.021484	3137.806641	23.219328
370.918091	1534.002075	8424.715820	3133.726563	23.215656
371.281647	1538.854126	8421.626953	3131.961670	23.146303
371.645111	1536.427979	8420.744141	3130.197510	23.150730
372.008575	1536.648560	8415.342773	3135.269775	23.240185
372.371979	1535.876465	8419.863281	3139.570801	23.296011
372.735382	1531.906738	8436.183594	3146.958740	23.392052
373.098724	1531.686157	8473.456055	3158.316895	23.432507
373.462067	1529.149902	8530.798828	3174.968262	23.506153
373.825348	1528.708740	8601.592773	3185.995605	23.431559
374.188599	1525.731445	8696.095703	3206.285400	23.437498
374.551819	1522.643677	8812.875000	3225.583740	23.359205
374.915009	1517.130005	8930.976563	3247.637939	23.341566
375.278168	1514.152588	9048.197266	3274.103516	23.359974
375.641266	1512.829468	9160.785156	3292.187988	23.265806
376.004395	1510.624023	9243.048828	3302.443359	23.172800
376.367462	1513.491211	9303.587891	3312.257324	23.090422
376.730469	1516.689209	9354.423828	3320.748535	23.017612
377.093475	1522.092529	9382.984375	3332.326904	23.028360
377.456421	1522.864380	9423.675781	3344.237061	23.052982
377.819336	1524.298096	9463.595703	3348.757813	22.980114
378.182281	1526.172607	9498.992188	3354.051025	22.926374
378.545135	1521.872070	9540.673828	3363.865723	22.970934
378.907928	1522.864502	9571.441406	3373.238770	22.990080
379.270752	1523.305542	9599.780273	3381.068359	23.002150
379.633484	1526.282959	9631.869141	3385.369141	22.935863
379.996246	1524.077393	9659.878906	3396.285400	23.011967
380.358948	1525.069824	9686.673828	3404.335205	23.025686
380.721558	1521.430786	9715.344727	3407.533203	23.018333
381.084198	1523.305298	9733.429688	3413.708252	23.025267
381.446747	1525.951782	9744.015625	3423.412842	23.088907
381.809326	1527.275146	9746.000977	3421.207275	23.044109
382.171875	1527.495850	9729.791016	3419.773926	23.070105
382.534363	1528.488403	9709.280273	3418.781250	23.106478
382.896790	1533.229858	9671.567383	3411.172363	23.075260
383.259247	1531.245117	9648.851563	3409.297607	23.135546
383.621613	1532.017090	9663.408203	3416.686035	23.177694
383.983948	1527.716431	9692.850586	3420.435303	23.180498
384.346283	1523.195068	9736.739258	3431.462891	23.233185
384.708588	1519.225342	9811.723633	3446.128662	23.236706
385.070831	1519.887085	9891.341797	3455.832520	23.125555
385.433075	1519.335693	9960.373047	3473.696533	23.153090
385.795258	1517.020142	10042.305664	3488.804199	23.128658
386.157440	1518.784424	10104.719727	3504.573242	23.128391
386.519531	1514.042603	10178.823242	3522.878418	23.183922
386.881622	1519.335815	10246.749023	3539.529297	23.147678
387.243683	1517.350830	10314.126953	3556.621582	23.182024
387.605713	1519.556274	10383.047852	3577.132080	23.214054
387.967682	1522.643921	10443.366211	3594.886230	23.229532
388.329651	1525.069824	10513.719727	3617.492676	23.278498
388.691559	1523.746704	10610.648438	3640.539551	23.294992
389.053467	1521.431030	10715.627930	3664.688965	23.310984
389.415314	1519.887085	10810.132813	3692.808350	23.389277
389.777130	1518.784180	10914.560547	3719.494873	23.422340
390.138885	1520.328125	10994.397461	3741.989990	23.449923
390.500641	1518.012329	11088.901367	3757.318115	23.397051
390.862366	1521.872070	11165.982422	3781.026855	23.425228
391.224060	1525.510864	11220.676758	3799.111572	23.450869
391.585693	1529.921875	11295.551758	3819.291260	23.443130
391.947296	1536.317749	11367.119141	3839.029785	23.423439
392.308868	1535.766235	11409.905273	3857.224365	23.510487
392.670441	1535.656006	11454.014648	3873.655029	23.572439
393.031952	1533.119751	11484.449219	3885.343750	23.637285
393.393433	1537.310059	11495.697266	3894.496582	23.670366
393.754883	1537.089600	11506.393555	3905.303467	23.755058
394.116302	1538.523071	11496.689453	3909.935303	23.813744
394.477692	1529.701294	11492.830078	3912.691895	23.918097
394.839020	1527.936890	11479.376953	3916.220947	23.999382
395.200348	1526.834229	11463.718750	3913.684814	24.020109
395.561646	1529.480835	11443.759766	3913.684814	24.048183
395.922882	1529.150024	11409.354492	3910.045654	24.097635
396.284088	1529.480835	11337.236328	3897.033447	24.139597
396.645264	1527.275513	11269.638672	3888.983643	24.241634
397.006409	1530.914429	11181.641602	3871.560303	24.253571
397.367523	1533.450684	11090.887695	3859.761230	24.340317
397.728577	1538.964355	11024.392578	3845.315430	24.314676
398.089600	1539.074707	10949.627930	3840.683838	24.457747
398.450592	1539.625977	10886.000000	3833.846680	24.546638
398.811584	1539.074463	10829.209961	3823.701904	24.591970
399.172546	1537.971680	10760.399414	3810.800293	24.644581
399.533447	1528.819214	10692.691406	3800.104248	24.785212
399.894318	1532.127441	10638.768555	3791.171875	24.806562
400.255127	1532.237671	10596.091797	3783.783203	24.840927
400.615936	1531.355469	10585.175781	3789.627686	24.942755
400.976685	1529.150146	10593.115234	3798.890625	25.041365
401.337433	1531.575928	10626.307617	3805.396973	25.001520
401.698151	1531.355591	10702.835938	3825.466553	25.013529
402.058807	1537.861572	10785.099609	3848.954590	24.992250
402.419434	1539.736206	10877.398438	3872.001465	24.976971
402.780060	1538.633423	10977.195313	3898.687500	25.004385
403.140594	1534.663696	11064.090820	3924.602051	25.079561
403.501129	1535.986938	11144.919922	3950.185303	25.124521
403.861633	1537.420532	11224.757813	3972.459717	25.136311
404.222076	1539.625977	11293.236328	3988.228760	25.104578
404.582550	1535.986938	11374.728516	4008.739502	25.132813
404.942932	1535.656128	11422.916992	4023.184814	25.158928
405.303284	1530.804077	11480.369141	4046.452393	25.284002
405.663605	1531.245117	11533.189453	4060.015625	25.282789
406.023895	1532.568481	11582.260742	4068.506592	25.233986
406.384125	1530.914307	11629.016602	4082.511963	25.268089
406.744354	1529.811523	11684.814453	4112.064941	25.428387
407.104553	1536.317627	11746.566406	4128.826172	25.391237
407.464691	1536.868896	11813.392578	4144.264648	25.372353
407.824829	1537.420288	11876.467773	4166.539551	25.429026
408.184906	1538.522949	11926.201172	4182.198242	25.450109
408.544922	1538.633423	11974.169922	4193.997559	25.445404
408.904938	1537.971680	12007.030273	4206.899414	25.493484
409.264923	1536.317627	11999.752930	4211.310059	25.565145
409.624847	1534.112183	11979.573242	4210.758789	25.624973
409.984802	1533.560791	11956.416016	4204.363281	25.624479
410.344666	1535.656006	11935.685547	4197.416016	25.593775
410.704529	1534.774048	11906.352539	4191.902344	25.619326
411.064331	1531.355591	11896.317383	4186.167969	25.613337
411.424133	1532.017090	11892.458008	4189.035156	25.645800
411.783875	1531.245117	11887.385742	4192.563965	25.697979
412.143555	1536.317749	11895.656250	4198.959473	25.702814
412.503235	1535.986938	11932.376953	4213.405273	25.753349
412.862885	1536.317749	11957.078125	4219.250000	25.746029
413.222473	1535.876587	12000.966797	4237.775391	25.818211
413.582062	1530.473267	12055.992188	4262.145996	25.952858
413.941559	1529.480713	12132.080078	4281.002441	25.951387
414.301086	1532.237549	12203.647461	4291.147461	25.853283
414.660522	1531.796509	12282.932617	4315.627930	25.893372
415.019958	1529.150024	12364.093750	4338.674805	25.930222
415.379364	1530.142456	12462.125977	4365.141113	25.933067
415.738708	1528.708984	12566.443359	4394.142578	25.960342
416.098053	1529.591187	12702.960938	4432.296875	25.978783
416.457336	1526.503540	12866.385742	4480.706543	26.051445
416.816559	1528.047363	13056.165039	4529.666992	26.037380
417.175812	1526.834351	13278.144531	4581.605469	25.995152
417.535004	1528.488525	13530.667969	4650.195313	26.009499
417.894135	1528.157715	13808.997070	4725.180176	26.032604
418.253265	1528.047363	14142.681641	4815.383301	26.059700
418.612335	1530.583618	14503.713867	4912.202148	26.066328
418.971405	1528.378174	14871.801758	5007.037109	26.070213
419.330414	1527.054810	15239.122070	5101.761230	26.069786
419.689423	1521.871948	15591.002930	5189.648926	26.069675
420.048370	1521.210327	15940.676758	5279.079590	26.061083
420.407257	1519.997314	16263.223633	5357.704102	26.030304
420.766144	1519.887085	16600.767578	5438.202637	25.982006
421.125000	1524.518555	16922.103516	5523.443359	25.971117
421.483795	1525.180176	17245.310547	5611.221191	25.992411
421.842560	1520.769287	17599.064453	5705.503906	26.027227
422.201324	1520.328125	17935.947266	5786.995117	25.991508
422.560028	1519.887085	18241.623047	5871.684570	26.024794
422.918671	1520.769287	18531.310547	5946.118164	26.015331
423.277283	1524.077515	18778.761719	6004.563477	25.966780
423.635925	1525.841919	18955.306641	6058.596680	26.006277
423.994476	1527.385742	19096.347656	6093.442871	25.989340
424.353027	1529.921997	19197.578125	6118.584961	25.972111
424.711487	1530.914429	19260.099609	6138.544434	25.988955
425.069946	1529.701416	19272.009766	6146.594238	26.021938
425.428375	1529.701538	19241.906250	6140.088379	26.029434
425.786743	1531.576050	19143.101563	6112.188965	26.009176
426.145081	1531.796509	18994.343750	6073.042480	26.005634
426.503418	1530.914307	18822.097656	6027.610352	26.005716
426.861725	1533.561035	18640.148438	5985.155273	26.022690
427.219971	1537.751343	18467.904297	5949.647461	26.059399
427.578186	1539.405396	18302.933594	5902.450684	26.027012
427.936371	1542.051880	18152.521484	5869.699707	26.053738
428.294495	1545.249756	17946.314453	5823.385742	26.084501
428.652618	1543.485352	17745.066406	5775.968262	26.123888
429.010712	1544.477905	17538.191406	5722.816895	26.124882
429.368744	1549.991455	17290.296875	5668.672852	26.166466
429.726746	1550.432617	17043.066406	5617.395996	26.250948
430.084717	1548.999023	16817.117188	5563.472656	26.293179
430.442688	1548.337280	16581.134766	5516.496094	26.396675
430.800568	1549.660645	16415.947266	5483.304199	26.460161
431.158417	1548.668213	16272.815430	5453.750977	26.521622
431.516235	1546.903809	16145.229492	5428.057617	26.586294
431.874023	1542.492920	16049.514648	5411.405762	26.669243
432.231812	1543.816162	15953.795898	5399.055664	26.753956
432.589508	1543.706055	15895.242188	5390.454590	26.803741
432.947205	1543.595825	15808.457031	5375.016602	26.859152
433.304840	1542.052002	15756.189453	5369.613281	26.927847
433.662476	1541.831421	15700.720703	5368.731445	27.028248
434.020050	1545.029541	15676.790039	5373.032227	27.087938
434.377594	1544.147339	15649.995117	5372.370117	27.139259
434.735138	1536.869263	15624.854492	5377.994141	27.265255
435.092621	1536.648682	15592.102539	5380.419922	27.347187
435.450043	1536.979492	15602.911133	5388.910645	27.384829
435.807465	1532.789063	15644.480469	5410.744629	27.480444
436.164856	1532.017090	15690.354492	5423.206055	27.483374
436.522156	1531.576050	15735.567383	5442.613770	27.534779
436.879486	1527.936890	15802.060547	5459.264648	27.541639
437.236755	1525.510986	15877.817383	5491.244141	27.631330
437.593994	1529.701416	15964.602539	5516.827148	27.621428
437.951172	1528.267822	16095.165039	5555.974121	27.649719
438.308380	1526.944458	16181.729492	5583.432129	27.680296
438.665497	1526.503296	16304.906250	5621.365723	27.708422
439.022583	1530.252686	16441.642578	5658.637695	27.686117
439.379608	1531.906860	16545.410156	5690.175781	27.696861
439.736633	1532.568604	16637.816406	5712.340820	27.670996
440.093628	1535.104736	16715.669922	5741.893555	27.711676
440.450562	1534.773926	16800.359375	5770.785156	27.748762
440.807495	1534.222534	16869.169922	5797.250000	27.799427
441.164368	1534.773926	16950.664063	5822.723633	27.815128
441.521210	1534.773926	17015.833984	5842.131836	27.823402
441.878021	1532.899292	17084.865234	5864.847656	27.854666
442.234833	1536.979492	17175.837891	5893.959961	27.859964
442.591522	1538.854126	17250.492188	5924.505371	27.913395
442.948242	1535.766479	17338.599609	5960.123535	27.997238
443.304901	1538.082275	17434.316406	5990.558594	28.009630
443.661530	1541.169800	17547.126953	6034.667480	28.073908
444.018127	1542.382935	17676.144531	6082.966797	28.143368
444.374664	1544.367798	17807.478516	6130.053223	28.196854
444.731201	1552.197021	17927.343750	6159.055176	28.133234
445.087738	1551.535400	18043.792969	6185.850586	28.099945
445.444183	1552.307251	18093.746094	6198.752441	28.089727
445.800598	1548.888794	18151.085938	6220.035156	28.135712
446.156982	1546.352539	18172.921875	6227.644531	28.155487
446.513336	1545.359985	18160.902344	6226.100586	28.170856
446.869598	1546.793579	18160.683594	6233.599121	28.210163
447.225891	1546.021606	18175.570313	6253.007324	28.304953
447.582153	1546.352417	18179.318359	6258.189941	28.328304
447.938354	1548.999023	18181.964844	6268.555664	28.374716
448.294495	1548.006592	18183.066406	6272.966309	28.403624
448.650665	1544.147095	18170.828125	6280.464844	28.486248
449.006775	1537.971924	18154.617188	6291.051270	28.604326
449.362823	1539.405396	18162.666016	6309.797852	28.697094
449.718842	1541.610718	18152.962891	6305.828125	28.680492
450.074860	1540.838867	18172.703125	6314.538574	28.702133
450.430817	1544.918945	18136.753906	6308.363770	28.709570
450.786713	1541.831299	18068.271484	6296.564941	28.770464
451.142578	1537.861450	17979.615234	6267.563477	28.766409
451.498444	1534.001831	17847.619141	6238.120605	28.835535
451.854248	1533.119629	17694.558594	6197.871094	28.863464
452.210022	1529.039551	17510.074219	6149.461426	28.911905
452.565765	1527.385376	17293.279297	6102.925781	29.021765
452.921478	1529.370361	17109.785156	6052.420898	29.030361
453.277191	1531.796387	16919.673828	6009.524902	29.099066
453.632813	1531.906738	16753.052734	5967.291016	29.139620
453.988434	1531.245117	16601.978516	5936.083496	29.227764
454.343964	1528.819214	16476.490234	5909.728516	29.308306
454.699524	1529.591187	16350.117188	5877.969727	29.340242
455.054993	1527.385742	16251.754883	5845.108887	29.323654
455.410400	1526.282959	16187.574219	5830.994141	29.361063
455.765839	1523.636475	16166.403320	5829.560059	29.406490
456.121216	1525.400879	16186.471680	5828.016602	29.347214
456.476593	1529.591187	16245.579102	5857.349121	29.408543
456.831909	1529.480957	16359.379883	5890.761719	29.408703
457.187195	1528.267822	16504.277344	5945.457031	29.495102
457.542450	1528.157593	16688.544922	5993.867188	29.456432
457.897644	1528.267944	16878.652344	6044.812500	29.423004
458.252808	1531.024780	17079.128906	6099.618164	29.383602
458.607971	1536.317749	17244.759766	6147.255371	29.353245
458.963013	1539.956787	17343.453125	6174.823730	29.328114
459.318085	1542.934204	17441.373047	6205.148926	29.324986
459.673096	1541.831421	17513.933594	6236.796875	29.394785
460.028076	1541.610718	17581.533203	6256.866699	29.396997
460.383057	1541.059570	17632.478516	6285.868164	29.486576
460.737976	1542.272461	17654.751953	6294.359375	29.493206
461.092865	1543.265015	17668.205078	6302.299316	29.513500
461.447723	1543.375244	17674.822266	6312.995605	29.567217
461.802551	1546.573120	17650.451172	6309.136230	29.574013
462.157288	1547.786133	17647.472656	6306.930176	29.560476
462.512054	1548.337646	17629.390625	6315.200684	29.642731
462.866760	1545.911621	17608.216797	6314.428711	29.687628
463.221405	1547.676025	17561.681641	6307.040039	29.720011
463.576019	1547.896484	17482.503906	6295.352051	29.793364
463.930603	1548.447876	17383.810547	6264.806641	29.783712
464.285156	1546.242432	17249.832031	6218.712402	29.754150
464.639709	1547.345093	17084.640625	6166.443359	29.729099
464.994171	1543.706055	16863.326172	6113.842773	29.831919
465.348633	1542.603271	16613.998047	6060.360840	29.975712
465.703033	1539.295044	16373.494141	5998.387695	30.059546
466.057434	1532.899170	16159.786133	5950.308594	30.200611
466.411774	1530.032104	16020.070313	5909.729004	30.225571
466.766083	1522.864380	15879.141602	5875.875000	30.321306
467.120331	1521.100098	15783.867188	5852.717773	30.370106
467.474548	1521.430908	15706.787109	5843.344238	30.467426
467.828735	1519.997314	15633.897461	5831.545410	30.548237
468.182922	1520.438232	15605.998047	5825.590332	30.564297
468.537048	1521.871704	15567.403320	5821.069336	30.609007
468.891144	1520.879272	15539.833008	5817.540527	30.648943
469.245178	1517.571289	15543.692383	5822.062012	30.689102
469.599213	1514.483398	15538.730469	5826.252441	30.745102
469.953186	1512.278076	15543.582031	5828.016602	30.757929
470.307129	1512.719116	15539.062500	5829.339844	30.775095
470.661041	1515.255493	15572.252930	5841.689941	30.777802
471.014923	1517.019775	15620.001953	5859.996094	30.794739
471.368713	1514.483521	15633.895508	5859.444336	30.772959
471.722504	1516.799194	15624.414063	5863.303711	30.809633
472.076294	1515.696533	15594.748047	5861.980469	30.870575
472.429993	1517.571167	15538.951172	5858.341309	30.958223
472.783722	1517.681396	15533.877930	5860.216309	30.982265
473.137329	1521.210205	15559.459961	5876.536621	31.024708
473.490967	1524.628662	15589.895508	5892.635742	31.055273
473.844543	1525.069702	15655.178711	5925.717773	31.143764
474.198090	1525.731445	15736.008789	5957.366211	31.186125
474.551605	1524.849243	15840.216797	6000.592773	31.265308
474.905060	1525.400635	15973.979492	6052.972656	31.335762
475.258484	1526.834229	16111.156250	6099.287109	31.351839
475.611877	1525.180176	16262.120117	6152.659180	31.400543
475.965240	1522.974731	16434.146484	6212.427246	31.449257
476.318573	1525.731445	16599.001953	6270.981445	31.481224
476.671844	1529.149902	16778.083984	6330.860352	31.488829
477.025116	1531.024536	16965.107422	6395.920898	31.520477
477.378326	1533.340210	17172.417969	6465.062500	31.534609
477.731506	1535.435425	17399.578125	6549.420410	31.605772
478.084656	1534.773926	17628.064453	6626.610840	31.639502
478.437744	1532.788940	17876.400391	6701.706055	31.626530
478.790833	1532.347900	18179.759766	6801.502930	31.651497
479.143890	1529.149902	18532.742188	6917.730469	31.690838
479.496826	1527.606079	18959.386719	7056.232910	31.715790
479.849823	1528.488281	19549.675781	7238.403320	31.684456
480.202728	1529.039673	20281.115234	7461.263184	31.635023
480.555603	1525.952148	21176.748047	7748.413574	31.665186
480.908478	1522.974731	22400.552734	8147.269531	31.729231
481.261292	1522.974731	23963.777344	8665.661133	31.829016
481.614075	1524.628906	25732.109375	9227.610352	31.820665
481.966797	1526.834229	27496.359375	9794.851563	31.837383
482.319489	1527.606079	29080.205078	10261.747070	31.699879
482.672150	1526.393188	30462.691406	10670.416992	31.600529
483.024780	1524.739014	31572.472656	10990.317383	31.501802
483.377350	1523.636353	32530.302734	11260.705078	31.403145
483.729919	1522.313110	33403.109375	11506.614258	31.317600
484.082428	1523.856812	34220.453125	11754.064453	31.288298
484.434937	1524.187622	35104.066406	12030.739258	31.288237
484.787384	1523.636230	36042.925781	12325.939453	31.293526
485.139771	1526.503296	37078.054688	12644.406250	31.272625
485.492157	1529.921753	38098.410156	12960.888672	31.259064
485.844482	1531.355347	39044.769531	13262.705078	31.272413
486.196777	1530.693726	39872.480469	13508.501953	31.239569
486.549072	1531.796509	40529.593750	13700.266602	31.202967
486.901276	1531.134888	40987.113281	13830.278320	31.171814
487.253448	1530.363037	41207.882813	13884.090820	31.135332
487.605591	1528.047241	41187.921875	13882.105469	31.150019
487.957703	1529.039917	40949.730469	13805.577148	31.142368
488.309784	1533.450806	40448.871094	13641.380859	31.113449
488.661835	1533.450806	39685.007813	13376.064453	31.040968
489.013855	1533.560913	38832.492188	13108.542969	31.033014
489.365814	1533.340454	38064.773438	12856.901367	30.996759
489.717743	1533.009521	37422.546875	12675.833008	31.047552
490.069611	1532.017090	36896.214844	12519.026367	31.068171
490.421509	1533.561035	36463.058594	12407.319336	31.130589
490.773315	1538.633545	36034.433594	12293.738281	31.178011
491.125092	1539.625977	35581.214844	12166.704102	31.217926
491.476807	1534.553345	35043.742188	12004.163086	31.243996
491.828522	1536.317749	34357.406250	11800.378906	31.272762
492.180176	1533.230225	33541.167969	11553.148438	31.304480
492.531830	1530.804199	32589.628906	11267.101563	31.347925
492.883423	1527.495972	31597.392578	10960.432617	31.370033
493.234985	1525.290405	30630.853516	10667.107422	31.409176
493.586487	1528.047363	29768.414063	10419.215820	31.483896
493.937988	1528.929443	29037.640625	10212.455078	31.566458
494.289429	1532.788818	28473.484375	10048.700195	31.609842
494.640869	1531.686157	28000.085938	9924.644531	31.709351
494.992218	1531.686157	27623.722656	9810.622070	31.729740
495.343567	1529.149902	27261.039063	9698.034180	31.746151
495.694855	1530.362915	26811.238281	9554.568359	31.740221
496.046112	1533.230103	26245.205078	9380.227539	31.753826
496.397339	1532.899292	25526.890625	9154.057617	31.762777
496.748535	1534.663574	24699.515625	8899.548828	31.793362
497.099670	1534.994385	23875.558594	8656.838867	31.878536
497.450806	1536.097046	23117.435547	8443.792969	32.007729
497.801880	1540.177124	22517.664063	8266.144531	32.062790
498.152924	1536.648560	22015.919922	8134.147949	32.215500
498.503937	1535.766357	21626.441406	8030.822266	32.328709
498.854889	1541.279907	21339.951172	7953.190430	32.385559
499.205841	1537.089600	21112.789063	7884.820801	32.426590
499.556702	1541.941650	20926.869141	7827.479004	32.424866
499.907562	1539.956787	20761.572266	7770.579590	32.414669
500.258362	1540.838867	20609.949219	7739.812500	32.507935
500.609161	1544.588257	20483.576172	7706.510254	32.535645
500.959900	1543.926636	20330.847656	7672.987305	32.624081
501.310608	1543.595703	20167.863281	7629.980469	32.679859
501.661255	1540.949097	19978.414063	7592.377441	32.821369
502.011902	1544.257324	19809.808594	7539.336426	32.821781
502.362488	1545.249756	19609.330078	7488.721680	32.902157
502.713043	1546.352539	19430.138672	7435.900391	32.932335
503.063568	1541.279907	19261.421875	7392.342773	33.019276
503.414063	1538.523071	19106.378906	7349.006836	33.074520
503.764496	1541.059204	18964.458984	7309.308594	33.106335
504.114899	1539.295166	18838.527344	7272.366699	33.140610
504.465271	1538.743774	18744.794922	7251.525391	33.202168
504.815613	1535.656128	18675.433594	7235.755859	33.256557
505.165894	1529.701416	18602.212891	7222.964844	33.347546
505.516174	1527.716553	18584.128906	7216.349121	33.351871
505.866394	1527.937012	18570.455078	7216.458984	33.378414
506.216583	1523.305664	18563.177734	7227.596680	33.476139
506.566711	1523.856934	18600.339844	7244.909180	33.502522
506.916840	1523.085083	18640.369141	7263.875977	33.537979
507.266907	1521.872070	18704.107422	7291.002441	33.576138
507.616882	1518.674072	18761.666016	7314.270020	33.611309
507.966858	1516.689209	18802.027344	7338.860840	33.682720
508.316803	1516.248169	18854.185547	7352.865234	33.663849
508.666748	1516.579102	18909.541016	7370.178711	33.654991
509.016632	1515.145508	18965.890625	7392.233398	33.678146
509.366486	1513.932373	19011.984375	7420.242676	33.754101
509.716309	1512.940063	19094.466797	7449.795410	33.767574
510.066040	1512.609253	19168.130859	7482.437500	33.812813
510.415771	1515.476318	19257.892578	7512.210449	33.798859
510.765503	1514.263428	19336.626953	7541.211914	33.816772
511.115173	1516.248169	19421.427734	7575.727051	33.842045
511.464752	1516.578979	19503.468750	7603.625977	33.841576
511.814270	1518.012451	19575.478516	7622.151855	33.803963
512.163818	1518.563843	19630.283203	7652.586426	33.867699
512.513306	1516.578857	19691.484375	7676.075195	33.890114
512.862793	1520.328003	19720.816406	7688.755859	33.891552
513.212219	1519.887085	19769.556641	7718.530273	33.965782
513.561646	1518.563721	19808.925781	7726.469727	33.940861
513.911011	1515.255615	19836.164063	7740.032715	33.976357
514.260315	1513.932251	19890.197266	7760.653320	33.993420
514.609558	1514.593994	19954.156250	7789.876465	34.031624
514.958801	1517.460938	20057.042969	7830.677734	34.052639
515.308044	1517.019897	20201.500000	7874.125000	34.023449
515.657227	1518.894531	20392.933594	7944.478516	34.044563
516.006348	1520.989746	20606.861328	8034.020020	34.124878
516.355408	1523.415771	20836.009766	8108.123535	34.095409
516.704529	1523.856812	21066.146484	8184.983398	34.085701
517.053467	1523.415649	21249.308594	8244.419922	34.071991
517.402466	1526.062256	21397.183594	8298.784180	34.083241
517.751404	1523.084961	21517.271484	8353.479492	34.161900
518.100281	1525.290405	21624.896484	8397.700195	34.191765
518.449219	1520.548950	21691.941406	8430.890625	34.258129
518.798035	1517.571411	21757.333984	8461.104492	34.306396
519.146851	1516.689331	21826.916016	8486.026367	34.314423
519.495544	1517.020020	21905.869141	8512.050781	34.308121
519.844299	1522.313110	21994.197266	8538.958008	34.274544
520.192932	1520.218018	22093.333984	8574.354492	34.288132
520.541626	1522.313110	22156.630859	8590.896484	34.256443
520.890198	1527.937012	22260.949219	8636.770508	34.287510
521.238770	1530.583496	22355.783203	8664.448242	34.255924
521.587280	1531.796387	22446.537109	8703.374023	34.289585
521.935791	1530.693726	22546.884766	8743.623047	34.320820
522.284180	1532.788940	22645.027344	8767.332031	34.267059
522.632629	1534.994385	22760.375000	8806.809570	34.259998
522.981018	1530.693726	22887.296875	8866.357422	34.348457
523.329346	1530.693848	23058.660156	8926.014648	34.352158
523.677551	1525.731567	23236.419922	8990.635742	34.383545
524.025818	1523.415771	23458.398438	9066.502930	34.388390
524.374023	1521.100098	23722.173828	9170.931641	34.457035
524.722229	1520.438477	24090.261719	9305.022461	34.491116
525.070374	1520.548584	24555.941406	9459.292969	34.463245
525.418457	1519.556274	25200.154297	9686.234375	34.486790
525.766541	1524.849365	26106.705078	10011.758789	34.525097
526.114563	1525.621338	27271.955078	10409.180664	34.504173
526.462585	1522.974854	28579.017578	10871.223633	34.551426
526.810547	1526.172729	29825.097656	11287.722656	34.494419
527.158447	1526.172607	30890.884766	11649.858398	34.475685
527.506348	1528.157593	31764.574219	11944.506836	34.449684
527.854065	1528.598633	32475.056641	12183.136719	34.428944
528.201904	1522.202759	33035.906250	12370.269531	34.423332
528.549622	1520.879639	33462.882813	12514.505859	34.417458
528.897339	1520.879517	33790.281250	12617.059570	34.386070
529.245056	1519.997314	34014.574219	12694.138672	34.387714
529.592712	1516.027466	34193.992188	12770.448242	34.440395
529.940369	1515.365845	34378.804688	12835.397461	34.445671
530.287903	1517.571289	34558.000000	12894.946289	34.434708
530.635437	1514.704346	34745.679688	12960.337891	34.442665
530.982910	1517.020020	35013.753906	13052.966797	34.439022
531.330383	1518.233032	35248.523438	13144.273438	34.467655
531.677795	1521.651489	35370.593750	13179.560547	34.440987
532.025208	1522.643921	35337.398438	13167.318359	34.436668
532.372498	1521.320801	35142.769531	13111.852539	34.473621
532.719788	1522.643921	34723.730469	12961.992188	34.454742
533.067078	1520.659180	34028.792969	12711.452148	34.424595
533.414307	1523.195435	33081.554688	12394.417969	34.447998
533.761536	1525.290649	32011.136719	12026.879883	34.447426
534.108643	1523.085083	31022.433594	11700.473633	34.500385
534.455811	1523.856934	30247.216797	11446.514648	34.545605
534.802856	1527.275635	29614.585938	11246.370117	34.603153
535.149902	1524.408447	29126.521484	11085.592773	34.639320
535.496887	1523.195313	28710.240234	10948.745117	34.669270
535.843811	1522.864624	28364.095703	10841.449219	34.717430
536.190796	1520.328247	28066.687500	10758.855469	34.801487
536.537659	1526.613892	27817.033203	10672.291992	34.787113
536.884460	1527.826782	27578.732422	10581.536133	34.753910
537.231323	1525.180298	27296.324219	10500.596680	34.827385
537.578064	1525.952148	27017.113281	10406.644531	34.838322
537.924805	1524.518677	26697.654297	10311.919922	34.907856
538.271423	1526.062500	26405.654297	10221.386719	34.949627
538.618164	1527.275391	26236.941406	10176.617188	35.003880
538.964783	1526.062378	26303.761719	10214.771484	35.066650
539.311279	1525.290405	26509.308594	10293.616211	35.095741
539.657776	1529.811523	26777.714844	10388.010742	35.084892
540.004333	1534.001831	27009.066406	10466.523438	35.063786
540.350769	1530.914307	27213.953125	10539.523438	35.076103
540.697144	1534.773926	27352.234375	10601.385742	35.118137
541.043518	1534.773926	27429.089844	10626.527344	35.111000
541.389893	1532.788940	27431.296875	10626.197266	35.111706
541.736145	1533.009521	27319.259766	10596.974609	35.150379
542.082458	1531.465698	27184.619141	10554.298828	35.172413
542.428711	1530.032104	27028.029297	10513.828125	35.233337
542.774902	1534.443115	26874.091797	10478.322266	35.295986
543.121033	1534.001953	26771.865234	10459.355469	35.364933
543.467102	1535.766357	26708.130859	10442.041992	35.381161
543.813171	1530.473389	26658.839844	10433.220703	35.429070
544.159180	1527.826782	26623.990234	10433.772461	35.487278
544.505127	1527.275269	26580.546875	10417.673828	35.485977
544.851135	1525.510986	26465.642578	10379.297852	35.500164
545.197021	1529.039673	26279.062500	10314.126953	35.495266
545.542908	1529.811523	25915.710938	10198.450195	35.547752
545.888733	1528.598633	25382.431641	10006.906250	35.542747
546.234558	1529.701416	24666.982422	9762.652344	35.583054
546.580322	1529.370483	23875.119141	9491.603516	35.631981
546.926025	1522.754150	23061.306641	9208.754883	35.684853
547.271667	1516.799438	22344.753906	8981.702148	35.840786
547.617371	1515.917236	21688.521484	8760.826172	35.914597
547.962952	1510.513916	21087.759766	8550.867188	35.961918
548.308533	1506.985229	20539.593750	8364.616211	36.030956
548.654053	1510.513916	20035.978516	8201.412109	36.117306
548.999573	1510.072876	19574.046875	8058.940430	36.253746
549.344971	1509.631836	19205.074219	7937.089355	36.322674
549.690430	1511.727051	18895.871094	7832.220215	36.357803
550.035767	1514.704468	18655.806641	7753.375000	36.395973
550.381104	1517.461182	18424.896484	7677.397949	36.433300
550.726440	1517.350952	18201.921875	7600.318359	36.458641
551.071655	1521.872070	17961.861328	7526.766602	36.526150
551.416931	1523.305664	17699.191406	7444.834961	36.607140
551.762085	1523.305664	17417.554688	7361.026855	36.728512
552.107178	1526.393188	17137.240234	7271.264648	36.800514
552.452332	1527.937012	16865.531250	7178.414551	36.840706
552.797424	1528.488281	16617.859375	7097.033691	36.903759
553.142395	1529.039551	16403.378906	7032.854980	37.002083
553.487366	1531.906494	16235.324219	6979.592773	37.050476
553.832336	1533.450439	16092.630859	6932.286621	37.082005
554.177185	1538.192261	15982.911133	6906.922852	37.167427
554.522095	1537.199707	15885.650391	6876.599121	37.212376
554.866943	1540.508057	15797.429688	6864.579102	37.343765
555.211731	1540.177246	15707.779297	6839.436523	37.404068
555.556396	1542.162109	15630.037109	6823.005859	37.485027
555.901123	1536.758667	15550.971680	6799.628906	37.553806
556.245789	1533.891602	15491.977539	6774.155273	37.542854
556.590454	1533.340454	15421.841797	6752.431641	37.578506
556.934998	1535.656006	15336.601563	6727.179199	37.617157
557.279541	1531.135010	15230.741211	6684.504395	37.616913
557.624023	1529.260376	15136.675781	6645.467773	37.598675
557.968567	1528.488403	15005.562500	6607.313477	37.684925
558.312988	1526.393188	14903.338867	6574.893066	37.740307
558.657349	1528.267822	14807.733398	6551.735840	37.828838
559.001770	1528.708862	14752.045898	6519.866699	37.745071
559.346069	1524.628784	14695.036133	6500.458984	37.780380
559.690308	1524.187622	14652.139648	6484.248535	37.782444
560.034485	1519.445923	14622.696289	6473.662109	37.809067
560.378723	1517.681519	14593.473633	6460.871094	37.804131
560.722900	1515.365845	14547.491211	6451.717773	37.878334
561.067017	1513.380981	14502.721680	6443.999023	37.958958
561.411072	1513.932251	14474.269531	6434.847656	37.969040
561.755127	1513.380859	14445.488281	6433.193359	38.043392
562.099182	1512.057617	14444.275391	6425.583496	37.994457
562.443115	1513.711914	14463.792969	6430.436035	37.966743
562.787048	1512.609131	14476.474609	6444.219727	38.041203
563.130920	1517.020142	14514.077148	6470.354004	38.111198
563.474792	1519.997437	14593.033203	6497.040039	38.071053
563.818604	1519.887085	14671.437500	6521.961914	38.034107
564.162354	1516.689209	14778.511719	6556.257324	38.000572
564.506042	1522.202881	14880.733398	6602.130371	38.027596
564.849731	1525.290405	14948.110352	6629.256836	38.024544
565.193420	1526.723999	15022.654297	6662.119141	38.051434
565.537048	1527.054688	15072.498047	6676.013184	38.012478
565.880615	1524.959595	15111.315430	6680.312500	37.945076
566.224121	1526.723877	15117.048828	6687.812500	37.976200
566.567627	1533.781372	15125.760742	6691.561523	37.947235
566.911072	1532.788940	15127.083008	6702.699219	38.030003
567.254517	1536.758789	15147.593750	6711.851074	38.021858
567.597839	1535.104858	15172.957031	6728.723145	38.082375
567.941223	1534.002075	15221.255859	6739.639648	38.032742
568.284485	1532.678833	15281.576172	6761.583984	38.031452
568.627808	1534.663696	15341.895508	6783.417480	38.014530
568.970947	1535.876709	15414.675781	6804.700684	37.963116
569.314148	1538.633545	15486.792969	6826.092773	37.907932
569.657288	1534.774048	15551.301758	6859.947754	37.992104
570.000366	1534.112305	15612.943359	6882.773926	37.990807
570.343445	1532.348022	15662.568359	6894.132324	37.945511
570.686462	1528.378174	15679.879883	6903.946289	37.985851
571.029419	1526.723999	15675.358398	6906.482910	38.023167
571.372314	1526.613770	15632.462891	6901.630859	38.104881
571.715210	1521.651367	15592.434570	6881.781250	38.094040
572.058105	1520.989990	15575.562500	6877.480469	38.112083
572.400879	1521.872070	15552.845703	6866.785156	38.093674
572.743713	1518.563843	15550.087891	6875.055176	38.174690
573.086426	1520.328125	15549.425781	6882.442871	38.221378
573.429077	1521.982178	15559.351563	6896.005859	38.283695
573.771790	1517.902100	15557.585938	6907.584961	38.388920
574.114441	1517.571289	15556.593750	6910.562500	38.414291
574.457031	1516.248047	15535.863281	6897.880371	38.386448
574.799561	1519.115112	15488.666992	6878.252441	38.362988
575.142029	1518.674072	15425.588867	6863.476074	38.432690
575.484436	1520.438477	15341.343750	6831.717285	38.429314
575.826904	1518.674194	15231.954102	6795.548340	38.480026
576.169250	1519.666626	15101.721680	6747.690430	38.492142
576.511597	1518.012573	14939.840820	6696.854004	38.585217
576.853943	1521.320679	14764.176758	6631.683105	38.589577
577.196167	1524.518555	14579.801758	6564.968750	38.608509
577.538391	1523.526123	14387.044922	6493.842285	38.638855
577.880554	1526.503296	14197.925781	6431.758789	38.711166
578.222717	1527.606079	14013.992188	6368.352539	38.768196
578.564819	1527.936890	13843.730469	6313.436035	38.856602
578.906860	1531.906860	13668.176758	6251.793945	38.890759
579.248901	1529.039795	13486.114258	6183.755859	38.928551
579.590942	1528.488525	13311.665039	6130.494141	39.055733
579.932861	1530.473267	13130.047852	6070.726074	39.141548
580.274780	1531.576050	12965.851563	6018.457031	39.240623
580.616638	1528.929443	12799.669922	5953.727539	39.259159
580.958496	1528.267822	12642.088867	5897.819336	39.316376
581.300232	1525.400757	12493.443359	5846.432129	39.396557
581.641968	1525.841919	12354.940430	5805.631836	39.521202
581.983704	1524.187744	12222.283203	5761.963867	39.612438
582.325317	1525.841919	12101.534180	5719.619141	39.654873
582.666992	1527.275391	11995.232422	5686.979004	39.737492
583.008606	1529.591187	11896.317383	5655.771484	39.802151
583.350098	1530.693970	11814.714844	5631.621582	39.876698
583.691589	1529.039917	11735.871094	5601.076172	39.895206
584.033081	1530.473511	11675.662109	5576.485352	39.881088
584.374512	1529.150146	11635.742188	5562.480957	39.907921
584.715881	1530.804199	11580.606445	5547.263184	39.965549
585.057190	1531.245361	11526.683594	5531.714355	40.022945
585.398499	1526.613770	11487.756836	5526.090332	40.150780
585.739807	1531.355469	11463.937500	5511.975586	40.076389
586.081055	1531.134888	11458.313477	5509.108398	40.071541
586.422180	1532.347900	11440.449219	5511.865234	40.164276
586.763367	1531.134888	11435.597656	5506.682617	40.138954
587.104431	1532.237671	11436.257813	5505.579590	40.118473
587.445496	1529.370483	11437.471680	5499.184082	40.066338
587.786499	1529.039795	11440.559570	5503.043457	40.094799
588.127502	1532.237671	11449.160156	5499.735352	40.007347
588.468445	1533.340332	11450.815430	5493.560059	39.931736
588.809326	1533.560913	11456.659180	5501.389160	39.985779
589.150208	1536.207520	11464.377930	5506.241211	39.987568
589.491028	1537.751343	11463.717773	5510.651855	40.025326
589.831848	1533.450562	11459.858398	5521.237793	40.173515
590.172546	1529.591187	11462.835938	5529.067383	40.263538
590.513245	1527.385620	11457.653320	5528.957031	40.296711
590.853943	1526.723999	11469.452148	5540.866699	40.372646
591.194458	1523.084961	11473.973633	5545.498047	40.422653
591.535095	1526.282837	11476.620117	5547.923828	40.417133
591.875610	1528.819214	11484.891602	5552.445313	40.413788
592.216125	1524.739014	11512.017578	5557.627930	40.380260
592.556580	1528.819214	11542.123047	5565.236816	40.310547
592.897034	1527.385620	11559.435547	5574.830566	40.345142
593.237366	1524.408203	11564.838867	5590.930664	40.501476
593.577698	1529.260254	11603.103516	5609.015137	40.498493
593.918030	1530.252686	11650.410156	5629.966309	40.510376
594.258301	1531.686401	11705.215820	5646.506836	40.446342
594.598511	1533.450684	11771.158203	5679.368652	40.496548
594.938721	1535.325317	11857.501953	5712.891602	40.471760
595.278809	1534.443115	11935.464844	5746.303711	40.494678
595.618958	1537.861328	11997.327148	5772.218262	40.483490
595.958984	1535.876587	12031.291016	5781.591797	40.453053
596.299011	1534.663574	12048.934570	5796.258301	40.531525
596.638977	1534.112305	12065.916992	5800.779785	40.512215
596.978943	1536.317749	12067.018555	5790.414063	40.397083
597.318848	1538.302490	12054.998047	5775.747559	40.292557
597.658630	1541.720947	12036.031250	5770.675293	40.297588
597.998474	1541.941650	12002.398438	5760.860840	40.332069
598.338257	1541.610718	11959.060547	5760.750977	40.500698
598.677979	1536.648438	11904.476563	5747.517578	40.614765
599.017700	1535.986938	11873.490234	5736.380371	40.632576
599.357361	1536.317749	11823.316406	5721.163086	40.680912
599.696960	1537.530640	11767.958984	5703.629395	40.722622
600.036560	1535.104736	11732.892578	5690.066406	40.743755
600.376038	1537.420532	11709.957031	5667.570313	40.600986
600.715576	1535.215088	11680.955078	5659.740723	40.652779
601.055054	1530.473267	11653.055664	5657.755859	40.773022
601.394409	1530.142456	11614.680664	5653.235352	40.885292
601.733826	1529.260376	11593.729492	5640.442871	40.848480
602.073120	1523.195435	11560.426758	5636.583496	40.981304
602.412415	1519.335693	11560.868164	5634.047852	40.976933
602.751587	1515.366089	11583.473633	5638.789551	40.955296
603.090820	1516.578979	11618.099609	5654.337891	40.961742
603.429993	1518.563843	11665.185547	5664.482910	40.860092
603.769104	1517.902100	11700.142578	5675.399902	40.830879
604.108154	1517.240479	11724.841797	5693.815430	40.916321
604.447205	1517.571289	11761.012695	5707.930176	40.907726
604.786194	1516.358276	11777.001953	5721.604004	40.984230
605.125183	1519.666504	11801.591797	5732.631836	40.974476
605.464111	1522.423340	11833.351563	5734.395508	40.849594
605.802979	1524.849121	11869.520508	5745.532715	40.800556
606.141846	1523.415527	11894.111328	5759.537109	40.847034
606.480652	1525.621338	11927.525391	5775.746582	40.859104
606.819336	1524.187622	11986.520508	5796.037109	40.830757
607.158020	1522.202759	12036.363281	5811.475586	40.795204
607.496765	1518.453491	12074.296875	5842.352539	40.962135
607.835388	1515.255615	12102.967773	5859.995605	41.035686
608.173950	1520.328369	12105.945313	5851.284668	40.913589
608.512512	1522.313110	12089.955078	5840.918945	40.866318
608.851013	1523.415771	12038.128906	5826.803711	40.927296
609.189514	1528.708862	11961.158203	5798.684082	40.929749
609.527893	1531.575928	11846.584961	5757.552734	40.969200
609.866333	1536.428101	11725.615234	5719.288086	41.051949
610.204712	1538.082153	11597.809570	5673.745605	41.111088
610.542969	1536.317749	11477.282227	5636.252441	41.242825
610.881226	1535.545898	11375.941406	5602.619141	41.330383
611.219482	1536.538330	11296.544922	5567.772949	41.303604
611.557678	1534.774048	11222.221680	5543.843750	41.384171
611.895813	1534.001953	11170.172852	5515.724121	41.320583
612.233948	1529.370605	11119.116211	5497.749512	41.381481
612.571960	1530.693848	11067.949219	5478.121094	41.389549
612.910034	1530.693848	11004.432617	5454.082031	41.413307
613.247986	1530.032227	10945.435547	5428.609863	41.406380
613.585938	1525.510986	10878.611328	5407.547852	41.505348
613.923828	1526.723877	10775.286133	5376.891602	41.629906
614.261658	1528.708740	10655.861328	5344.030273	41.801884
614.599487	1530.583374	10533.898438	5296.062012	41.823242
614.937317	1532.899170	10426.493164	5244.454102	41.732903
615.275024	1529.921753	10327.688477	5211.372559	41.845287
615.612732	1525.951904	10242.007813	5184.796875	41.978218
615.950378	1524.297852	10159.083008	5152.486816	42.018288
616.288025	1523.856812	10087.185547	5120.618164	42.001904
616.625549	1523.415649	10036.679688	5104.077148	42.059799
616.963074	1522.092407	9979.669922	5084.228516	42.117691
617.300537	1521.761597	9949.125000	5072.649414	42.135216
617.638000	1521.761597	9913.396484	5058.865234	42.150352
617.975464	1523.636230	9882.080078	5057.432129	42.278156
618.312744	1525.952026	9843.483398	5052.249023	42.395954
618.650024	1523.746582	9816.908203	5045.302246	42.463364
618.987305	1523.526001	9787.244141	5036.259277	42.507908
619.324585	1529.370483	9754.933594	5024.570313	42.491917
619.661743	1528.267822	9729.902344	5015.086914	42.513710
619.998901	1531.465820	9711.817383	5008.691406	42.507042
620.336060	1534.001953	9686.896484	5001.854004	42.535225
620.673096	1539.184814	9661.203125	4986.195313	42.440319
621.010193	1538.633423	9631.980469	4976.711914	42.480305
621.347168	1535.766357	9616.762695	4968.000977	42.472916
621.684082	1534.773926	9601.544922	4958.627441	42.443916
622.020996	1535.545898	9580.703125	4950.246582	42.444176
622.357849	1540.397827	9554.568359	4936.021484	42.370243
622.694641	1540.397827	9528.212891	4927.089844	42.398228
623.031433	1541.941650	9508.142578	4922.567871	42.437119
623.368164	1542.162231	9502.850586	4924.994629	42.494221
623.704895	1541.059570	9505.497070	4921.134277	42.439590
624.041504	1537.971924	9534.609375	4926.758789	42.377647
624.378174	1534.663818	9550.929688	4932.161621	42.382549
624.714783	1534.994629	9583.019531	4940.101074	42.309841
625.051331	1531.906982	9605.955078	4944.732910	42.269081
625.387756	1531.024780	9641.573242	4946.276855	42.108768
625.724304	1531.906860	9667.598633	4949.584961	42.008453
626.060669	1535.656128	9673.332031	4964.030762	42.129654
626.397034	1532.678955	9680.831055	4972.411621	42.214878
626.733337	1532.568604	9681.161133	4978.586914	42.289734
627.069641	1527.716553	9676.640625	4979.469238	42.358387
627.405884	1528.267944	9668.479492	4983.660156	42.448433
627.742126	1527.937012	9663.517578	4980.461914	42.437351
628.078308	1523.526123	9658.775391	4967.670410	42.336063
628.414429	1523.526123	9645.101563	4961.164551	42.327236
628.750488	1524.959595	9631.758789	4959.510254	42.366299
629.086548	1526.062256	9595.479492	4952.232422	42.458706
629.422546	1523.526123	9564.051758	4942.748047	42.524857
629.758545	1525.069824	9526.228516	4931.831055	42.578350
630.094421	1524.187744	9472.195313	4915.511230	42.668850
630.430298	1525.290405	9417.831055	4902.609375	42.791275
630.766113	1526.282959	9351.777344	4885.516602	42.926792
631.101929	1529.260254	9271.388672	4864.454102	43.078514
631.437622	1531.575928	9189.014648	4841.517578	43.225182
631.773376	1529.149902	9111.272461	4821.778809	43.426216
632.109070	1529.149902	9044.116211	4794.872559	43.456253
632.444641	1525.510864	8975.857422	4774.030273	43.602261
632.780273	1528.378052	8906.606445	4757.159180	43.760929
633.115784	1525.069946	8849.706055	4731.134766	43.770977
633.451294	1521.872070	8788.946289	4708.087402	43.844540
633.786682	1520.438477	8727.304688	4681.291504	43.858910
634.122131	1521.982178	8668.307617	4661.662598	43.934196
634.457458	1520.107666	8613.833008	4636.410156	43.930405
634.792847	1519.997314	8549.323242	4615.458984	44.036392
635.128113	1524.739136	8485.807617	4602.666992	44.216312
635.463318	1526.613770	8434.750000	4580.282227	44.203941
635.798584	1525.841919	8377.078125	4562.969727	44.329632
636.133728	1525.952148	8329.109375	4543.120605	44.349533
636.468872	1525.290527	8283.125000	4527.902832	44.431576
636.803955	1524.739136	8240.559570	4503.311523	44.351578
637.139038	1526.613770	8204.279297	4487.432617	44.339130
637.473999	1525.069946	8163.147949	4462.952148	44.258026
637.808899	1525.400757	8111.651855	4444.095703	44.314964
638.143799	1522.202759	8053.869141	4425.900879	44.455704
638.478638	1523.415771	7994.541504	4405.721191	44.541019
638.813538	1528.047363	7933.230469	4381.461426	44.548515
639.148315	1530.252808	7868.169434	4355.767578	44.581127
639.483032	1530.583496	7802.336914	4337.020996	44.747253
639.817749	1529.150024	7742.680176	4310.555664	44.763695
640.152405	1527.165161	7685.999023	4288.170410	44.830002
640.487000	1529.480835	7628.216309	4265.343750	44.859509
640.821594	1528.819214	7575.727539	4257.514648	45.125462
641.156128	1528.598511	7530.735840	4241.194336	45.193829
641.490662	1528.267822	7483.979980	4229.174805	45.349861
641.825134	1524.959595	7437.886230	4215.610840	45.504562
642.159546	1522.092651	7393.886719	4200.062500	45.607353
642.493896	1519.666626	7349.887695	4196.864746	45.919327
642.828186	1517.902222	7319.563477	4178.779785	45.864063
643.162537	1516.358398	7284.606934	4166.980957	45.951946
643.496765	1515.696777	7244.688477	4154.079102	46.053169
643.830994	1516.027588	7218.002441	4149.888184	46.192078
644.165100	1513.380981	7196.499023	4140.625000	46.228920
644.499268	1510.293457	7173.011230	4136.104492	46.370155
644.833313	1509.301025	7158.014160	4130.811523	46.408989
645.167358	1515.035156	7139.157715	4122.541016	46.362892
645.501343	1513.491211	7132.981934	4113.498047	46.267658
645.835327	1509.962524	7123.058105	4103.684082	46.208401
646.169189	1508.529053	7114.456055	4100.596191	46.237976
646.503052	1512.057617	7104.311035	4093.097900	46.153851
646.836914	1513.932251	7088.541504	4092.436279	46.254433
647.170654	1516.578979	7080.492676	4086.481445	46.188755
647.504395	1517.461182	7083.359375	4081.188232	46.061333
647.838074	1520.107666	7085.785156	4071.263672	45.837292
648.171753	1518.563965	7084.130859	4067.625000	45.800564
648.505371	1519.666626	7081.926270	4061.891113	45.704887
648.838928	1519.666626	7087.440430	4056.818848	45.568523
649.172424	1521.982300	7097.144531	4050.863525	45.359783
649.505920	1522.754150	7098.687500	4046.673096	45.264507
649.839294	1523.526245	7092.181641	4046.562500	45.307816
650.172729	1525.070068	7090.195801	4055.274170	45.465351
650.506104	1525.731567	7093.063965	4051.524902	45.368107
650.839355	1524.959595	7090.638184	4050.753418	45.381599
651.172668	1528.157593	7082.256836	4051.745605	45.436493
651.505859	1533.671265	7068.252441	4050.533203	45.475201
651.839111	1538.082153	7056.342773	4049.099365	45.503777
652.172241	1535.876709	7041.786621	4037.520752	45.435612
652.505371	1535.435547	7022.710449	4032.227295	45.501488
652.838379	1536.648560	7007.603516	4034.984375	45.665443
653.171387	1536.758789	6991.062500	4024.728760	45.614803
653.504333	1537.310181	6964.927734	4016.017090	45.668415
653.837280	1534.001953	6946.622559	4011.826904	45.778656
654.170227	1533.781494	6934.712891	4009.180176	45.832809
654.503052	1535.214966	6922.582520	4007.085449	45.882717
654.835876	1537.751221	6907.695801	4001.350830	45.877563
655.168579	1542.713379	6891.927246	3998.925293	45.917252
655.501343	1541.279907	6883.436035	4000.137939	46.027443
655.833984	1544.477783	6877.039551	4000.137939	46.050293
656.166626	1543.044312	6878.804199	4008.849609	46.212822
656.499268	1544.588013	6896.999023	4015.906982	46.172066
656.831787	1545.580444	6924.126465	4027.265137	46.140438
657.164307	1540.287598	6959.083496	4038.512695	46.102955
657.496765	1539.625854	6995.473145	4056.266357	46.127403
657.829224	1541.059448	7031.642090	4066.963135	46.004295
658.161621	1538.302612	7066.819336	4077.880127	45.935966
658.493958	1535.986938	7092.732910	4085.269043	45.877247
658.826233	1532.568604	7112.912109	4096.186035	45.940136
659.158508	1530.032227	7145.002441	4106.992676	45.894463
659.490723	1530.914429	7156.470215	4114.380371	45.923744
659.822876	1531.576050	7165.181641	4113.498535	45.830727
660.154968	1531.245239	7168.710449	4121.768555	45.951920
660.487061	1529.921875	7173.231934	4128.605469	46.048923
660.819153	1531.906860	7170.034180	4125.187012	45.995419
661.151123	1530.473267	7159.007324	4119.783691	46.003284
661.483093	1531.134888	7142.245605	4113.608398	46.024284
661.815002	1528.708740	7124.049805	4105.999512	46.061371
662.146851	1524.077393	7100.892090	4094.531738	46.091805
662.478760	1521.320557	7082.146484	4081.960449	46.047832
662.810486	1519.666504	7055.461426	4070.271484	46.074772
663.142212	1519.004883	7017.968750	4056.818359	46.150757
663.473938	1521.430908	6967.243164	4035.866455	46.171909
663.805603	1521.320557	6898.985352	4007.085449	46.223869
664.137207	1523.967041	6828.961914	3972.570313	46.156559
664.468689	1525.400635	6759.269531	3948.971680	46.305534
664.800293	1526.172607	6684.834961	3920.190430	46.407726
665.131775	1529.921875	6612.826660	3895.819824	46.546177
665.463196	1529.480713	6554.823730	3876.301758	46.699722
665.794617	1531.906860	6497.812500	3850.498047	46.690201
666.125916	1537.530640	6446.314941	3833.295654	46.768509
666.457275	1537.971802	6413.785156	3819.401367	46.790749
666.788574	1536.979370	6383.789551	3808.153564	46.859158
667.119812	1539.295044	6353.906250	3798.229248	46.918304
667.450928	1540.397827	6330.308105	3784.114258	46.842556
667.782104	1540.177368	6313.988281	3774.299561	46.799549
668.113159	1540.397827	6295.461914	3770.661133	46.902905
668.444214	1535.876709	6287.633301	3767.132324	46.956436
668.775208	1536.758789	6277.928711	3767.132324	47.042683
669.106201	1540.067017	6267.453125	3764.155029	47.046883
669.437134	1543.044312	6245.729004	3761.728760	47.179108
669.768005	1546.904053	6219.263184	3765.037109	47.473511
670.098877	1548.999146	6209.559570	3756.435547	47.364185
670.429688	1548.227295	6190.813477	3748.275635	47.388424
670.760437	1550.101929	6188.717773	3747.283203	47.367172
671.091187	1550.542969	6176.477539	3740.556641	47.342079
671.421814	1549.109375	6162.472656	3735.815186	47.399384
671.752441	1546.573120	6143.506836	3729.529297	47.487221
672.083008	1542.934204	6130.383789	3718.392090	47.421947
672.413574	1544.367798	6119.577148	3710.893311	47.353577
672.744080	1539.846558	6102.816406	3701.961426	47.383938
673.074524	1536.758911	6089.362793	3696.999268	47.450649
673.404968	1535.876709	6066.977539	3692.918945	47.605259
673.735352	1536.869019	6040.401855	3687.735840	47.759544
674.065613	1533.560913	6016.141602	3672.628662	47.719563
674.395935	1531.355469	6001.144531	3666.894775	47.777184
674.726196	1528.819214	5980.192871	3660.829590	47.895561
675.056335	1529.150024	5964.313965	3648.699463	47.789650
675.386536	1531.796509	5940.384766	3637.782471	47.770073
675.716614	1528.929443	5925.387695	3628.078125	47.746361
676.046692	1526.503296	5913.808594	3626.534668	47.866085
676.376770	1526.834229	5913.698730	3623.557373	47.795486
676.706726	1523.856812	5920.866699	3616.389404	47.589905
677.036621	1524.518555	5919.323242	3616.500000	47.601238
677.366516	1525.290405	5932.114746	3620.690430	47.548977
677.696411	1521.210327	5936.635254	3626.865234	47.688610
678.026184	1518.343384	5951.631836	3640.980713	47.879517
678.355957	1517.902100	5965.967285	3641.972900	47.752689
678.685669	1519.997314	5992.542969	3653.441162	47.700882
679.015320	1519.666626	6014.707520	3661.932373	47.658421
679.344971	1521.210449	6027.168945	3664.578857	47.567425
679.674561	1522.313232	6048.010254	3675.164795	47.569500
680.004150	1517.240723	6064.110352	3683.766357	47.648731
680.333618	1518.453735	6078.115234	3686.522949	47.548908
680.663086	1517.791992	6094.435059	3684.317383	47.338745
680.992493	1519.997437	6107.778320	3691.375000	47.329582
681.321899	1521.761719	6110.093750	3690.492676	47.266216
681.651184	1523.746704	6108.219238	3690.271973	47.257896
681.980530	1526.393188	6103.146973	3695.455322	47.393024
682.309753	1526.723999	6094.655762	3696.447510	47.499039
682.638977	1527.385498	6081.533691	3689.169189	47.468449
682.968079	1528.929199	6066.426270	3679.134766	47.387482
683.297241	1531.024414	6046.797852	3666.563232	47.290653
683.626343	1532.678589	6027.499512	3661.600830	47.363899
683.955383	1530.803955	5996.403320	3651.786377	47.496029
684.284363	1533.340332	5959.351563	3639.215332	47.579521
684.613281	1533.119751	5924.835938	3627.636963	47.692451
684.942139	1531.355469	5886.681641	3609.883301	47.723816
685.271057	1532.348022	5854.041016	3599.186279	47.824741
685.599792	1529.260376	5815.224121	3585.182373	47.968716
685.928589	1530.363037	5784.348633	3569.523438	47.935295
686.257324	1527.716553	5753.692871	3559.048096	48.067741
686.585999	1528.488525	5724.580566	3544.160645	48.036892
686.914612	1531.024780	5680.582031	3526.186279	48.081310
687.243164	1531.024780	5642.647949	3511.961426	48.178947
687.571777	1531.245117	5601.516602	3502.918457	48.440830
687.900269	1530.363037	5560.385254	3486.047363	48.527878
688.228699	1528.378052	5526.420898	3474.358643	48.673328
688.557129	1530.362915	5496.758301	3465.205811	48.780888
688.885498	1526.393188	5467.314941	3455.501953	48.950699
689.213867	1525.510986	5442.834473	3444.474609	48.986603
689.542114	1524.628906	5421.772461	3442.489502	49.211956
689.870361	1523.636475	5396.079102	3433.888672	49.329388
690.198608	1522.313110	5375.126465	3429.257324	49.494850
690.526794	1522.533813	5343.258301	3414.701172	49.523785
690.854858	1522.313110	5320.982910	3400.586426	49.445553
691.182922	1516.248169	5299.259277	3390.661865	49.548191
691.510986	1516.358398	5276.433105	3374.782471	49.425190
691.838928	1521.320679	5241.477051	3366.953125	49.611691
692.166931	1522.974731	5200.455566	3348.096680	49.629677
692.494812	1526.282837	5167.484375	3337.400391	49.739555
692.822632	1525.841797	5120.288086	3321.740967	49.963165
693.150452	1527.495850	5083.236328	3310.493408	50.144199
693.478149	1525.952148	5042.655762	3299.466064	50.431145
693.805908	1527.826782	5017.734375	3290.975342	50.521351
694.133606	1527.606079	4996.671875	3284.358887	50.640514
694.461243	1529.039673	4976.712402	3275.646973	50.660469
694.788818	1530.583496	4963.038086	3278.183350	50.913998
695.116333	1532.458130	4961.714844	3281.491455	51.003277
695.443848	1532.347900	4954.547363	3280.830078	51.092350
695.771301	1534.663452	4967.780273	3283.476563	50.939518
696.098755	1536.869019	4989.614258	3291.967285	50.831966
696.426147	1538.302612	5020.049316	3307.846680	50.823460
696.753418	1537.751343	5064.489258	3331.776367	50.869247
697.080688	1537.530640	5103.635742	3349.860840	50.820999
697.407898	1537.199829	5152.597168	3373.458984	50.789967
697.735107	1537.310059	5187.553223	3401.688965	51.075470
698.062317	1540.066895	5222.729980	3416.906738	50.964203
698.389404	1541.831421	5252.503906	3434.550537	51.007442
698.716492	1540.949097	5280.292480	3442.159180	50.843422
699.043457	1536.427979	5295.730957	3455.833252	51.057476
699.370483	1534.884155	5303.449219	3455.833252	50.972961
699.697388	1536.207397	5314.476563	3464.213623	51.028824
700.024292	1536.648438	5318.777832	3465.536377	51.000053
700.351135	1538.192261	5310.507324	3464.434082	51.062592
700.677917	1537.309937	5302.567383	3459.030518	51.038227
701.004639	1538.192139	5290.989258	3453.075439	51.025494
701.331299	1538.853760	5274.338379	3444.915283	51.025818
701.658020	1535.876465	5256.915039	3435.873047	51.060921
701.984619	1535.435303	5223.171387	3421.317627	51.139297
702.311218	1537.640747	5193.177246	3412.495850	51.288094
702.637756	1539.074341	5146.642578	3394.852051	51.441235
702.964233	1536.207275	5091.506348	3372.135742	51.639214
703.290649	1532.678711	5023.027344	3340.708252	51.800831
703.617065	1532.237671	4950.688477	3304.869873	51.854843
703.943481	1531.024658	4864.344727	3270.464600	52.183407
704.269775	1528.708862	4791.344238	3236.500732	52.343941
704.596008	1528.267822	4730.583984	3202.095703	52.269287
704.922241	1525.510986	4663.869141	3178.386475	52.666885
705.248474	1526.503418	4603.991211	3157.986328	53.013466
705.574585	1524.959717	4556.352539	3139.570801	53.263012
705.900696	1525.400757	4518.529297	3123.470703	53.391293
706.226746	1526.503540	4489.969238	3108.804443	53.393593
706.552734	1525.621338	4460.085449	3098.990234	53.616905
706.878723	1523.526245	4434.391602	3089.617188	53.801559
707.204651	1522.533813	4421.049316	3082.449463	53.817741
707.530518	1526.282959	4410.683105	3083.221436	53.977894
707.856323	1523.526123	4401.089844	3084.103760	54.232601
708.182068	1521.761719	4400.096680	3087.632568	54.401966
708.507813	1526.282837	4397.781250	3088.955811	54.420120
708.833496	1525.841797	4395.465332	3093.366699	54.624756
709.159180	1522.092407	4407.264648	3091.822998	54.406822
709.484802	1519.335693	4415.645020	3099.542236	54.559315
709.810303	1521.982178	4421.489746	3105.166016	54.601818
710.135864	1522.643799	4431.855469	3112.995605	54.666073
710.461304	1523.415771	4434.281738	3120.934814	54.881229
710.786743	1522.754150	4447.514648	3128.874512	54.914593
711.112122	1522.974731	4447.183594	3135.160400	55.132370
711.437500	1524.739136	4451.043457	3141.886963	55.262466
711.762817	1526.723999	4454.351074	3142.769043	55.199829
712.088013	1525.952148	4456.335938	3137.365234	54.989830
712.413269	1532.017090	4455.343262	3138.247314	54.945297
712.738403	1533.009521	4461.628906	3142.548340	54.958961
713.063538	1530.142578	4457.989746	3146.958984	55.222023
713.388611	1526.282959	4458.431152	3149.936279	55.374191
713.713623	1523.085083	4456.666992	3151.259766	55.501251
714.038574	1522.533691	4455.343750	3155.339600	55.673771
714.363525	1517.571411	4444.757813	3153.134766	55.874928
714.688477	1518.784424	4438.692871	3149.715820	55.855568
715.013306	1518.233032	4424.467285	3144.091797	55.943829
715.338135	1517.240479	4405.832031	3136.924561	56.071758
715.662842	1516.799438	4392.268066	3127.771484	56.024677
715.987549	1514.704346	4365.250977	3121.706787	56.375237
716.312195	1515.586548	4337.020996	3108.473877	56.456646
716.636841	1510.072876	4309.893555	3101.637207	56.845222
716.961426	1512.940063	4277.473633	3087.853027	56.968487
717.285950	1510.624390	4246.596680	3070.760498	57.023098
717.610474	1510.513916	4219.910645	3057.969238	57.114388
717.934937	1511.616699	4188.042480	3050.801270	57.508957
718.259277	1510.293579	4158.048828	3035.914307	57.619400
718.583679	1511.065308	4126.400391	3023.674072	57.836140
718.908020	1511.506470	4098.060059	3014.962891	58.125854
719.232239	1507.205811	4065.860107	3003.494385	58.479511
719.556519	1505.882568	4031.344971	2988.166504	58.693565
719.880737	1508.529053	4001.350830	2975.044189	58.829521
720.204834	1513.270752	3963.527588	2961.590820	59.108910
720.528931	1516.248047	3929.343262	2948.468262	59.351997
720.852966	1519.335693	3900.341797	2931.376221	59.304363
721.176941	1523.305542	3871.340088	2918.033203	59.399792
721.500916	1525.069824	3841.566650	2902.484863	59.461124
721.824829	1525.510986	3815.542480	2891.567871	59.652317
722.148743	1523.967041	3794.039063	2884.400391	59.929085
722.472534	1524.849243	3771.322266	2880.430176	60.342628
722.796326	1528.047241	3750.590820	2870.505859	60.401905
723.119995	1527.716553	3727.654297	2865.102295	60.791981
723.443665	1531.796631	3714.201172	2858.927002	60.810467
723.767334	1531.686279	3707.695801	2856.280518	60.872631
724.090942	1534.774048	3705.820801	2853.082520	60.722248
724.414551	1535.435547	3699.424561	2855.398438	60.996746
724.737976	1536.207520	3699.755615	2847.679199	60.616711
725.061462	1539.405396	3692.477783	2851.208008	60.927013
725.384888	1539.405518	3692.257324	2857.493408	61.225204
725.708252	1540.949341	3693.801270	2864.440674	61.476185
726.031616	1539.736206	3705.379883	2867.859131	61.326939
726.354858	1541.390381	3719.053223	2872.049561	61.104923
726.678162	1537.751343	3719.604980	2876.460693	61.356518
727.001404	1536.317749	3735.263428	2880.981689	61.150391
727.324463	1538.964355	3741.769775	2886.716064	61.183422
727.647583	1536.758911	3746.511230	2896.199219	61.520027
727.970642	1536.648682	3750.922363	2898.956055	61.523891
728.293701	1536.758789	3754.451172	2900.830811	61.508621
728.616699	1534.002075	3762.831543	2907.116211	61.606960
728.939575	1531.465820	3774.961670	2909.762695	61.435230
729.262512	1528.929443	3786.760742	2912.960449	61.299133
729.585266	1530.473267	3800.875732	2917.702393	61.100586
729.908142	1531.796631	3818.629883	2927.516846	61.032883
730.230896	1532.678711	3826.128418	2932.038086	61.015480
730.553467	1533.450562	3835.611572	2936.669189	60.952232
730.876160	1534.773926	3837.927002	2951.556152	61.514896
731.198792	1536.097290	3846.527832	2957.180176	61.507271
731.521362	1536.758911	3854.026855	2963.024658	61.549450
731.843872	1535.656128	3861.084473	2967.104492	61.556335
732.166321	1532.678711	3866.487793	2967.766113	61.491207
732.488770	1532.017212	3865.495117	2961.701172	61.268372
732.811157	1530.032227	3856.783447	2963.465820	61.606655
733.133484	1528.378174	3843.440918	2963.906738	62.008194
733.455811	1530.693848	3832.854248	2956.297607	61.924606
733.778015	1531.576172	3824.032715	2953.761475	62.037613
734.100281	1528.157593	3820.725098	2945.380859	61.818172
734.422424	1527.385742	3806.279053	2938.874512	61.937466
734.744507	1525.511108	3792.605713	2937.992676	62.303596
735.066589	1524.077515	3784.444824	2937.220703	62.518303
735.388611	1525.511108	3774.409912	2932.809814	62.577232
735.710571	1528.598755	3754.340820	2930.273438	62.975609
736.032532	1531.576172	3740.666748	2923.877197	63.025982
736.354431	1531.024780	3725.558838	2923.656982	63.459126
736.676270	1527.165161	3713.097900	2914.394043	63.461647
736.998108	1525.070068	3704.386475	2912.850098	63.679604
737.319824	1523.967407	3695.013428	2910.534668	63.866325
737.641541	1519.225586	3684.647949	2904.690186	63.981262
737.963135	1520.107788	3675.936768	2900.610107	64.035797
738.284790	1520.218018	3657.190430	2901.492188	64.636971
738.606323	1518.894775	3644.950439	2895.978516	64.771767
738.927856	1519.776978	3628.299072	2887.818604	64.881546
739.249390	1520.659180	3611.537598	2889.582764	65.471222
739.570740	1524.518677	3597.863770	2881.642822	65.455772
739.892212	1525.731567	3585.733643	2876.901367	65.590706
740.213562	1527.385620	3582.977051	2880.319824	65.817276
740.534790	1527.054810	3572.390625	2874.696045	65.888504
740.856079	1529.701416	3558.496582	2877.011475	66.409370
741.177246	1532.458130	3555.850098	2877.893555	66.494057
741.498413	1534.222534	3552.652588	2870.174805	66.187691
741.819580	1531.245117	3538.096436	2865.874268	66.503639
742.140625	1531.796509	3528.392578	2861.463135	66.596680
742.461670	1531.796509	3519.239502	2855.287842	66.592667
742.782654	1530.032104	3500.052002	2854.295654	67.220818
743.103577	1527.275146	3486.708984	2846.576416	67.330742
743.424438	1528.488159	3469.396484	2835.549316	67.342758
743.745300	1528.929443	3453.737305	2826.617188	67.419083
744.066101	1529.260132	3436.093750	2816.031006	67.482071
744.386902	1534.442871	3418.780762	2810.738037	67.731758
744.707581	1532.899048	3395.182617	2802.357422	68.166763
745.028198	1531.906616	3382.722168	2792.873779	68.130356
745.348816	1530.693726	3369.268555	2785.485596	68.248070
745.669373	1530.583374	3360.998535	2785.926758	68.582443
745.989929	1529.921753	3352.176758	2779.200195	68.556732
746.310364	1530.804077	3345.119141	2776.664063	68.668335
746.630798	1530.583496	3336.958740	2772.914795	68.774818
746.951172	1528.378052	3327.034180	2768.613770	68.953468
747.271545	1526.393066	3320.858887	2768.062500	69.194374
747.591858	1525.621216	3316.999268	2765.636475	69.221306
747.912109	1525.621216	3315.676025	2760.123047	68.964470
748.232300	1522.533569	3319.976563	2766.959961	69.233147
748.552429	1526.834229	3321.961426	2766.959961	69.082886
748.872559	1528.267822	3316.889160	2769.055176	69.371162
749.192627	1528.488403	3319.645752	2769.165527	69.266785
749.512695	1530.362915	3321.299805	2767.180420	69.059807
749.832642	1533.781494	3316.337891	2770.268066	69.365913
750.152588	1536.538208	3315.455322	2773.796875	69.551224
750.472473	1537.310181	3308.948975	2774.127686	69.812057
750.792358	1538.854126	3300.789551	2775.009766	70.158966
751.112122	1539.515747	3296.157715	2772.142578	70.169495
751.431824	1540.397827	3291.968018	2770.488770	70.227898
751.751587	1542.162109	3293.952393	2775.119873	70.382729
752.071228	1546.021606	3284.909912	2773.024902	70.562515
752.390869	1547.786133	3282.925537	2764.644043	70.130264
752.710327	1550.542847	3281.712402	2763.320801	70.055412
753.029846	1546.793579	3276.198730	2761.225586	70.222527
753.349304	1546.793579	3271.787598	2759.020264	70.274254
753.668762	1546.793579	3271.125732	2757.035156	70.186104
753.988098	1547.786011	3263.627197	2753.837158	70.289207
754.307434	1547.786011	3258.113770	2754.608887	70.560913
754.626770	1548.006470	3243.006348	2754.057617	71.153465
754.946045	1548.557861	3226.465820	2750.639160	71.641670
755.265259	1546.462646	3212.791748	2747.220947	72.060097
755.584351	1544.698242	3212.901855	2744.794922	71.939461
755.903442	1543.816162	3206.836670	2742.589355	72.084091
756.222534	1541.059204	3204.521484	2743.251221	72.270470
756.541565	1536.097046	3203.859863	2731.121338	71.654327
756.860535	1534.553223	3199.559082	2725.718018	71.541176
757.179443	1535.104614	3201.985107	2722.740479	71.249008
757.498291	1532.237549	3200.220703	2719.101563	71.155632
757.817139	1529.260254	3202.977295	2711.161865	70.615379
758.135925	1529.811523	3206.947510	2703.553223	69.984886
758.454651	1529.370483	3203.639160	2691.974365	69.439507
758.773376	1526.944580	3206.837158	2692.194824	69.364571
759.092041	1526.282959	3200.110596	2695.503174	69.853081
759.410645	1522.864502	3200.110596	2686.130127	69.355690
759.729187	1524.628784	3204.411133	2683.814453	69.008087
760.047607	1525.841797	3205.844971	2678.190674	68.592064
760.366089	1527.716431	3206.396240	2678.852051	68.573868
760.684509	1528.047119	3214.887207	2674.551514	67.967583
761.002869	1528.157471	3226.245117	2669.479004	67.212166
761.321228	1526.834229	3258.114258	2676.536377	66.407639
761.639465	1523.415771	3301.450928	2688.996826	65.554443
761.957642	1524.628784	3355.594971	2708.735596	64.671143
762.275879	1524.297974	3392.095215	2725.166260	64.293289
762.593994	1528.047241	3424.294678	2741.045654	63.968361
762.912109	1529.811646	3457.266357	2752.183350	63.418957
763.230103	1533.781494	3481.416016	2771.370605	63.543190
763.548157	1530.914429	3510.197266	2784.713623	63.346134
763.866150	1530.142578	3521.555176	2792.653320	63.397747
764.184021	1533.671265	3534.346680	2802.908691	63.440449
764.501892	1533.561157	3543.609863	2811.399658	63.572514
764.819702	1535.545898	3548.902832	2821.103516	63.851452
765.137451	1534.443115	3551.218262	2828.932617	64.186111
765.455200	1535.215088	3557.062988	2832.351318	64.155975
765.772888	1536.317749	3558.386230	2834.777344	64.214424
766.090515	1535.215088	3556.290527	2843.378418	64.726105
766.408081	1536.758789	3554.195313	2845.804443	64.886581
766.725586	1537.310181	3549.674805	2851.869385	65.324104
767.043091	1536.207397	3542.837891	2847.348145	65.340416
767.360535	1533.671143	3533.905518	2848.892090	65.753342
767.677917	1533.560791	3512.953613	2846.466064	66.328690
767.995239	1531.686157	3482.959473	2832.682373	66.674217
768.312500	1535.104614	3428.705322	2811.510254	67.406273
768.629822	1532.678711	3368.716797	2791.109863	68.540581
768.947021	1531.576050	3315.345703	2768.393799	69.337303
769.264160	1528.378174	3279.175537	2744.244141	69.446411
769.581299	1528.488281	3238.375000	2723.291992	69.876190
769.898376	1523.856812	3201.103027	2707.743652	70.585152
770.215393	1529.260132	3163.059082	2695.393311	71.375565
770.532349	1530.252563	3136.483643	2683.814697	71.817947
770.849304	1527.495850	3109.136230	2673.338623	72.446480
771.166199	1529.590942	3082.450195	2661.098877	72.866096
771.483032	1529.921753	3060.395264	2653.489746	73.413094
771.799866	1530.031982	3043.634033	2644.226807	73.612137
772.116577	1529.590942	3022.461670	2636.397461	74.139473
772.433350	1529.591064	3013.529541	2630.222168	74.169594
772.749939	1528.929443	2994.341797	2622.944092	74.655754
773.066589	1530.583374	2978.242188	2616.989258	75.045715
773.383057	1531.245117	2968.758545	2612.137207	75.191788
773.699646	1533.671021	2958.282959	2608.387695	75.439255
774.016113	1537.089478	2946.924561	2600.337891	75.416512
774.332520	1537.971680	2943.947266	2595.375488	75.207832
774.648804	1539.625610	2932.699463	2597.360352	75.928116
774.965149	1537.751099	2931.486328	2595.485840	75.892090
775.281433	1539.956543	2928.178223	2592.287842	75.804268
775.597656	1539.846313	2922.885010	2589.420654	75.889008
775.913879	1540.838867	2908.549561	2590.523193	76.747543
776.229980	1539.625854	2895.647949	2589.420654	77.417236
776.546082	1542.603149	2887.598145	2582.583740	77.322266
776.862122	1539.515503	2881.974121	2580.157959	77.517654
777.178162	1536.979248	2869.513428	2578.173096	78.136368
777.494141	1540.728516	2869.292725	2572.990234	77.697540
777.809998	1537.971680	2867.638672	2571.005615	77.691177
778.125854	1533.340332	2864.220215	2567.145996	77.678360
778.441711	1534.332642	2860.581299	2568.579346	77.982864
778.757446	1531.796509	2852.420898	2566.925293	78.381767
779.073181	1534.112183	2842.276123	2563.506836	78.690033
779.388855	1534.222412	2846.466309	2561.632324	78.294128
779.704468	1531.465576	2844.040283	2561.742432	78.492813
780.020020	1532.568359	2835.549561	2560.308838	78.876076
780.335571	1528.488403	2833.233887	2557.331299	78.853912
780.651062	1527.385620	2824.853271	2559.316162	79.534203
780.966553	1523.856934	2813.605225	2558.544678	80.224007
781.281860	1524.298096	2804.231934	2554.023438	80.451454
781.597290	1525.511108	2792.984131	2549.722900	80.807381
781.912476	1522.754272	2783.169922	2546.083984	81.189857
782.227722	1523.746704	2773.355713	2544.981201	81.724319
782.542908	1521.651611	2765.857178	2541.342285	81.955162
782.858093	1520.769409	2761.225586	2534.836426	81.749527
783.173218	1522.313232	2755.491455	2532.851563	81.945847
783.488281	1521.982422	2742.258789	2529.763672	82.586311
783.803345	1523.305664	2738.840332	2522.595703	82.209915
784.118225	1517.902100	2726.930908	2519.949219	82.880333
784.433167	1519.335693	2714.801025	2515.538330	83.331787
784.748047	1521.761719	2708.625732	2511.348145	83.378250
785.062866	1518.674072	2699.252441	2503.298096	83.401833
785.377686	1521.210327	2698.039551	2498.005127	83.002258
785.692444	1517.791870	2690.100098	2490.285645	82.955467
786.007141	1519.114990	2681.057861	2490.065186	83.562645
786.321716	1519.666504	2675.654297	2487.969971	83.764160
786.636353	1516.358276	2677.639160	2485.433838	83.448853
786.950928	1516.137695	2676.205566	2487.197998	83.707199
787.265442	1519.115112	2677.087891	2489.072510	83.763405
787.579834	1520.659058	2684.365967	2487.308105	83.066368
787.894226	1519.776978	2687.784424	2484.771973	82.618904
788.208618	1517.681885	2688.776611	2487.969971	82.853081
788.522949	1519.887207	2689.327881	2481.243408	82.206497
788.837219	1519.556396	2690.871582	2476.280762	81.679497
789.151367	1519.887329	2689.438232	2472.752441	81.472733
789.465515	1520.218140	2688.004639	2473.965576	81.671387
789.779602	1521.100220	2684.806641	2472.091064	81.720856
790.093689	1523.967407	2684.475830	2468.341797	81.375916
790.407776	1522.644043	2679.623779	2465.033203	81.452522
790.721741	1523.636475	2679.403076	2461.063477	81.108681
791.035645	1523.415771	2679.072266	2462.497070	81.259552
791.349548	1525.510986	2671.573730	2457.755615	81.343246
791.663391	1529.921875	2665.619141	2452.682861	81.250610
791.977173	1531.134888	2654.701904	2448.051514	81.607651
792.290894	1533.560791	2648.195801	2449.815918	82.202255
792.604614	1532.899170	2638.381592	2442.979248	82.324249
792.918274	1532.127319	2627.244141	2436.362793	82.569771
793.231812	1534.112305	2614.783447	2428.864502	82.795975
793.545410	1535.876587	2603.315186	2418.939697	82.727295
793.858948	1531.796387	2591.957275	2413.646729	83.180801
794.172363	1531.575928	2579.827148	2410.228271	83.820778
794.485840	1531.906738	2572.990234	2402.398926	83.614059
794.799194	1533.009521	2566.925293	2398.428955	83.703087
795.112488	1534.442871	2563.065674	2402.288574	84.369675
795.425781	1536.427856	2558.434326	2402.729492	84.764793
795.738953	1536.538086	2551.928223	2403.060547	85.338867
796.052185	1540.177124	2545.752930	2400.193359	85.524757
796.365234	1536.868896	2541.672852	2396.774658	85.579453
796.678284	1533.671143	2542.995850	2393.576904	85.196144
796.991333	1533.671021	2542.113770	2394.238037	85.336227
797.304382	1533.009521	2535.828369	2393.466553	85.803833
797.617310	1534.553345	2533.402588	2390.489014	85.692177
797.930115	1532.678711	2533.733154	2389.827637	85.624603
798.242981	1527.054810	2533.402588	2389.055664	85.656357
798.555786	1524.849365	2534.505127	2387.180908	85.408470
798.868530	1521.430908	2532.189697	2383.541992	85.293457
799.181213	1523.084961	2532.300293	2377.918213	84.702759
799.493896	1520.879517	2529.984619	2374.279053	84.569939
799.806519	1518.343262	2528.661377	2373.837891	84.675766
800.119080	1519.004883	2524.360596	2370.970703	84.742722
800.431580	1520.989868	2521.603516	2363.472168	84.196564
800.744080	1523.526123	2519.287842	2359.171387	83.920204
801.056458	1525.180298	2511.678955	2358.399902	84.462318
801.368835	1527.716309	2504.952393	2354.319824	84.585854
801.681152	1525.731567	2493.814697	2345.498047	84.679344
801.993408	1522.423218	2482.677002	2335.132324	84.634827
802.305664	1521.982178	2479.148193	2330.391113	84.458595
802.617798	1516.909668	2470.877930	2325.759277	84.787895
802.929993	1518.673950	2462.607422	2319.694092	84.859810
803.242065	1518.012329	2452.241943	2316.385986	85.457970
803.554016	1519.886963	2452.241699	2312.195801	84.979332
803.865967	1521.541138	2451.249512	2309.218506	84.723061
804.177979	1520.438477	2448.823730	2306.902832	84.713142
804.489807	1519.887207	2439.670898	2305.910400	85.457397
804.801697	1522.202881	2436.583252	2306.682129	85.793533
805.113464	1522.974854	2436.031738	2304.366455	85.579727
805.425232	1525.952148	2434.598145	2299.624512	85.145630
805.736938	1523.526123	2427.981689	2302.050537	86.076576
806.048584	1525.400879	2424.673584	2301.940430	86.351952
806.360168	1529.150146	2425.004395	2303.374023	86.422974
806.671753	1527.937134	2423.239990	2308.777344	87.215202
806.983276	1526.172729	2419.160156	2308.667236	87.626602
807.294739	1525.290405	2412.654053	2306.792480	88.070099
807.606140	1521.431030	2407.360840	2305.248779	88.474022
807.917542	1521.541260	2403.611816	2301.058105	88.373528
808.228760	1522.864624	2400.524170	2300.396484	88.591515
808.540100	1523.526245	2402.068115	2296.537109	87.987938
808.851318	1523.967407	2397.877686	2291.685059	87.848564
809.162476	1525.952148	2394.900146	2291.685059	88.121834
809.473633	1524.849487	2395.230957	2290.912842	88.014664
809.784668	1525.731689	2395.010498	2286.722656	87.542793
810.095703	1526.503540	2388.614502	2284.958252	87.976463
810.406738	1527.165161	2381.226074	2279.775635	88.121407
810.717590	1526.282959	2371.742676	2278.011230	88.913551
811.028503	1521.761841	2368.103760	2272.387451	88.690590
811.339294	1521.761841	2361.046387	2269.520264	89.094742
811.650085	1522.423462	2352.776123	2263.565674	89.256317
811.960876	1523.085083	2351.121826	2261.359863	89.159668
812.271545	1523.415894	2351.232178	2261.249756	89.130142
812.582153	1522.202881	2341.197266	2257.941650	89.834412
812.892761	1516.689209	2333.809326	2248.458252	89.554649
813.203308	1519.556396	2328.626221	2242.613770	89.368973
813.513855	1520.218018	2325.428467	2237.541016	89.085159
813.824280	1516.248291	2323.884766	2234.012451	88.872185
814.134705	1519.446045	2318.701904	2228.057861	88.658943
814.445068	1518.233032	2317.819580	2226.072754	88.525719
814.755371	1517.350952	2321.458740	2219.125488	87.273689
815.065613	1516.689209	2320.466064	2222.323730	87.789856
815.375854	1513.932373	2315.172852	2223.095703	88.508179
815.686035	1514.263184	2316.496094	2216.038086	87.477699
815.996155	1515.255737	2312.085205	2215.927734	87.932487
816.306152	1518.674194	2304.807373	2215.486816	88.637985
816.616211	1516.579102	2302.822266	2212.399170	88.499344
816.926208	1518.674316	2306.020508	2215.045654	88.445381
817.236145	1520.659058	2308.997803	2214.273682	87.984337
817.546021	1525.841797	2317.157959	2219.125488	87.611465
817.855774	1526.503540	2324.105225	2218.684326	86.782761
818.165588	1525.400879	2339.763916	2230.262939	86.553787
818.475281	1524.629028	2349.908936	2236.438721	86.250702
818.784973	1525.290527	2366.339600	2241.731445	85.184196
819.094604	1526.062500	2396.885010	2253.420166	83.525360
819.404175	1527.275513	2419.821533	2268.196777	83.012108
819.713684	1526.172729	2456.762939	2286.061035	81.656601
820.023254	1524.298096	2534.284180	2319.252930	78.709480
820.332642	1524.187866	2684.475342	2379.572266	73.721764
820.642090	1523.636475	2922.443848	2487.969971	68.939690
820.951416	1522.974854	3194.376465	2620.517578	65.666008
821.260681	1523.967285	3454.178467	2764.313232	64.259598
821.569946	1525.400879	3665.019775	2881.202393	63.366497
821.879150	1529.150024	3838.809082	2977.690918	62.716652
822.188293	1528.929443	3977.311768	3060.836182	62.568119
822.497437	1528.708862	4100.045410	3127.551025	62.179424
822.806458	1526.613647	4208.553711	3178.497070	61.592857
823.115479	1529.480835	4293.243164	3227.016846	61.421204
823.424438	1529.370483	4370.543945	3265.832520	61.117779
823.733337	1527.165039	4440.566895	3300.458252	60.866756
824.042236	1525.952148	4501.988770	3327.475342	60.534309
824.351013	1526.944458	4551.832031	3355.926025	60.464447
824.659790	1526.944458	4587.119141	3378.972900	60.520348
824.968445	1522.202881	4637.402832	3400.696777	60.300911
825.277100	1523.195313	4701.140625	3423.853760	59.807777
825.585693	1521.871826	4773.699707	3459.141357	59.574787
825.894287	1523.084961	4851.772949	3502.698730	59.471291
826.202820	1521.100098	4899.300781	3529.053955	59.438560
826.511292	1524.959595	4891.250977	3538.647705	59.819183
826.819702	1528.488281	4792.556641	3509.976563	60.706089
827.128113	1529.260376	4605.093750	3429.146484	61.768173
827.436401	1532.678711	4370.654297	3316.117188	62.841923
827.744751	1533.230103	4138.199707	3195.368652	63.806442
828.052917	1533.340210	3952.059082	3091.602051	64.425095
828.361145	1528.819092	3805.065918	3006.030518	64.896805
828.669312	1527.054688	3683.545410	2934.463623	65.263855
828.977356	1525.400635	3573.272705	2877.122070	66.006149
829.285400	1525.841675	3477.335938	2832.902832	66.977455
829.593384	1523.856812	3398.711426	2789.234619	67.492050
829.901306	1522.312988	3322.182373	2749.095703	68.159538
830.209167	1524.849243	3253.482178	2715.352051	68.869614
830.517029	1525.731323	3192.501465	2683.593262	69.467407
830.824829	1524.518311	3135.821533	2652.937988	70.031494
831.132568	1527.606079	3096.564453	2624.376953	69.904396
831.440247	1530.252563	3047.713623	2602.984375	70.692543
831.747925	1528.157471	2990.372070	2582.473633	72.104065
832.055481	1528.488159	2934.133301	2553.802979	72.942650
832.363037	1530.693604	2880.430176	2524.911377	73.660133
832.670532	1532.678589	2841.614502	2506.716797	74.414505
832.977966	1532.568359	2810.517578	2485.985352	74.605232
833.285400	1533.009521	2791.440674	2474.848145	74.842285
833.592712	1533.009399	2771.150391	2467.680176	75.489853
833.900085	1531.355347	2757.917725	2460.622803	75.761940
834.207275	1529.811523	2743.692627	2452.241699	75.990158
834.514526	1529.811523	2728.254395	2446.507813	76.490616
834.821716	1531.465576	2712.705811	2440.994141	76.997765
835.128784	1532.678711	2701.347900	2437.244629	77.401367
835.435852	1535.986816	2698.260254	2430.407471	76.954407
835.742798	1532.568359	2687.894531	2423.570801	77.121292
836.049805	1535.545776	2679.734131	2418.718750	77.187729
836.356750	1536.207520	2666.501465	2415.741699	77.814644
836.663574	1530.031982	2653.048096	2410.668945	78.417130
836.970398	1527.495850	2640.036133	2410.448242	79.363632
837.277161	1529.039673	2629.339355	2406.478760	79.745461
837.583923	1527.385498	2611.916504	2403.170654	80.752434
837.890564	1527.937012	2592.287842	2390.599365	81.050568
838.197205	1528.267822	2561.301270	2381.998291	82.643059
838.503784	1532.237671	2521.272217	2362.148926	83.911247
838.810303	1530.693970	2469.223633	2340.094482	86.241333
839.116699	1530.252808	2421.255127	2311.313477	87.660904
839.423096	1531.024658	2384.203613	2290.141113	88.975060
839.729492	1529.591064	2343.182373	2266.211914	90.539421
840.035828	1528.929443	2307.123535	2250.112061	92.673874
840.342102	1526.723999	2272.056641	2231.917236	94.614563
840.648315	1525.952148	2245.150391	2217.251221	96.120796
840.954529	1526.613892	2223.205811	2204.679932	97.340500
841.260620	1527.606201	2202.033203	2195.527344	99.035347
841.566711	1527.385620	2181.963867	2185.051270	100.471664
841.872803	1526.944458	2162.004395	2177.773193	102.483040
842.178772	1525.731445	2151.308105	2170.605713	103.084770
842.484680	1522.974609	2137.193115	2166.635742	104.793510
842.790588	1521.872070	2127.158203	2160.240234	105.465523
843.096436	1525.841675	2118.667236	2150.535889	105.375725
843.402222	1526.944458	2110.837891	2141.493652	105.250229
843.707947	1523.415771	2102.346924	2138.847168	106.304764
844.013611	1522.423218	2091.429932	2130.687012	106.899231
844.319275	1526.172485	2078.527832	2129.694580	109.263374
844.624817	1527.936890	2068.162598	2117.012939	109.042580
844.930359	1527.826538	2049.857422	2109.735107	111.470139
845.235901	1526.613647	2036.955566	2096.943359	111.754433
845.541321	1525.841797	2020.855713	2091.429932	114.257019
845.846680	1525.510864	2005.638062	2079.961426	115.479935
846.152039	1528.047119	1993.287598	2075.550537	117.681808
846.457275	1528.378052	1981.929443	2062.648682	117.797157
846.762512	1530.032104	1968.806885	2059.891846	120.758934
847.067749	1533.891602	1959.543945	2052.614014	121.865280
847.372925	1534.332764	1948.736938	2047.100220	123.736076
847.677979	1535.325317	1941.789795	2039.491455	124.036949
847.983032	1537.861572	1936.937866	2032.103394	123.846451
848.288025	1535.656006	1930.211548	2027.140991	124.566742
848.592957	1541.390259	1925.138916	2025.266357	126.091934
848.897888	1539.956665	1923.926025	2021.186157	125.330177
849.202759	1540.618286	1920.617798	2016.995728	125.362648
849.507507	1541.831299	1917.199463	2016.334106	126.409973
849.812317	1539.295044	1913.560303	2014.018433	126.841423
850.117004	1541.169678	1907.936401	2009.607544	127.720932
850.421631	1541.941650	1902.863892	2008.725464	129.330856
850.726257	1541.390137	1901.540527	2007.622559	129.454926
851.030823	1540.397827	1898.673584	2004.314331	129.485870
851.335327	1539.736084	1893.821411	2000.565430	130.146408
851.639771	1540.177246	1885.881836	1998.470459	132.567871
851.944153	1540.177124	1881.470825	1992.626099	132.568802
852.248535	1538.964233	1874.854492	1994.941772	135.751938
852.552856	1535.325317	1873.641602	1986.450684	133.344269
852.857056	1534.663696	1873.089844	1985.899170	133.333511
853.161255	1537.861572	1875.515991	1983.693604	132.037964
853.465393	1536.317749	1874.192505	1983.473022	132.343506
853.769531	1532.568359	1873.310669	1984.355103	132.588974
854.073547	1527.165039	1870.884644	1984.575562	133.076645
854.377563	1524.408203	1868.458496	1984.465454	133.718018
854.681580	1520.548828	1865.150269	1984.465454	134.624115
854.985474	1517.681519	1855.446411	1984.686035	138.263184
855.289307	1517.571289	1853.020264	1986.670898	139.842316
855.593140	1517.791870	1852.910156	1987.552979	140.177704
855.896851	1516.137817	1852.469116	1986.450317	139.836075
856.200623	1517.902100	1850.153687	1985.127075	140.623856
856.504272	1518.453613	1852.800049	1986.781250	140.072571
856.807922	1515.917358	1854.454102	1984.906860	138.534302
857.111389	1513.711914	1852.579468	1981.598389	138.073547
857.414978	1516.248169	1844.419312	1982.039673	141.935547
857.718445	1516.358398	1844.419434	1980.385376	141.445313
858.021790	1517.350952	1843.978394	1978.841309	141.289520
858.325195	1517.681763	1841.993530	1983.472900	143.624496
858.628479	1515.917358	1841.000977	1982.480225	143.520874
858.931763	1516.468750	1837.141357	1988.876343	147.317719
859.234985	1515.476318	1831.297119	1988.655884	149.825333
859.538147	1512.609131	1827.547607	1987.001831	150.630280
859.841248	1511.065308	1827.988647	1987.333008	150.278519
860.144287	1514.924927	1826.996094	1987.332764	151.378235
860.447266	1520.989990	1828.098755	1986.671143	151.633957
860.750305	1525.180298	1825.121460	1989.538086	154.816299
861.053223	1529.150146	1825.011353	1990.530518	155.944870
861.356018	1530.804199	1831.076294	1988.104492	152.295303
861.658813	1531.245239	1826.555054	1988.104370	154.705032
861.961609	1528.378296	1823.247070	1989.317749	156.320206
862.264343	1529.370605	1821.813599	1991.082031	157.880829
862.567017	1529.701416	1819.718384	1993.618164	159.961929
862.869629	1529.480957	1819.608032	1991.082031	159.103073
863.172180	1532.017212	1819.497803	1991.964233	159.992371
863.474670	1527.385742	1816.961304	1993.287231	160.891159
863.777161	1522.643921	1821.151733	1995.051880	158.256485
864.079590	1521.541138	1821.151733	1996.264648	158.446838
864.381958	1521.982300	1821.703369	1994.059204	157.505417
864.684265	1520.107666	1823.688110	1992.074219	155.466721
864.986511	1518.784302	1824.680420	1989.317505	153.821243
865.288757	1520.217896	1824.901001	1984.355225	152.334442
865.590942	1520.438477	1827.106445	1987.994385	152.463242
865.893066	1519.556396	1829.532593	1988.435425	151.262909
866.195068	1517.791992	1828.429932	1985.016968	150.408218
866.497131	1518.894775	1829.311890	1980.054688	148.561371
866.799133	1514.263062	1824.459961	1979.944336	150.124420
867.100952	1509.852295	1821.703125	1981.267700	151.166962
867.402832	1512.939819	1822.364746	1979.061890	150.641403
867.704651	1513.491211	1821.372192	1981.929077	152.149017
868.006409	1515.696533	1822.364624	1976.966919	150.413559
868.308105	1519.335571	1826.775635	1975.974365	148.529373
868.609802	1517.681519	1830.524902	1978.951660	147.444427
868.911438	1515.696655	1832.620361	1976.635986	145.441727
869.213013	1517.571411	1829.863281	1977.518188	147.281067
869.514465	1518.343384	1829.311768	1977.077148	147.517822
869.815979	1522.423340	1833.281616	1973.548584	145.122482
870.117371	1526.834351	1834.825562	1970.571289	144.074539
870.418701	1529.370605	1835.487183	1971.232666	144.344376
870.720093	1530.914429	1839.015991	1971.343018	142.949158
871.021301	1533.671265	1839.787964	1971.342773	142.975372
871.322571	1535.656128	1838.133911	1972.004517	144.257996
871.623718	1534.553467	1840.339233	1976.525879	144.536621
871.924805	1534.222656	1845.191406	1971.563599	140.638229
872.225891	1536.207397	1847.837769	1970.130249	139.242798
872.526917	1541.279907	1846.845459	1973.217773	141.356857
872.827881	1541.831299	1848.389282	1976.636108	141.834442
873.128784	1544.808594	1851.476807	1976.194946	140.668747
873.429626	1546.462646	1858.203491	1971.012085	136.186661
873.730408	1542.603149	1858.313599	1970.240112	135.452271
874.031189	1541.279907	1857.651978	1971.563477	136.005554
874.331848	1539.956543	1858.534180	1970.240112	135.063965
874.632568	1537.530640	1857.431396	1971.894165	135.780716
874.933167	1537.640869	1854.123169	1971.563477	137.108017
875.233704	1539.956665	1853.130737	1970.019775	137.323990
875.534241	1538.082031	1853.902710	1971.343018	137.185760
875.834717	1537.751221	1853.351318	1971.343018	137.386459
876.135071	1536.427979	1851.256104	1972.445679	138.493881
876.435425	1533.450684	1851.035767	1976.194946	139.409653
876.735779	1531.355469	1852.579468	1977.849121	138.997604
877.036011	1528.488403	1853.240845	1980.054688	139.049393
877.336182	1526.172729	1851.586914	1979.834106	139.410446
877.636353	1526.944580	1856.659424	1984.355225	138.729156
877.936462	1525.841797	1863.276001	1987.883911	136.928055
878.236511	1527.937012	1868.348633	1993.176880	136.669800
878.536560	1527.165161	1875.295776	2001.006348	136.110168
878.836487	1523.415771	1889.961914	2007.402100	132.039673
879.136414	1521.431030	1918.963745	2019.091187	125.187218
879.436279	1522.313232	1970.460938	2041.917603	115.944893
879.736084	1522.313110	2053.055176	2084.813721	105.983803
880.035828	1522.864502	2156.711426	2137.193359	96.920700
880.335510	1523.967285	2274.923584	2197.402100	89.676964
880.635193	1523.305664	2391.922607	2261.801270	85.019707
880.934753	1524.518555	2499.879639	2315.834717	81.130585
881.234314	1524.959717	2592.508545	2360.825928	78.297707
881.533752	1523.415771	2675.213135	2407.801758	76.783119
881.833252	1523.085083	2748.654541	2442.868408	75.049469
882.132629	1521.320679	2812.833252	2478.155762	74.086395
882.431946	1519.776855	2872.160156	2512.119629	73.377335
882.731323	1522.864502	2918.805176	2536.710449	72.628151
883.030579	1526.613647	2956.518555	2560.198486	72.283470
883.329712	1526.723877	2991.364746	2581.260742	71.999687
883.628845	1526.282837	3021.027832	2595.816895	71.552948
883.927979	1529.480713	3040.325439	2606.292725	71.272186
884.226990	1530.693604	3058.410156	2614.342529	70.932587
884.526001	1530.803833	3066.460205	2620.848633	70.982338
884.824951	1530.142212	3073.297119	2625.149414	70.958992
885.123840	1530.473145	3074.620361	2628.126709	71.084778
885.422729	1530.473145	3053.227539	2618.643311	71.460648
885.721497	1530.914307	3009.008301	2601.220215	72.411224
886.020203	1532.899292	2928.619141	2561.852783	73.722061
886.318909	1532.678711	2828.602051	2511.899414	75.561623
886.617554	1529.149902	2714.249512	2450.146729	77.714722
886.916138	1528.047241	2597.140137	2390.048096	80.629181
887.214661	1524.408203	2491.829590	2336.124756	83.905167
887.513184	1524.518677	2402.067871	2288.928223	87.107315
887.811523	1527.495850	2321.127686	2246.583496	90.607208
888.109924	1514.483765	2151.307861	2169.833740	102.909103
888.408264	1528.378052	2035.521729	2042.468872	101.369858
888.706543	1546.903931	1977.628662	2086.467773	125.268829
889.004761	1565.429688	1931.314087	1991.522949	116.455704
889.302979	1509.852295	1919.735474	2021.627319	124.858749
889.601135	1470.484985	1905.841187	2019.311646	126.063820
889.899170	1489.010742	1859.526611	2012.364502	141.250031
890.197205	1468.169312	1882.683960	2012.364502	131.284912
890.495178	1528.378052	1875.736694	2000.785889	136.000031
890.793091	1560.798218	1901.209717	2014.680176	133.333328
>>>>>End Processed Spectral Data<<<<<
