Jaz Data File
++++++++++++++++++++++++++++++++++++
Date: Fri Jun 21 03:11:02 2019
User: jaz
Dark Spectrum Present: Yes
Reference Spectrum Present: Yes
Processed Spectrum Present: Yes
Spectrometers: JAZA3541
Integration Time (usec): 119000 (JAZA3541)
Spectra Averaged: 1 (JAZA3541)
Boxcar Smoothing: 10 (JAZA3541)
Correct for Electrical Dark: No (JAZA3541)
Strobe/Lamp Enabled: Yes (JAZA3541)
Correct for Detector Non-linearity: No (JAZA3541)
Correct for Stray Light: No (JAZA3541)
Number of Pixels in Processed Spectrum: 2048
>>>>>Begin Processed Spectral Data<<<<<
W	D	R	S	P
190.543274	0.000000	0.000000	0.000000	0.000000
190.921555	0.000000	0.000000	0.000000	0.000000
191.299805	1558.482544	1405.644653	1692.794556	-87.878738
191.678024	1533.009521	1440.380615	1778.476318	-265.000214
192.056229	1539.956665	1535.325317	1764.582031	-4850.107910
192.434387	1519.115234	1551.535278	1766.897705	764.287903
192.812531	1604.796997	1597.849854	1711.320313	-1533.339722
193.190659	1556.166748	1542.272461	1762.266235	-1483.339722
193.568741	1623.322754	1530.693848	1810.896484	-202.500214
193.946793	0.000000	0.000000	0.000000	0.000000
194.324829	1410.165894	1403.770142	1589.579468	-2805.198975
194.702835	1483.938232	1477.322021	1673.607178	-2866.730713
195.080811	1555.725708	1551.645752	1756.973267	-4932.591309
195.458755	1552.307251	1560.467407	1757.745117	2517.572754
195.836685	1553.520386	1565.540039	1756.862915	1691.750366
196.214569	1554.953857	1568.627808	1756.531982	1474.176270
196.592422	1551.425171	1571.164063	1755.981079	1036.308960
196.970261	1549.219727	1570.833130	1756.091309	957.144897
197.348068	1548.999146	1571.274170	1759.289063	944.061462
197.725861	1545.690796	1573.810425	1757.083496	751.762085
198.103622	1539.625854	1573.589844	1758.737549	645.129456
198.481323	1540.287598	1569.399536	1756.642456	743.182617
198.859039	1539.846436	1568.958374	1752.893066	731.818787
199.236694	1536.758789	1568.296631	1753.885376	688.463684
199.614334	1539.295166	1566.201660	1753.665161	796.722107
199.991959	1540.728760	1571.604858	1753.554688	689.290222
200.369553	1537.751465	1570.502075	1754.106079	660.612488
200.747101	1536.759033	1571.935669	1752.010742	611.916687
201.124619	1535.215210	1570.502197	1751.790405	613.753723
201.502136	1531.796631	1571.274048	1747.710205	546.929321
201.879623	1529.922119	1568.517334	1749.254150	568.288147
202.257065	1525.621216	1569.730225	1746.938232	501.750153
202.634476	1525.621216	1573.589600	1747.379272	462.300446
203.011871	1524.187744	1573.258911	1748.261719	456.630615
203.389221	1524.408203	1571.715088	1748.702515	474.126160
203.766571	1523.415649	1570.722656	1748.482178	475.757294
204.143875	1523.305542	1567.635010	1750.467041	512.439026
204.521164	1526.613770	1564.878296	1748.482178	579.827942
204.898392	1524.408203	1563.444702	1749.915771	577.683899
205.275620	1523.856812	1563.665405	1750.687866	569.804260
205.652817	1524.297852	1562.783081	1753.334473	595.128662
206.029984	1529.370483	1566.422241	1754.877930	608.628174
206.407135	1528.378052	1568.848267	1754.547119	558.853149
206.784225	1530.473389	1569.950928	1756.862671	573.463501
207.161301	1530.252808	1570.281616	1754.988037	561.433716
207.538376	1528.929443	1571.274170	1755.870483	535.936951
207.915405	1529.260376	1568.517456	1754.436890	573.594666
208.292404	1529.480835	1568.737671	1754.547241	573.317749
208.669373	1525.952148	1570.833008	1756.091187	512.777710
209.046310	1524.628784	1571.053589	1753.885620	493.824005
209.423218	1528.267822	1569.509644	1754.767822	549.199829
209.800095	1530.032227	1570.612549	1751.900635	546.738892
210.176956	1530.032227	1570.833130	1750.908081	541.350403
210.553787	1531.686279	1566.201660	1748.151367	627.155457
210.930603	1535.435425	1566.091553	1744.622559	682.366455
211.307358	1536.648438	1565.760620	1743.961182	712.116821
211.684113	1538.412842	1570.391968	1745.394531	647.239990
212.060837	1534.773804	1573.920776	1746.607300	541.123596
212.437531	1533.340210	1574.802856	1750.466919	523.668213
212.814178	1532.458130	1578.772705	1752.231445	474.523010
213.190826	1532.788940	1580.426758	1749.474487	454.860352
213.567413	1530.914307	1580.095947	1745.614990	436.546417
213.943985	1528.267822	1576.015869	1742.086304	447.805725
214.320541	1528.488281	1577.669800	1744.071045	438.341003
214.697052	1527.716431	1577.228760	1744.843018	438.530334
215.073563	1529.591064	1581.198486	1745.725220	418.804413
215.449997	1529.921875	1582.852661	1744.181519	404.792114
215.826431	1528.708862	1588.586670	1743.519897	358.748993
216.202850	1529.370483	1590.792236	1741.645264	345.601959
216.579224	1533.119751	1588.807495	1739.439941	370.494781
216.955582	1533.560791	1588.586914	1742.307129	379.358612
217.331894	1531.135010	1586.932861	1742.527710	378.854553
217.708191	1532.017090	1588.035400	1746.387085	382.678436
218.084442	1537.420532	1591.674438	1753.995850	399.188446
218.460678	1534.443115	1598.180420	1758.075928	350.866455
218.836899	1532.678711	1603.694214	1761.604736	322.360626
219.213074	1532.127563	1606.892090	1764.030640	310.177948
219.589233	1531.024658	1605.348389	1765.023071	314.836731
219.965347	1533.891846	1609.869385	1763.258545	301.887512
220.341431	1535.987061	1615.713867	1762.265991	283.817871
220.717499	1535.435669	1614.721558	1763.809937	288.038971
221.093552	1534.002075	1619.242554	1759.729858	264.812897
221.469543	1535.104858	1625.197510	1759.178711	248.714905
221.845535	1536.207642	1630.380249	1757.304077	234.777863
222.221466	1537.310303	1634.350098	1755.318970	224.659042
222.597397	1535.435547	1642.069214	1754.546875	205.480438
222.973297	1537.420532	1647.362183	1753.885376	196.890656
223.349167	1536.979492	1655.853271	1755.429321	183.766205
223.725006	1537.530640	1662.359375	1761.494629	179.417007
224.100800	1538.082153	1671.952881	1764.030640	168.781097
224.476578	1538.854004	1682.097900	1768.220947	160.123367
224.852325	1537.971680	1701.726563	1770.536621	142.020157
225.228058	1541.279907	1724.332397	1778.145508	129.397644
225.603760	1540.838867	1750.246460	1775.829590	112.216904
225.979416	1536.317749	1779.248169	1775.719482	98.547447
226.355057	1535.325195	1813.322388	1777.925171	87.267059
226.730652	1533.671143	1852.028076	1780.020142	77.381386
227.106232	1534.773926	1886.543335	1781.894775	70.250809
227.481796	1531.575928	1920.286865	1784.210327	64.992874
227.857315	1528.378052	1946.972900	1785.313232	61.380398
228.232788	1528.819214	1971.673950	1785.423584	57.943237
228.608246	1531.465698	1999.903687	1784.982300	54.119564
228.983704	1534.112305	2022.950684	1789.834229	52.312160
229.359100	1531.575928	2040.263428	1792.260254	51.246456
229.734482	1528.378052	2061.546143	1795.568604	50.113754
230.109833	1529.039795	2075.881592	1800.310303	49.606762
230.485153	1528.488403	2087.349609	1801.633545	48.875309
230.860443	1521.541260	2101.575195	1808.911499	49.543694
231.235703	1520.879517	2121.534668	1809.573242	48.063141
231.610931	1519.225464	2137.523926	1808.911621	46.852154
231.986145	1517.240479	2152.079834	1811.778687	46.395706
232.361313	1516.468506	2165.532959	1813.101929	45.701691
232.736465	1519.115112	2169.833984	1814.204590	45.348228
233.111572	1517.571289	2172.921387	1813.763550	45.196033
233.486664	1518.894653	2171.708252	1816.740845	45.624996
233.861725	1517.350586	2169.944092	1816.409912	45.826279
234.236755	1520.107422	2156.931885	1820.159424	47.116909
234.611771	1522.313110	2138.516357	1821.923950	48.622082
234.986740	1523.415771	2132.671875	1825.342285	49.556583
235.361679	1526.062256	2128.922607	1821.923706	49.076283
235.736588	1526.393188	2124.952881	1821.372437	49.281509
236.111496	1527.936890	2122.196045	1822.364990	49.545403
236.486343	1528.819092	2122.857666	1823.908813	49.675179
236.861160	1527.716309	2128.371582	1827.878540	49.972462
237.235962	1529.370483	2138.626465	1832.179321	49.701412
237.610733	1532.016968	2152.962158	1836.148804	48.978855
237.985474	1532.016968	2177.111572	1841.772705	48.017101
238.360199	1533.009521	2207.988037	1848.278809	46.708046
238.734879	1534.994385	2240.628662	1853.241089	45.100800
239.109543	1532.347900	2281.539551	1863.496460	44.200779
239.484177	1533.450562	2334.360352	1872.759155	42.365395
239.858749	1535.325195	2397.105469	1878.272827	39.795254
240.233322	1530.804199	2464.923096	1884.448120	37.858555
240.607864	1528.709106	2528.660889	1895.365356	36.667393
240.982391	1529.370728	2583.025391	1899.224731	35.102013
241.356857	1527.826904	2627.685547	1904.848389	34.279087
241.731308	1533.340454	2665.288574	1908.818481	33.170956
242.105728	1529.150024	2699.583252	1906.612915	32.249844
242.480118	1528.708984	2736.414307	1908.377197	31.437157
242.854492	1529.480957	2770.378418	1912.677856	30.880625
243.228836	1527.606323	2818.898193	1921.500000	30.503845
243.603134	1531.245361	2883.187256	1933.629883	29.763449
243.977402	1529.150146	2971.956787	1952.265991	29.325888
244.351654	1526.724121	3079.692871	1972.335571	28.694168
244.725861	1527.495972	3195.809814	1986.671143	27.523310
245.100067	1529.260376	3309.391113	2002.439941	26.581169
245.474213	1530.693970	3406.872070	2017.988525	25.972723
245.848343	1529.150146	3476.453857	2022.399170	25.329845
246.222443	1528.378174	3532.362061	2032.213501	25.141685
246.596512	1530.252808	3565.884766	2036.844849	24.886229
246.970566	1530.804077	3581.543457	2038.939941	24.778179
247.344574	1531.134888	3573.714355	2040.704224	24.947344
247.718567	1528.157471	3552.431641	2040.042725	25.287348
248.092529	1533.561035	3529.936035	2043.681763	25.552349
248.466431	1533.891724	3510.307617	2041.697021	25.693241
248.840332	1534.002197	3506.668945	2043.571655	25.831503
249.214203	1533.891846	3516.923828	2047.431030	25.896667
249.588043	1529.811768	3538.868408	2057.465820	26.263771
249.961838	1525.952148	3566.656982	2063.641113	26.348198
250.335617	1524.629028	3592.460938	2069.595703	26.354494
250.709381	1522.423584	3603.377930	2073.565430	26.485052
251.083084	1521.320801	3591.468262	2075.550293	26.772465
251.456787	1521.982422	3561.474365	2069.044189	26.823433
251.830460	1521.762085	3509.425293	2057.465332	26.951408
252.204071	1522.203125	3429.367188	2041.145264	27.210146
252.577667	1521.761963	3337.069092	2031.992798	28.107136
252.951248	1521.541260	3250.725830	2016.775513	28.639757
253.324799	1517.020142	3177.835449	2004.866089	29.373882
253.698303	1516.248169	3130.969482	2003.101807	30.150938
254.071793	1518.233032	3092.374268	1993.177124	30.171631
254.445236	1520.769287	3078.479736	1989.758545	30.107601
254.818665	1521.541260	3072.855957	1991.853760	30.317028
255.192062	1521.320801	3089.396729	1988.104370	29.767920
255.565430	1525.511108	3120.272949	1994.169434	29.387356
255.938782	1522.092651	3155.891113	1993.948853	28.880930
256.312103	1523.636475	3214.445801	2001.888428	28.285387
256.685364	1522.202881	3288.438721	2014.790771	27.889135
257.058594	1520.107666	3374.341064	2027.141357	27.344654
257.431793	1523.195435	3472.593750	2038.609619	26.439655
257.804993	1527.716431	3583.969238	2057.907471	25.784330
258.178162	1529.150024	3682.222412	2074.117432	25.311153
258.551270	1530.032227	3768.455322	2082.608154	24.685947
258.924377	1529.370483	3840.132080	2093.083984	24.395138
259.297485	1525.290405	3899.569580	2103.559814	24.355576
259.670502	1529.149780	3942.906982	2109.735352	24.053186
260.043518	1533.891602	3992.750732	2116.902832	23.710640
260.416473	1530.362793	4040.167725	2118.777588	23.444643
260.789459	1527.606079	4078.542725	2130.245850	23.624256
261.162354	1530.803955	4110.521484	2137.523926	23.518852
261.535278	1529.149902	4134.229980	2143.037354	23.565012
261.908142	1529.370483	4159.372070	2149.654053	23.584913
262.280975	1526.613647	4174.479004	2155.608643	23.754797
262.653717	1530.583374	4190.909668	2157.042236	23.548197
263.026520	1530.914307	4200.062012	2164.871582	23.751301
263.399261	1525.952148	4207.781250	2165.974365	23.865137
263.771973	1526.834351	4219.911133	2172.370117	23.970196
264.144653	1523.084961	4213.735840	2170.826172	24.073774
264.517334	1525.290405	4186.388184	2165.753662	24.067635
264.889954	1525.952148	4137.316406	2160.239746	24.289511
265.262543	1526.393188	4074.020508	2151.307861	24.529280
265.635071	1529.480835	3996.830078	2136.090332	24.585474
266.007599	1528.047363	3930.997070	2129.363525	25.024084
266.380127	1524.408325	3887.770752	2127.489014	25.517910
266.752594	1526.503418	3869.796143	2124.842529	25.534117
267.125031	1525.952148	3869.355225	2128.150635	25.697605
267.497437	1520.879517	3888.873535	2133.554199	25.873150
267.869843	1518.674072	3911.148438	2139.067871	25.931053
268.242218	1521.430908	3946.104980	2149.212891	25.891397
268.614532	1521.872070	4017.010498	2161.011963	25.615408
268.986816	1519.004883	4098.060547	2177.222168	25.521639
269.359100	1521.871948	4188.152832	2192.108887	25.137524
269.731354	1522.092407	4275.819824	2205.892578	24.831802
270.103516	1523.084961	4346.615234	2214.494141	24.487400
270.475708	1518.784424	4407.816406	2222.103027	24.344439
270.847839	1522.092529	4464.496094	2226.072754	23.925346
271.219971	1526.944702	4510.920898	2231.807129	23.621584
271.592041	1529.921875	4535.180664	2235.556152	23.479984
271.964081	1532.237671	4553.485840	2237.761963	23.352081
272.336151	1532.237671	4574.547852	2245.591064	23.447754
272.708130	1531.686279	4593.956055	2246.694092	23.348949
273.080109	1530.804077	4614.908203	2248.678467	23.276594
273.452026	1530.252686	4644.680664	2254.302734	23.248251
273.823914	1533.560913	4678.535156	2261.470459	23.145168
274.195770	1535.435425	4714.483887	2266.873779	23.008091
274.567627	1536.979126	4748.447754	2273.269531	22.926905
274.939423	1537.420288	4784.065918	2280.326904	22.882282
275.311249	1538.853882	4807.002441	2285.950928	22.859949
275.682983	1536.979370	4827.954590	2291.464355	22.925880
276.054688	1534.443115	4832.806641	2291.464355	22.951420
276.426422	1536.648560	4815.052734	2284.186279	22.801878
276.798065	1537.530640	4785.389648	2275.805908	22.731138
277.169708	1537.199951	4757.159668	2267.204346	22.671228
277.541321	1539.515625	4739.075195	2266.102051	22.708952
277.912903	1539.074585	4743.375977	2265.550537	22.671900
278.284424	1539.736206	4756.277344	2271.395020	22.746758
278.655945	1535.656250	4777.670410	2280.106445	22.962584
279.027435	1538.523315	4811.523926	2290.802734	22.984396
279.398865	1537.971924	4872.173828	2301.058105	22.886621
279.770294	1538.412964	4936.683105	2312.967529	22.792614
280.141663	1538.082275	4996.009766	2320.355957	22.622616
280.513031	1541.500610	5055.887695	2330.831543	22.459988
280.884369	1538.523193	5092.829102	2336.345215	22.446634
281.255676	1540.177368	5132.637207	2348.805908	22.509048
281.626953	1538.412964	5166.601074	2352.665771	22.442410
281.998199	1539.736206	5202.770996	2358.620605	22.355354
282.369385	1540.508057	5250.519043	2367.883301	22.301153
282.740540	1542.603271	5308.743164	2374.720215	22.094690
283.111694	1540.397827	5362.334961	2383.983154	22.072193
283.482819	1541.059326	5430.263184	2395.341064	21.965466
283.853912	1542.382813	5511.203613	2412.323486	21.919374
284.224945	1538.743774	5583.652832	2432.172607	22.087736
284.595978	1542.272461	5653.455566	2446.838867	22.002581
284.966980	1541.941650	5715.318359	2456.542725	21.915133
285.337952	1537.861450	5756.670410	2463.159180	21.932676
285.708893	1539.405273	5777.953613	2470.657715	21.971024
286.079803	1540.949097	5798.574219	2470.657471	21.836315
286.450684	1543.154785	5811.917480	2475.729980	21.846498
286.821533	1537.861572	5818.423340	2475.840332	21.912518
287.192322	1536.097412	5819.305176	2484.551758	22.143551
287.563110	1538.082275	5831.985840	2488.080566	22.124352
287.933868	1538.854126	5849.850098	2496.681641	22.218241
288.304596	1538.523315	5884.034668	2505.172607	22.244778
288.675262	1538.743896	5930.018555	2519.177246	22.326853
289.045929	1537.641113	5962.328613	2526.786133	22.355139
289.416565	1536.869141	5990.999023	2538.916260	22.497034
289.787170	1538.302734	5998.938477	2543.878418	22.543327
290.157745	1535.545898	6001.916016	2550.053467	22.714365
290.528259	1536.317749	5993.204102	2555.897949	22.876514
290.898773	1539.736084	6004.672852	2558.434570	22.815519
291.269226	1537.751221	6002.908691	2565.712158	23.021832
291.639679	1538.192261	5995.741211	2566.483887	23.068544
292.010101	1540.397827	6016.803223	2569.571777	22.991081
292.380463	1537.199829	6050.877441	2579.606689	23.094402
292.750824	1539.625854	6085.503418	2596.809082	23.255867
293.121155	1537.640869	6131.597168	2609.380127	23.329332
293.491455	1534.884155	6201.399414	2625.369873	23.368309
293.861725	1532.458130	6279.141602	2647.203613	23.484722
294.231964	1532.458130	6366.808594	2665.509277	23.437504
294.602142	1535.766235	6463.296875	2687.343262	23.370266
294.972321	1533.009399	6543.686035	2701.678711	23.323582
295.342468	1527.716309	6605.217773	2718.550293	23.453150
295.712555	1525.731445	6647.011230	2725.387207	23.424921
296.082672	1529.370483	6671.602051	2730.569824	23.359495
296.452728	1529.811523	6675.351074	2738.509277	23.490204
296.822693	1528.378052	6675.020020	2745.235840	23.643723
297.192657	1527.495850	6668.844727	2744.464111	23.670216
297.562622	1525.510986	6691.009766	2751.631836	23.736736
297.932556	1531.355469	6707.330566	2755.160645	23.643953
298.302460	1530.693848	6710.307129	2757.034912	23.676306
298.672333	1529.260376	6708.653320	2758.248047	23.728411
299.042145	1529.260376	6706.778809	2754.830078	23.670986
299.411957	1527.716553	6705.897461	2754.168213	23.684992
299.781677	1527.716553	6663.441406	2750.308838	23.805643
300.151428	1527.496094	6619.552734	2738.730225	23.786737
300.521149	1524.629028	6556.917969	2725.718018	23.867647
300.890839	1525.842041	6491.747559	2715.241943	23.951321
301.260468	1526.503662	6415.769531	2701.898926	24.040323
301.630096	1525.621338	6328.434570	2687.453613	24.190660
301.999695	1525.290527	6236.907715	2669.920166	24.293774
302.369232	1523.526245	6126.966309	2649.630127	24.462227
302.738739	1525.952148	6024.302246	2627.685791	24.491949
303.108246	1529.922119	5926.270020	2608.057373	24.523430
303.477692	1530.363159	5852.166504	2595.155518	24.637688
303.847137	1526.724121	5775.858398	2587.326172	24.960426
304.216553	1530.363037	5724.691406	2573.652344	24.873812
304.585876	1531.465820	5688.742188	2563.396729	24.822283
304.955231	1535.215088	5666.687988	2559.978271	24.803823
305.324493	1534.443115	5638.126953	2556.890381	24.915354
305.693787	1530.252686	5612.212891	2552.148682	25.034443
306.063049	1530.032227	5607.581055	2553.692627	25.104797
306.432251	1528.708740	5606.588379	2556.669922	25.208227
306.801422	1529.260132	5598.097656	2555.677246	25.226299
307.170593	1532.568481	5595.450684	2557.441650	25.225273
307.539673	1528.819092	5608.573730	2560.639648	25.291241
307.908783	1531.575928	5615.080078	2564.830078	25.303125
308.277832	1531.355347	5644.522949	2568.027832	25.203751
308.646851	1534.773926	5681.133301	2574.534180	25.076462
309.015839	1536.207520	5715.649414	2581.150391	25.001972
309.384796	1538.082153	5746.415039	2589.090332	24.974453
309.753723	1535.766357	5771.998047	2594.824463	25.000006
310.122620	1533.891724	5793.611816	2602.764160	25.092550
310.491486	1532.899292	5812.357422	2608.829102	25.141731
310.860352	1530.914307	5821.179199	2613.791016	25.240324
311.229126	1534.332886	5826.031250	2613.129883	25.136833
311.597931	1529.701416	5843.123535	2613.901855	25.135506
311.966675	1526.613892	5869.699219	2618.312744	25.136480
312.335388	1526.834351	5896.274414	2621.400146	25.050482
312.704071	1522.974854	5922.739746	2624.377686	25.033222
313.072723	1524.959717	5931.230957	2624.708252	24.958710
313.441345	1523.526245	5931.341309	2622.833496	24.939959
313.809875	1523.195313	5911.823242	2614.342529	24.863060
314.178436	1523.195190	5885.688477	2606.512939	24.832537
314.546967	1521.982178	5851.614258	2603.425293	24.977715
314.915466	1519.446045	5811.254883	2596.809082	25.102774
315.283936	1523.967163	5773.100586	2591.405518	25.121319
315.652374	1523.195557	5733.402344	2586.663818	25.259287
316.020752	1523.416016	5692.822266	2582.252686	25.395382
316.389130	1525.842041	5654.116699	2575.746826	25.432049
316.757416	1525.621460	5628.202637	2567.145752	25.387051
317.125732	1523.085205	5605.376465	2563.065674	25.475410
317.494019	1524.739258	5578.800781	2558.765137	25.505924
317.862274	1526.062378	5549.468262	2554.795166	25.568707
318.230469	1529.922119	5524.436523	2548.509766	25.499660
318.598663	1533.671265	5506.020996	2542.995850	25.408754
318.966797	1531.245239	5488.487793	2540.239014	25.497395
319.334930	1533.781494	5473.932129	2533.181641	25.364515
319.703003	1532.678711	5446.804688	2529.322266	25.462736
320.071045	1530.583374	5422.875000	2526.344971	25.582914
320.439056	1532.127197	5403.687988	2525.793701	25.665787
320.807037	1537.199829	5414.494629	2525.793457	25.496994
321.175049	1538.192261	5435.997559	2533.512695	25.535408
321.542969	1539.074463	5475.586426	2542.996338	25.502829
321.910828	1539.956665	5513.740234	2556.890381	25.591068
322.278717	1543.375122	5567.442871	2566.814697	25.432961
322.646515	1543.375122	5607.582031	2575.857422	25.404274
323.014313	1543.595581	5643.199707	2577.401123	25.217205
323.382111	1542.492798	5687.860352	2582.142822	25.079802
323.749817	1541.941650	5724.360840	2586.884766	24.984180
324.117523	1535.876587	5743.216797	2594.162598	25.153326
324.485199	1533.781372	5748.399414	2601.220215	25.327059
324.852814	1537.971680	5759.096191	2601.551025	25.196589
325.220428	1539.736084	5759.537598	2604.418213	25.230619
325.588013	1537.751221	5774.203125	2607.064453	25.240772
325.955536	1536.317627	5782.694336	2609.711182	25.277868
326.323059	1532.678711	5803.094727	2618.312744	25.422207
326.690552	1531.465698	5815.775879	2622.613281	25.468454
327.058014	1530.914307	5817.209473	2630.442627	25.652185
327.425415	1534.773804	5825.149414	2632.647949	25.589231
327.792816	1535.986938	5825.590332	2634.081543	25.598976
328.160187	1538.082031	5828.567871	2627.465332	25.390675
328.527496	1530.032227	5812.688477	2625.369873	25.576128
328.894775	1529.039673	5795.044434	2622.282227	25.626846
329.262054	1528.929443	5777.400879	2622.612793	25.742983
329.629303	1532.678711	5770.233398	2619.084473	25.637564
329.996490	1530.473267	5766.263672	2619.194336	25.702902
330.363647	1532.237549	5787.656738	2622.061523	25.610262
330.730774	1527.826660	5805.520996	2634.522217	25.871309
331.097839	1528.157593	5829.229004	2643.343994	25.928108
331.464935	1527.936890	5850.953125	2648.196045	25.913832
331.831970	1528.488159	5875.543457	2650.511963	25.811125
332.198975	1526.503296	5903.552734	2658.341064	25.858465
332.565948	1526.613647	5927.261230	2662.972900	25.822546
332.932892	1525.069824	5965.636719	2666.501465	25.704638
333.299744	1527.716431	5998.608398	2671.463623	25.582081
333.666656	1527.936890	6036.652344	2677.859863	25.504448
334.033478	1526.062256	6062.897461	2682.380859	25.487341
334.400299	1526.282837	6098.184570	2687.342773	25.395557
334.767090	1527.385620	6137.110352	2695.393066	25.337900
335.133850	1523.746704	6170.633301	2701.126953	25.336969
335.500549	1522.423462	6201.068848	2705.207275	25.280476
335.867218	1517.681763	6233.599121	2717.116455	25.433750
336.233917	1517.791992	6266.350586	2724.063721	25.402903
336.600525	1517.902222	6286.419434	2726.930908	25.354395
336.967102	1518.453491	6298.108398	2727.151367	25.288393
337.333649	1514.814697	6301.747070	2725.718018	25.296019
337.700195	1515.365967	6302.960449	2726.600098	25.299429
338.066681	1514.814697	6287.301270	2721.196777	25.277853
338.433136	1514.924805	6274.620605	2713.367432	25.178976
338.799591	1517.791992	6256.425781	2708.846436	25.134975
339.165985	1518.674072	6243.192871	2708.074463	25.175060
339.532318	1518.233032	6246.500977	2708.846191	25.180746
339.898651	1522.864380	6259.623535	2707.963867	25.019205
340.264954	1521.320679	6270.540039	2707.964111	24.986074
340.631226	1519.446045	6293.697754	2715.242188	25.046776
340.997467	1514.042603	6324.463379	2720.094238	25.071644
341.363678	1512.278320	6352.583984	2723.953613	25.033033
341.729828	1514.704224	6393.384766	2730.900635	24.928797
342.095947	1517.902100	6440.028809	2746.118408	24.952959
342.462067	1519.335693	6484.028320	2758.358643	24.956692
342.828156	1520.769165	6534.422852	2773.355713	24.983507
343.194183	1523.526001	6589.118164	2790.999023	25.021221
343.560211	1529.811523	6630.911621	2800.151855	24.903263
343.926178	1529.590942	6675.130859	2814.266846	24.966785
344.292114	1528.598511	6720.674316	2822.206299	24.915041
344.658020	1526.723877	6756.071289	2829.373779	24.910372
345.023926	1530.252563	6774.155273	2843.930176	25.051525
345.389771	1530.473267	6798.194824	2849.884766	25.047100
345.755585	1531.024414	6824.880859	2857.272949	25.052597
346.121368	1537.089478	6843.737305	2860.360596	24.936102
346.487122	1534.443115	6866.122559	2865.433350	24.963808
346.852844	1536.869019	6899.425781	2871.167236	24.881756
347.218536	1538.853882	6923.574219	2875.247559	24.818256
347.584167	1539.184814	6951.252930	2881.863770	24.808979
347.949768	1540.177246	6975.071289	2892.670654	24.885368
348.315369	1540.838867	6981.578125	2894.104004	24.872818
348.680939	1544.477905	6995.692871	2900.389404	24.873566
349.046448	1547.786133	7005.065430	2914.614746	25.045971
349.411957	1546.793701	7011.351074	2918.143555	25.095350
349.777435	1543.706055	7011.021484	2918.474365	25.145216
350.142792	1546.903931	7013.336914	2919.907715	25.116997
350.508209	1547.675903	7017.306641	2919.797363	25.086180
350.873566	1545.911499	7036.273926	2920.900391	25.043682
351.238892	1545.470459	7057.776855	2924.869873	25.023996
351.604187	1549.109253	7084.462891	2927.957764	24.909855
351.969482	1553.079102	7127.248535	2940.528809	24.890699
352.334717	1553.851196	7176.099609	2956.518311	24.948507
352.699890	1551.535400	7256.376465	2965.891357	24.792208
353.065063	1551.976318	7340.295410	2982.542480	24.714706
353.430237	1551.314819	7438.216309	3004.927979	24.692331
353.795319	1548.778442	7545.511719	3028.746826	24.679577
354.160370	1548.668213	7656.886230	3048.706299	24.557705
354.525421	1547.014282	7778.847656	3077.708252	24.562498
354.890442	1547.786133	7926.062500	3115.200684	24.574265
355.255402	1544.367676	8060.375000	3141.335205	24.508375
355.620331	1547.345093	8211.227539	3172.322266	24.384842
355.985260	1548.006714	8359.985352	3204.190430	24.312815
356.350098	1549.440186	8488.122070	3230.987061	24.234386
356.714935	1547.455322	8615.155273	3250.505127	24.096237
357.079742	1548.116943	8735.904297	3277.080811	24.054188
357.444519	1544.588135	8862.386719	3300.899658	24.000544
357.809296	1537.530762	9007.835938	3329.570313	23.988840
358.173981	1534.663574	9175.340820	3362.211426	23.918663
358.538605	1535.104736	9362.474609	3400.034668	23.825754
358.903259	1535.104736	9576.954102	3441.276855	23.703156
359.267914	1535.214966	9815.033203	3495.640625	23.677158
359.632477	1534.001831	10056.529297	3545.594482	23.603241
359.997009	1532.237549	10270.126953	3585.733887	23.501057
360.361542	1533.671021	10432.007813	3616.168945	23.403227
360.726013	1533.009399	10550.330078	3635.797607	23.319435
361.090485	1533.119751	10621.235352	3649.471680	23.287029
361.454895	1537.640869	10669.645508	3654.213135	23.177521
361.819244	1538.081787	10689.494141	3662.373535	23.212721
362.183594	1538.964233	10671.849609	3662.594238	23.252562
362.547913	1538.523071	10616.161133	3649.471436	23.254379
362.912201	1539.515625	10574.367188	3642.083008	23.271742
363.276489	1536.097168	10510.079102	3626.534668	23.294424
363.640686	1532.568359	10443.033203	3612.199463	23.339199
364.004883	1531.686279	10386.685547	3602.054199	23.380781
364.369049	1529.701416	10336.401367	3595.989258	23.462679
364.733154	1531.024780	10286.117188	3581.322998	23.418350
365.097198	1537.200073	10230.098633	3567.979492	23.361361
365.461273	1542.272461	10137.360352	3546.035645	23.312887
365.825287	1545.580688	10013.523438	3522.547607	23.346485
366.189270	1546.132080	9845.798828	3491.671387	23.441174
366.553223	1545.690796	9649.182617	3455.391846	23.566397
366.917114	1546.132080	9422.791992	3406.319824	23.616453
367.281006	1547.014282	9187.691406	3357.358887	23.693510
367.644867	1549.991577	8990.744141	3321.851563	23.812914
368.008698	1548.337524	8831.179688	3291.747070	23.938587
368.372498	1548.999146	8707.012695	3266.604980	23.995565
368.736237	1547.124634	8622.102539	3250.725830	24.079243
369.099976	1540.728760	8559.579102	3242.676025	24.248234
369.463654	1538.854126	8522.858398	3236.610840	24.309216
369.827332	1534.994629	8489.886719	3228.340332	24.347548
370.190948	1534.884277	8472.683594	3228.119873	24.405947
370.554535	1533.450684	8443.021484	3224.370850	24.472145
370.918091	1534.002075	8424.715820	3222.826904	24.508707
371.281647	1538.854126	8421.626953	3220.621338	24.434443
371.645111	1536.427979	8420.744141	3222.054688	24.485027
372.008575	1536.648560	8415.342773	3220.951904	24.485800
372.371979	1535.876465	8419.863281	3224.149658	24.524643
372.735382	1531.906738	8436.183594	3231.648438	24.618679
373.098724	1531.686157	8473.456055	3237.161865	24.568312
373.462067	1529.149902	8530.798828	3247.086426	24.536171
373.825348	1528.708740	8601.592773	3258.775391	24.460556
374.188599	1525.731445	8696.095703	3276.639893	24.418682
374.551819	1522.643677	8812.875000	3294.062988	24.298532
374.915009	1517.130005	8930.976563	3318.764160	24.300936
375.278168	1514.152588	9048.197266	3338.943359	24.220598
375.641266	1512.829468	9160.785156	3362.762207	24.188591
376.004395	1510.624023	9243.048828	3378.421387	24.155390
376.367462	1513.491211	9303.587891	3389.779785	24.085562
376.730469	1516.689209	9354.423828	3398.490967	24.009512
377.093475	1522.092529	9382.984375	3405.327637	23.957016
377.456421	1522.864380	9423.675781	3408.415283	23.865282
377.819336	1524.298096	9463.595703	3411.282715	23.767651
378.182281	1526.172607	9498.992188	3420.545410	23.760387
378.545135	1521.872070	9540.673828	3428.705322	23.779528
378.907928	1522.864502	9571.441406	3434.440186	23.750481
379.270752	1523.305542	9599.780273	3437.417480	23.699844
379.633484	1526.282959	9631.869141	3442.710449	23.643293
379.996246	1524.077393	9659.878906	3449.326904	23.663919
380.358948	1525.069824	9686.673828	3451.752686	23.606668
380.721558	1521.430786	9715.344727	3463.882324	23.706028
381.084198	1523.305298	9733.429688	3462.669189	23.621614
381.446747	1525.951782	9744.015625	3468.844482	23.641733
381.809326	1527.275146	9746.000977	3470.498779	23.643856
382.171875	1527.495850	9729.791016	3472.593750	23.714069
382.534363	1528.488403	9709.280273	3469.175293	23.722483
382.896790	1533.229858	9671.567383	3461.676758	23.695833
383.259247	1531.245117	9648.851563	3454.729980	23.695223
383.621613	1532.017090	9663.408203	3464.875000	23.770323
383.983948	1527.716431	9692.850586	3477.335938	23.877373
384.346283	1523.195068	9736.739258	3497.626221	24.038723
384.708588	1519.225342	9811.723633	3506.889160	23.969421
385.070831	1519.887085	9891.341797	3522.768555	23.925129
385.433075	1519.335693	9960.373047	3541.073975	23.951302
385.795258	1517.020142	10042.305664	3560.591553	23.970711
386.157440	1518.784424	10104.719727	3577.022217	23.972202
386.519531	1514.042603	10178.823242	3596.319824	24.031507
386.881622	1519.335815	10246.749023	3611.537598	23.972759
387.243683	1517.350830	10314.126953	3625.762939	23.968008
387.605713	1519.556274	10383.047852	3635.135742	23.868469
387.967682	1522.643921	10443.366211	3655.536377	23.909414
388.329651	1525.069824	10513.719727	3671.195313	23.875948
388.691559	1523.746704	10610.648438	3700.417725	23.953939
389.053467	1521.431030	10715.627930	3716.738037	23.877094
389.415314	1519.887085	10810.132813	3738.791992	23.884241
389.777130	1518.784180	10914.560547	3760.736572	23.861279
390.138885	1520.328125	10994.397461	3772.866455	23.775827
390.500641	1518.012329	11088.901367	3789.737793	23.735785
390.862366	1521.872070	11165.982422	3809.918213	23.724802
391.224060	1525.510864	11220.676758	3823.260498	23.699949
391.585693	1529.921875	11295.551758	3840.794189	23.663321
391.947296	1536.317749	11367.119141	3853.365234	23.569262
392.308868	1535.766235	11409.905273	3872.332520	23.663496
392.670441	1535.656006	11454.014648	3885.124268	23.688076
393.031952	1533.119751	11484.449219	3889.645508	23.680513
393.393433	1537.310059	11495.697266	3885.014160	23.575146
393.754883	1537.089600	11506.393555	3886.888672	23.570343
394.116302	1538.523071	11496.689453	3886.337158	23.576771
394.477692	1529.701294	11492.830078	3879.831055	23.588272
394.839020	1527.936890	11479.376953	3873.435303	23.569437
395.200348	1526.834229	11463.718750	3875.530518	23.636143
395.561646	1529.480835	11443.759766	3868.362793	23.591042
395.922882	1529.150024	11409.354492	3858.107178	23.571953
396.284088	1529.480835	11337.236328	3840.794189	23.566181
396.645264	1527.275513	11269.638672	3828.223633	23.617968
397.006409	1530.914429	11181.641602	3812.674805	23.643402
397.367523	1533.450684	11090.887695	3793.818115	23.650351
397.728577	1538.964355	11024.392578	3784.996338	23.678762
398.089600	1539.074707	10949.627930	3774.189453	23.751152
398.450592	1539.625977	10886.000000	3761.949463	23.777386
398.811584	1539.074463	10829.209961	3749.929199	23.797873
399.172546	1537.971680	10760.399414	3731.513672	23.784864
399.533447	1528.819214	10692.691406	3719.714600	23.907967
399.894318	1532.127441	10638.768555	3708.136230	23.894747
400.255127	1532.237671	10596.091797	3699.645020	23.912643
400.615936	1531.355469	10585.175781	3702.071533	23.975693
400.976685	1529.150146	10593.115234	3713.980957	24.104582
401.337433	1531.575928	10626.307617	3723.354492	24.099432
401.698151	1531.355591	10702.835938	3740.666748	24.088924
402.058807	1537.861572	10785.099609	3765.809082	24.093113
402.419434	1539.736206	10877.398438	3789.848145	24.097164
402.780060	1538.633423	10977.195313	3810.910645	24.074404
403.140594	1534.663696	11064.090820	3833.296143	24.121412
403.501129	1535.986938	11144.919922	3853.254883	24.115770
403.861633	1537.420532	11224.757813	3867.149170	24.049215
404.222076	1539.625977	11293.236328	3882.697998	24.022612
404.582550	1535.986938	11374.728516	3893.946045	23.966064
404.942932	1535.656128	11422.916992	3908.833008	24.002369
405.303284	1530.804077	11480.369141	3921.844971	24.031612
405.663605	1531.245117	11533.189453	3928.791992	23.970808
406.023895	1532.568481	11582.260742	3943.789551	23.992985
406.384125	1530.914307	11629.016602	3956.911865	24.024292
406.744354	1529.811523	11684.814453	3969.813232	24.027582
407.104553	1536.317627	11746.566406	3979.737793	23.931053
407.464691	1536.868896	11813.392578	3990.875000	23.879730
407.824829	1537.420288	11876.467773	4008.188232	23.897444
408.184906	1538.522949	11926.201172	4018.443359	23.873674
408.544922	1538.633423	11974.169922	4019.325439	23.771582
408.904938	1537.971680	12007.030273	4025.500732	23.760771
409.264923	1536.317627	11999.752930	4018.333252	23.720848
409.624847	1534.112183	11979.573242	4010.504150	23.707830
409.984802	1533.560791	11956.416016	4001.020508	23.673548
410.344666	1535.656006	11935.685547	3994.404053	23.641741
410.704529	1534.774048	11906.352539	3990.875488	23.681078
411.064331	1531.355591	11896.317383	3985.361572	23.675976
411.424133	1532.017090	11892.458008	3992.088135	23.744848
411.783875	1531.245117	11887.385742	3992.198730	23.763231
412.143555	1536.317749	11895.656250	4002.122803	23.802727
412.503235	1535.986938	11932.376953	4008.959473	23.786840
412.862885	1536.317749	11957.078125	4019.104492	23.825388
413.222473	1535.876587	12000.966797	4040.387695	23.932056
413.582062	1530.473267	12055.992188	4046.452393	23.903610
413.941559	1529.480713	12132.080078	4058.803955	23.855690
414.301086	1532.237549	12203.647461	4071.374268	23.793825
414.660522	1531.796509	12282.932617	4089.128418	23.786623
415.019958	1529.150024	12364.093750	4105.669434	23.779722
415.379364	1530.142456	12462.125977	4124.636230	23.733055
415.738708	1528.708984	12566.443359	4145.808594	23.710478
416.098053	1529.591187	12702.960938	4176.464355	23.689119
416.457336	1526.503540	12866.385742	4218.036621	23.735107
416.816559	1528.047363	13056.165039	4269.424316	23.779919
417.175812	1526.834351	13278.144531	4320.039063	23.769302
417.535004	1528.488525	13530.667969	4382.233398	23.776888
417.894135	1528.157715	13808.997070	4451.153809	23.801271
418.253265	1528.047363	14142.681641	4526.359375	23.768520
418.612335	1530.583618	14503.713867	4602.888184	23.682062
418.971405	1528.378174	14871.801758	4684.379883	23.652113
419.330414	1527.054810	15239.122070	4762.011719	23.592045
419.689423	1521.871948	15591.002930	4836.997070	23.563112
420.048370	1521.210327	15940.676758	4913.525879	23.525942
420.407257	1519.997314	16263.223633	4986.085449	23.509699
420.766144	1519.887085	16600.767578	5052.028320	23.421318
421.125000	1524.518555	16922.103516	5133.739746	23.440178
421.483795	1525.180176	17245.310547	5208.394531	23.429922
421.842560	1520.769287	17599.064453	5287.570313	23.427864
422.201324	1520.328125	17935.947266	5362.997070	23.408613
422.560028	1519.887085	18241.623047	5431.697266	23.393564
422.918671	1520.769287	18531.310547	5491.133789	23.340612
423.277283	1524.077515	18778.761719	5542.630859	23.289637
423.635925	1525.841919	18955.306641	5584.313965	23.285122
423.994476	1527.385742	19096.347656	5609.456055	23.234558
424.353027	1529.921997	19197.578125	5625.776855	23.182787
424.711487	1530.914429	19260.099609	5645.074219	23.205576
425.069946	1529.701416	19272.009766	5644.964355	23.194630
425.428375	1529.701538	19241.906250	5631.400879	23.157475
425.786743	1531.576050	19143.101563	5603.832520	23.122679
426.145081	1531.796509	18994.343750	5577.918945	23.170288
426.503418	1530.914307	18822.097656	5538.551758	23.177345
426.861725	1533.561035	18640.148438	5505.800781	23.220526
427.219971	1537.751343	18467.904297	5461.360352	23.175272
427.578186	1539.405396	18302.933594	5423.867676	23.172106
427.936371	1542.051880	18152.521484	5385.713379	23.139996
428.294495	1545.249756	17946.314453	5344.361328	23.163811
428.652618	1543.485352	17745.066406	5297.165039	23.168602
429.010712	1544.477905	17538.191406	5257.687012	23.216677
429.368744	1549.991455	17290.296875	5208.836426	23.245070
429.726746	1550.432617	17043.066406	5158.111328	23.286413
430.084717	1548.999023	16817.117188	5110.252441	23.324770
430.442688	1548.337280	16581.134766	5068.569336	23.417011
430.800568	1549.660645	16415.947266	5038.575684	23.468637
431.158417	1548.668213	16272.815430	5022.255371	23.591091
431.516235	1546.903809	16145.229492	4994.466309	23.616150
431.874023	1542.492920	16049.514648	4979.910156	23.694851
432.231812	1543.816162	15953.795898	4955.981445	23.679182
432.589508	1543.706055	15895.242188	4942.858887	23.684940
432.947205	1543.595825	15808.457031	4928.082520	23.726040
433.304840	1542.052002	15756.189453	4920.474121	23.768042
433.662476	1541.831421	15700.720703	4914.187988	23.817944
434.020050	1545.029541	15676.790039	4915.290527	23.848841
434.377594	1544.147339	15649.995117	4905.917480	23.832457
434.735138	1536.869263	15624.854492	4908.674316	23.933907
435.092621	1536.648682	15592.102539	4898.639160	23.919472
435.450043	1536.979492	15602.911133	4898.969727	23.901653
435.807465	1532.789063	15644.480469	4911.761230	23.944487
436.164856	1532.017090	15690.354492	4917.826172	23.913889
436.522156	1531.576050	15735.567383	4919.811523	23.854107
436.879486	1527.936890	15802.060547	4931.721191	23.845837
437.236755	1525.510986	15877.817383	4944.623047	23.822735
437.593994	1529.701416	15964.602539	4969.875000	23.832333
437.951172	1528.267822	16095.165039	4996.119629	23.806385
438.308380	1526.944458	16181.729492	5012.661133	23.785521
438.665497	1526.503296	16304.906250	5036.700684	23.752209
439.022583	1530.252686	16441.642578	5067.687500	23.723040
439.379608	1531.906860	16545.410156	5091.285645	23.707851
439.736633	1532.568604	16637.816406	5110.583984	23.687233
440.093628	1535.104736	16715.669922	5128.447754	23.670679
440.450562	1534.773926	16800.359375	5151.936035	23.694880
440.807495	1534.222534	16869.169922	5167.374023	23.691971
441.164368	1534.773926	16950.664063	5176.416504	23.622654
441.521210	1534.773926	17015.833984	5187.553711	23.595152
441.878021	1532.899292	17084.865234	5201.999023	23.592514
442.234833	1536.979492	17175.837891	5222.620117	23.567198
442.591522	1538.854126	17250.492188	5248.644531	23.611736
442.948242	1535.766479	17338.599609	5274.337891	23.657602
443.304901	1538.082275	17434.316406	5291.540527	23.612247
443.661530	1541.169800	17547.126953	5325.504395	23.643288
444.018127	1542.382935	17676.144531	5363.217773	23.682232
444.374664	1544.367798	17807.478516	5398.284180	23.697290
444.731201	1552.197021	17927.343750	5431.145996	23.688026
445.087738	1551.535400	18043.792969	5455.185059	23.669590
445.444183	1552.307251	18093.746094	5470.182129	23.685211
445.800598	1548.888794	18151.085938	5489.700684	23.736689
446.156982	1546.352539	18172.921875	5484.517578	23.685974
446.513336	1545.359985	18160.902344	5484.186523	23.705675
446.869598	1546.793579	18160.683594	5480.327148	23.676174
447.225891	1546.021606	18175.570313	5486.060547	23.693001
447.582153	1546.352417	18179.318359	5495.324219	23.741837
447.938354	1548.999023	18181.964844	5503.704590	23.776312
448.294495	1548.006592	18183.066406	5498.962891	23.750778
448.650665	1544.147095	18170.828125	5502.381348	23.806520
449.006775	1537.971924	18154.617188	5501.058594	23.850101
449.362823	1539.405396	18162.666016	5510.100586	23.886381
449.718842	1541.610718	18152.962891	5508.997559	23.883587
450.074860	1540.838867	18172.703125	5505.358887	23.836897
450.430817	1544.918945	18136.753906	5493.008789	23.795376
450.786713	1541.831299	18068.271484	5482.643066	23.845497
451.142578	1537.861450	17979.615234	5452.869629	23.811378
451.498444	1534.001831	17847.619141	5419.016113	23.814548
451.854248	1533.119629	17694.558594	5378.214844	23.791786
452.210022	1529.039551	17510.074219	5332.341309	23.798845
452.565765	1527.385376	17293.279297	5284.593750	23.831244
452.921478	1529.370361	17109.785156	5241.917969	23.828297
453.277191	1531.796387	16919.673828	5201.778320	23.849827
453.632813	1531.906738	16753.052734	5169.799805	23.900257
453.988434	1531.245117	16601.978516	5138.592773	23.936111
454.343964	1528.819214	16476.490234	5117.750977	24.009972
454.699524	1529.591187	16350.117188	5090.514160	24.026966
455.054993	1527.385742	16251.754883	5062.946289	24.011627
455.410400	1526.282959	16187.574219	5032.620605	23.915613
455.765839	1523.636475	16166.403320	5030.083496	23.946615
456.121216	1525.400879	16186.471680	5038.575195	23.962605
456.476593	1529.591187	16245.579102	5047.838379	23.907650
456.831909	1529.480957	16359.379883	5077.832031	23.927008
457.187195	1528.267822	16504.277344	5119.184082	23.977791
457.542450	1528.157593	16688.544922	5159.323730	23.951670
457.897644	1528.267944	16878.652344	5206.189453	23.959799
458.252808	1531.024780	17079.128906	5249.747070	23.917528
458.607971	1536.317749	17244.759766	5289.224609	23.891018
458.963013	1539.956787	17343.453125	5311.830566	23.867338
459.318085	1542.934204	17441.373047	5334.877441	23.851044
459.673096	1541.831421	17513.933594	5348.992676	23.836317
460.028076	1541.610718	17581.533203	5368.621094	23.859282
460.383057	1541.059570	17632.478516	5383.397461	23.878180
460.737976	1542.272461	17654.751953	5385.823730	23.854500
461.092865	1543.265015	17668.205078	5389.021484	23.849739
461.447723	1543.375244	17674.822266	5391.005859	23.851738
461.802551	1546.573120	17650.451172	5384.720215	23.833681
462.157288	1547.786133	17647.472656	5386.153809	23.841257
462.512054	1548.337646	17629.390625	5388.138672	23.877796
462.866760	1545.911621	17608.216797	5391.005371	23.938618
463.221405	1547.676025	17561.681641	5384.610352	23.959866
463.576019	1547.896484	17482.503906	5369.613281	23.983753
463.930603	1548.447876	17383.810547	5352.300781	24.021257
464.285156	1546.242432	17249.832031	5310.396973	23.970026
464.639709	1547.345093	17084.640625	5267.942383	23.946234
464.994171	1543.706055	16863.326172	5225.266602	24.031670
465.348633	1542.603271	16613.998047	5174.651855	24.098955
465.703033	1539.295044	16373.494141	5122.272461	24.153494
466.057434	1532.899170	16159.786133	5084.338379	24.280212
466.411774	1530.032104	16020.070313	5056.219238	24.335251
466.766083	1522.864380	15879.141602	5032.290039	24.445236
467.120331	1521.100098	15783.867188	5014.094727	24.490301
467.474548	1521.430908	15706.787109	4996.120605	24.494905
467.828735	1519.997314	15633.897461	4983.769531	24.541567
468.182922	1520.438232	15605.998047	4972.301758	24.506399
468.537048	1521.871704	15567.403320	4957.966309	24.463972
468.891144	1520.879272	15539.833008	4952.672852	24.479668
469.245178	1517.571289	15543.692383	4956.752930	24.519835
469.599213	1514.483398	15538.730469	4957.083496	24.547485
469.953186	1512.278076	15543.582031	4959.730469	24.569723
470.307129	1512.719116	15539.062500	4957.855469	24.561897
470.661041	1515.255493	15572.252930	4961.053711	24.513048
471.014923	1517.019775	15620.001953	4966.235840	24.457352
471.368713	1514.483521	15633.895508	4970.426758	24.476538
471.722504	1516.799194	15624.414063	4977.484375	24.530617
472.076294	1515.696533	15594.748047	4968.772461	24.526339
472.429993	1517.571167	15538.951172	4960.281250	24.553289
472.783722	1517.681396	15533.877930	4954.657227	24.521460
473.137329	1521.210205	15559.459961	4959.729980	24.493935
473.490967	1524.628662	15589.895508	4963.589355	24.450022
473.844543	1525.069702	15655.178711	4980.130371	24.451761
474.198090	1525.731445	15736.008789	4996.781738	24.426338
474.551605	1524.849243	15840.216797	5022.916504	24.435751
474.905060	1525.400635	15973.979492	5054.233887	24.423393
475.258484	1526.834229	16111.156250	5081.140625	24.370733
475.611877	1525.180176	16262.120117	5122.161621	24.407927
475.965240	1522.974731	16434.146484	5171.454102	24.468094
476.318573	1525.731445	16599.001953	5211.372559	24.451502
476.671844	1529.149902	16778.083984	5252.503906	24.417143
477.025116	1531.024536	16965.107422	5295.951660	24.393593
477.378326	1533.340210	17172.417969	5343.258789	24.361528
477.731506	1535.435425	17399.578125	5402.253906	24.374582
478.084656	1534.773926	17628.064453	5458.713379	24.382456
478.437744	1532.788940	17876.400391	5522.230469	24.409792
478.790833	1532.347900	18179.759766	5594.238770	24.399534
479.143890	1529.149902	18532.742188	5675.068359	24.382605
479.496826	1527.606079	18959.386719	5778.614746	24.386543
479.849823	1528.488281	19549.675781	5912.264648	24.325680
480.202728	1529.039673	20281.115234	6086.054199	24.301388
480.555603	1525.952148	21176.748047	6307.812500	24.334181
480.908478	1522.974731	22400.552734	6597.608398	24.306622
481.261292	1522.974731	23963.777344	6988.414551	24.354921
481.614075	1524.628906	25732.109375	7440.753906	24.439243
481.966797	1526.834229	27496.359375	7882.395020	24.473148
482.319489	1527.606079	29080.205078	8259.967773	24.434580
482.672150	1526.393188	30462.691406	8582.514648	24.385017
483.024780	1524.739014	31572.472656	8837.795898	24.338129
483.377350	1523.636353	32530.302734	9044.778320	24.256533
483.729919	1522.313110	33403.109375	9245.364258	24.224775
484.082428	1523.856812	34220.453125	9432.827148	24.188971
484.434937	1524.187622	35104.066406	9647.196289	24.190107
484.787384	1523.636230	36042.925781	9871.821289	24.184118
485.139771	1526.503296	37078.054688	10124.566406	24.184778
485.492157	1529.921753	38098.410156	10369.040039	24.171408
485.844482	1531.355347	39044.769531	10602.598633	24.181332
486.196777	1530.693726	39872.480469	10789.068359	24.146959
486.549072	1531.796509	40529.593750	10944.443359	24.136354
486.901276	1531.134888	40987.113281	11032.992188	24.082174
487.253448	1530.363037	41207.882813	11082.504883	24.074442
487.605591	1528.047241	41187.921875	11073.572266	24.068470
487.957703	1529.039917	40949.730469	11009.614258	24.049742
488.309784	1533.450806	40448.871094	10894.379883	24.054548
488.661835	1533.450806	39685.007813	10692.029297	24.005777
489.013855	1533.560913	38832.492188	10461.229492	23.935455
489.365814	1533.340454	38064.773438	10254.578125	23.873241
489.717743	1533.009521	37422.546875	10103.283203	23.879587
490.069611	1532.017090	36896.214844	9974.926758	23.874172
490.421509	1533.561035	36463.058594	9870.167969	23.866957
490.773315	1538.633545	36034.433594	9783.162109	23.900093
491.125092	1539.625977	35581.214844	9673.000000	23.892462
491.476807	1534.553345	35043.742188	9544.202148	23.902843
491.828522	1536.317749	34357.406250	9380.557617	23.899998
492.180176	1533.230225	33541.167969	9178.318359	23.884975
492.531830	1530.804199	32589.628906	8938.696289	23.851168
492.883423	1527.495972	31597.392578	8706.904297	23.875732
493.234985	1525.290405	30630.853516	8469.155273	23.857517
493.586487	1528.047363	29768.414063	8271.657227	23.879328
493.937988	1528.929443	29037.640625	8106.911621	23.912361
494.289429	1532.788818	28473.484375	7988.477539	23.962591
494.640869	1531.686157	28000.085938	7892.650391	24.032295
494.992218	1531.686157	27623.722656	7804.764160	24.042118
495.343567	1529.149902	27261.039063	7713.788086	24.034918
495.694855	1530.362915	26811.238281	7601.972656	24.016613
496.046112	1533.230103	26245.205078	7458.065430	23.975565
496.397339	1532.899292	25526.890625	7283.724609	23.967772
496.748535	1534.663574	24699.515625	7087.991211	23.973076
497.099670	1534.994385	23875.558594	6891.264160	23.975534
497.450806	1536.097046	23117.435547	6723.870605	24.038239
497.801880	1540.177124	22517.664063	6590.771484	24.076260
498.152924	1536.648560	22015.919922	6475.978516	24.118681
498.503937	1535.766357	21626.441406	6393.825195	24.180662
498.854889	1541.279907	21339.951172	6338.027344	24.227623
499.205841	1537.089600	21112.789063	6281.016602	24.233753
499.556702	1541.941650	20926.869141	6248.485840	24.279400
499.907562	1539.956787	20761.572266	6216.506836	24.329639
500.258362	1540.838867	20609.949219	6182.874023	24.343220
500.609161	1544.588257	20483.576172	6152.989746	24.332880
500.959900	1543.926636	20330.847656	6124.429199	24.381336
501.310608	1543.595703	20167.863281	6082.084961	24.368687
501.661255	1540.949097	19978.414063	6042.166504	24.413429
502.011902	1544.257324	19809.808594	5987.801758	24.327459
502.362488	1545.249756	19609.330078	5950.639648	24.387568
502.713043	1546.352539	19430.138672	5914.470703	24.425020
503.063568	1541.279907	19261.421875	5878.742188	24.477581
503.414063	1538.523071	19106.378906	5850.181641	24.542885
503.764496	1541.059204	18964.458984	5819.966797	24.558395
504.114899	1539.295166	18838.527344	5796.699219	24.610365
504.465271	1538.743774	18744.794922	5774.093262	24.615467
504.815613	1535.656128	18675.433594	5757.993652	24.634727
505.165894	1529.701416	18602.212891	5745.863281	24.695618
505.516174	1527.716553	18584.128906	5737.923828	24.684013
505.866394	1527.937012	18570.455078	5738.695801	24.707375
506.216583	1523.305664	18563.177734	5739.467773	24.742922
506.566711	1523.856934	18600.339844	5750.385254	24.750580
506.916840	1523.085083	18640.369141	5763.617676	24.773397
507.266907	1521.872070	18704.107422	5780.379395	24.784363
507.616882	1518.674072	18761.666016	5792.729980	24.787205
507.966858	1516.689209	18802.027344	5809.050293	24.832382
508.316803	1516.248169	18854.185547	5815.225098	24.795204
508.666748	1516.579102	18909.541016	5826.914551	24.782068
509.016632	1515.145508	18965.890625	5846.101563	24.818171
509.366486	1513.932373	19011.984375	5872.125977	24.906733
509.716309	1512.940063	19094.466797	5894.841797	24.923328
510.066040	1512.609253	19168.130859	5914.360352	24.931299
510.415771	1515.476318	19257.892578	5942.700195	24.952766
510.765503	1514.263428	19336.626953	5968.834473	24.994280
511.115173	1516.248169	19421.427734	5986.368164	24.965513
511.464752	1516.578979	19503.468750	6001.255371	24.933027
511.814270	1518.012451	19575.478516	6019.560059	24.929010
512.163818	1518.563843	19630.283203	6036.652344	24.945663
512.513306	1516.578857	19691.484375	6053.854492	24.964504
512.862793	1520.328003	19720.816406	6067.969727	24.986372
513.212219	1519.887085	19769.556641	6075.688477	24.963747
513.561646	1518.563721	19808.925781	6081.091309	24.944983
513.911011	1515.255615	19836.164063	6091.347656	24.977428
514.260315	1513.932251	19890.197266	6099.287598	24.952597
514.609558	1514.593994	19954.156250	6109.983887	24.921360
514.958801	1517.460938	20057.042969	6137.000977	24.917175
515.308044	1517.019897	20201.500000	6169.310059	24.899221
515.657227	1518.894531	20392.933594	6213.859863	24.875256
516.006348	1520.989746	20606.861328	6270.430176	24.884588
516.355408	1523.415771	20836.009766	6328.211914	24.879082
516.704529	1523.856812	21066.146484	6377.504395	24.836637
517.053467	1523.415649	21249.308594	6416.872070	24.807276
517.402466	1526.062256	21397.183594	6452.821289	24.793562
517.751404	1523.084961	21517.271484	6473.000977	24.756775
518.100281	1525.290405	21624.896484	6492.519531	24.713068
518.449219	1520.548950	21691.941406	6515.345215	24.761782
518.798035	1517.571411	21757.333984	6534.974121	24.789831
519.146851	1516.689331	21826.916016	6555.264160	24.808067
519.495544	1517.020020	21905.869141	6573.569336	24.800562
519.844299	1522.313110	21994.197266	6590.881836	24.758682
520.192932	1520.218018	22093.333984	6613.487305	24.756920
520.541626	1522.313110	22156.630859	6634.438965	24.774872
520.890198	1527.937012	22260.949219	6666.528320	24.784588
521.238770	1530.583496	22355.783203	6686.267090	24.756947
521.587280	1531.796387	22446.537109	6705.785645	24.738482
521.935791	1530.693726	22546.884766	6734.125977	24.759159
522.284180	1532.788940	22645.027344	6756.400879	24.742104
522.632629	1534.994385	22760.375000	6780.771484	24.714643
522.981018	1530.693726	22887.296875	6827.416504	24.801334
523.329346	1530.693848	23058.660156	6871.084961	24.806761
523.677551	1525.731567	23236.419922	6909.018555	24.795563
524.025818	1523.415771	23458.398438	6954.339844	24.759190
524.374023	1521.100098	23722.173828	7014.880859	24.745564
524.722229	1520.438477	24090.261719	7103.208984	24.735552
525.070374	1520.548584	24555.941406	7218.113281	24.733959
525.418457	1519.556274	25200.154297	7374.038574	24.722696
525.766541	1524.849365	26106.705078	7597.561523	24.704042
526.114563	1525.621338	27271.955078	7895.296875	24.740128
526.462585	1522.974854	28579.017578	8212.550781	24.724888
526.810547	1526.172729	29825.097656	8511.720703	24.684853
527.158447	1526.172607	30890.884766	8767.333008	24.659393
527.506348	1528.157593	31764.574219	8970.674805	24.614416
527.854065	1528.598633	32475.056641	9128.805664	24.559216
528.201904	1522.202759	33035.906250	9255.729492	24.540203
528.549622	1520.879639	33462.882813	9351.997070	24.516674
528.897339	1520.879517	33790.281250	9429.187500	24.507141
529.245056	1519.997314	34014.574219	9478.700195	24.492405
529.592712	1516.027466	34193.992188	9524.793945	24.508156
529.940369	1515.365845	34378.804688	9571.879883	24.515129
530.287903	1517.571289	34558.000000	9611.027344	24.495613
530.635437	1514.704346	34745.679688	9658.885742	24.507801
530.982910	1517.020020	35013.753906	9730.232422	24.519444
531.330383	1518.233032	35248.523438	9792.646484	24.531107
531.677795	1521.651489	35370.593750	9825.838867	24.533079
532.025208	1522.643921	35337.398438	9811.392578	24.512226
532.372498	1521.320801	35142.769531	9757.469727	24.496708
532.719788	1522.643921	34723.730469	9653.813477	24.490673
533.067078	1520.659180	34028.792969	9476.384766	24.473032
533.414307	1523.195435	33081.554688	9226.728516	24.410437
533.761536	1525.290649	32011.136719	8965.602539	24.405792
534.108643	1523.085083	31022.433594	8723.333984	24.408163
534.455811	1523.856934	30247.216797	8539.729492	24.425669
534.802856	1527.275635	29614.585938	8394.501953	24.449570
535.149902	1524.408447	29126.521484	8287.537109	24.502214
535.496887	1523.195313	28710.240234	8180.682129	24.487719
535.843811	1522.864624	28364.095703	8103.160645	24.515627
536.190796	1520.328247	28066.687500	8037.217285	24.549088
536.537659	1526.613892	27817.033203	7981.970215	24.554026
536.884460	1527.826782	27578.732422	7922.865234	24.548239
537.231323	1525.180298	27296.324219	7858.465820	24.575104
537.578064	1525.952148	27017.113281	7787.118164	24.562107
537.924805	1524.518677	26697.654297	7713.457520	24.585491
538.271423	1526.062500	26405.654297	7627.555664	24.524088
538.618164	1527.275391	26236.941406	7600.208496	24.577156
538.964783	1526.062378	26303.761719	7619.726074	24.593340
539.311279	1525.290405	26509.308594	7675.413574	24.616230
539.657776	1529.811523	26777.714844	7742.680176	24.607464
540.004333	1534.001831	27009.066406	7799.579590	24.594944
540.350769	1530.914307	27213.953125	7855.929199	24.627205
540.697144	1534.773926	27352.234375	7894.083496	24.631817
541.043518	1534.773926	27429.089844	7908.859375	24.615770
541.389893	1532.788940	27431.296875	7914.924805	24.642870
541.736145	1533.009521	27319.259766	7876.770020	24.601332
542.082458	1531.465698	27184.619141	7844.350586	24.608610
542.428711	1530.032104	27028.029297	7801.123535	24.594446
542.774902	1534.443115	26874.091797	7778.295898	24.640644
543.121033	1534.001953	26771.865234	7765.726074	24.691963
543.467102	1535.766357	26708.130859	7744.994629	24.666845
543.813171	1530.473389	26658.839844	7737.828125	24.702578
544.159180	1527.826782	26623.990234	7730.660156	24.716261
544.505127	1527.275269	26580.546875	7724.814941	24.737446
544.851135	1525.510986	26465.642578	7703.311523	24.770523
545.197021	1529.039673	26279.062500	7656.997559	24.759403
545.542908	1529.811523	25915.710938	7576.167480	24.794477
545.888733	1528.598633	25382.431641	7434.798340	24.759962
546.234558	1529.701416	24666.982422	7265.750977	24.791374
546.580322	1529.370483	23875.119141	7073.214844	24.809393
546.926025	1522.754150	23061.306641	6880.348145	24.874437
547.271667	1516.799438	22344.753906	6711.631836	24.941635
547.617371	1515.917236	21688.521484	6552.618164	24.968027
547.962952	1510.513916	21087.759766	6420.291016	25.078999
548.308533	1506.985229	20539.593750	6291.161621	25.136734
548.654053	1510.513916	20035.978516	6168.979492	25.146282
548.999573	1510.072876	19574.046875	6080.320801	25.300346
549.344971	1509.631836	19205.074219	5999.710938	25.374214
549.690430	1511.727051	18895.871094	5937.407227	25.458141
550.035767	1514.704468	18655.806641	5882.160645	25.479437
550.381104	1517.461182	18424.896484	5823.716309	25.469593
550.726440	1517.350952	18201.921875	5776.078613	25.524946
551.071655	1521.872070	17961.861328	5723.147461	25.555222
551.416931	1523.305664	17699.191406	5667.901367	25.622063
551.762085	1523.305664	17417.554688	5597.436523	25.632736
552.107178	1526.393188	17137.240234	5523.664551	25.605732
552.452332	1527.937012	16865.531250	5452.648926	25.588837
552.797424	1528.488281	16617.859375	5399.828613	25.656075
553.142395	1529.039551	16403.378906	5360.130371	25.756376
553.487366	1531.906494	16235.324219	5311.500000	25.705544
553.832336	1533.450439	16092.630859	5287.239746	25.782970
554.177185	1538.192261	15982.911133	5262.428711	25.782684
554.522095	1537.199707	15885.650391	5246.218750	25.849613
554.866943	1540.508057	15797.429688	5228.354004	25.867056
555.211731	1540.177246	15707.779297	5201.117188	25.840223
555.556396	1542.162109	15630.037109	5184.465820	25.854174
555.901123	1536.758667	15550.971680	5164.616211	25.886986
556.245789	1533.891602	15491.977539	5149.619629	25.904182
556.590454	1533.340454	15421.841797	5130.652344	25.901369
556.934998	1535.656006	15336.601563	5111.355469	25.909090
557.279541	1531.135010	15230.741211	5081.030273	25.912388
557.624023	1529.260376	15136.675781	5056.659668	25.922626
557.968567	1528.488403	15005.562500	5031.407227	25.991688
558.312988	1526.393188	14903.338867	5007.588379	26.023844
558.657349	1528.267822	14807.733398	4985.423340	26.033844
559.001770	1528.708862	14752.045898	4968.882813	26.015928
559.346069	1524.628784	14695.036133	4959.950684	26.083641
559.690308	1524.187622	14652.139648	4955.429199	26.136915
560.034485	1519.445923	14622.696289	4943.188965	26.128962
560.378723	1517.681519	14593.473633	4935.910645	26.141659
560.722900	1515.365845	14547.491211	4935.359375	26.242794
561.067017	1513.380981	14502.721680	4924.332520	26.259621
561.411072	1513.932251	14474.269531	4920.803711	26.286905
561.755127	1513.380859	14445.488281	4911.650879	26.277775
562.099182	1512.057617	14444.275391	4909.446289	26.270735
562.443115	1513.711914	14463.792969	4915.180176	26.265999
562.787048	1512.609131	14476.474609	4923.340332	26.309525
563.130920	1517.020142	14514.077148	4936.683594	26.311062
563.474792	1519.997437	14593.033203	4943.519531	26.187658
563.818604	1519.887085	14671.437500	4971.859863	26.247646
564.162354	1516.689209	14778.511719	4998.766602	26.256403
564.506042	1522.202881	14880.733398	5024.019043	26.214083
564.849731	1525.290405	14948.110352	5041.442383	26.195328
565.193420	1526.723999	15022.654297	5057.431152	26.161272
565.537048	1527.054688	15072.498047	5062.503906	26.100653
565.880615	1524.959595	15111.315430	5067.576660	26.074816
566.224121	1526.723877	15117.048828	5074.744629	26.106960
566.567627	1533.781372	15125.760742	5072.208496	26.033201
566.911072	1532.788940	15127.083008	5072.098145	26.035255
567.254517	1536.758789	15147.593750	5085.221191	26.070866
567.597839	1535.104858	15172.957031	5084.668945	26.027294
567.941223	1534.002075	15221.255859	5095.145020	26.017952
568.284485	1532.678833	15281.576172	5106.061523	25.990322
568.627808	1534.663696	15341.895508	5117.419922	25.948404
568.970947	1535.876709	15414.675781	5139.583984	25.965555
569.314148	1538.633545	15486.792969	5161.749023	25.975582
569.657288	1534.774048	15551.301758	5174.761230	25.969252
570.000366	1534.112305	15612.943359	5192.184570	25.982784
570.343445	1532.348022	15662.568359	5207.732910	26.010809
570.686462	1528.378174	15679.879883	5217.216309	26.066761
571.029419	1526.723999	15675.358398	5208.504883	26.022163
571.372314	1526.613770	15632.462891	5197.697754	26.025259
571.715210	1521.651367	15592.434570	5193.287109	26.094040
572.058105	1520.989990	15575.562500	5178.731445	26.025278
572.400879	1521.872070	15552.845703	5172.225098	26.016392
572.743713	1518.563843	15550.087891	5172.225098	26.038946
573.086426	1520.328125	15549.425781	5171.122559	26.023016
573.429077	1521.982178	15559.351563	5166.932129	25.966047
573.771790	1517.902100	15557.585938	5168.035156	25.998684
574.114441	1517.571289	15556.593750	5162.190918	25.960636
574.457031	1516.248047	15535.863281	5156.015625	25.961966
574.799561	1519.115112	15488.666992	5150.833008	25.997383
575.142029	1518.674072	15425.588867	5130.211914	25.969368
575.484436	1520.438477	15341.343750	5110.472656	25.975391
575.826904	1518.674194	15231.954102	5093.490723	26.068281
576.169250	1519.666626	15101.721680	5058.313965	26.053844
576.511597	1518.012573	14939.840820	5021.704102	26.104427
576.853943	1521.320679	14764.176758	4984.541504	26.151613
577.196167	1524.518555	14579.801758	4940.983887	26.169216
577.538391	1523.526123	14387.044922	4893.457031	26.197582
577.880554	1526.503296	14197.925781	4846.921875	26.203991
578.222717	1527.606079	14013.992188	4804.135742	26.240818
578.564819	1527.936890	13843.730469	4756.607910	26.215694
578.906860	1531.906860	13668.176758	4709.411621	26.181890
579.248901	1529.039795	13486.114258	4677.763184	26.333561
579.590942	1528.488525	13311.665039	4637.182617	26.382479
579.932861	1530.473267	13130.047852	4601.344727	26.474003
580.274780	1531.576050	12965.851563	4562.087402	26.503746
580.616638	1528.929443	12799.669922	4523.050781	26.565437
580.958496	1528.267822	12642.088867	4488.314941	26.633928
581.300232	1525.400757	12493.443359	4462.621582	26.779806
581.641968	1525.841919	12354.940430	4428.436523	26.803659
581.983704	1524.187744	12222.283203	4399.766602	26.879353
582.325317	1525.841919	12101.534180	4378.483398	26.973568
582.666992	1527.275391	11995.232422	4356.319336	27.025751
583.008606	1529.591187	11896.317383	4335.698242	27.068399
583.350098	1530.693970	11814.714844	4320.921875	27.131685
583.691589	1529.039917	11735.871094	4299.308105	27.141314
584.033081	1530.473511	11675.662109	4286.295410	27.163830
584.374512	1529.150146	11635.742188	4268.651367	27.106083
584.715881	1530.804199	11580.606445	4260.601563	27.162697
585.057190	1531.245361	11526.683594	4253.875000	27.238722
585.398499	1526.613770	11487.756836	4243.729980	27.277155
585.739807	1531.355469	11463.937500	4236.672852	27.236799
586.081055	1531.134888	11458.313477	4232.261719	27.209412
586.422180	1532.347900	11440.449219	4227.189453	27.198364
586.763367	1531.134888	11435.597656	4226.417480	27.212811
587.104431	1532.237671	11436.257813	4215.720703	27.094885
587.445496	1529.370483	11437.471680	4219.800781	27.153841
587.786499	1529.039795	11440.559570	4226.307129	27.213459
588.127502	1532.237671	11449.160156	4232.372070	27.227541
588.468445	1533.340332	11450.815430	4229.725586	27.188225
588.809326	1533.560913	11456.659180	4235.239746	27.226160
589.150208	1536.207520	11464.377930	4231.711426	27.150059
589.491028	1537.751343	11463.717773	4227.189941	27.094978
589.831848	1533.450562	11459.858398	4222.117188	27.085997
590.172546	1529.591187	11462.835938	4215.170410	27.036272
590.513245	1527.385620	11457.653320	4218.588379	27.101007
590.853943	1526.723999	11469.452148	4215.500977	27.042646
591.194458	1523.084961	11473.973633	4217.705566	27.079195
591.535095	1526.282837	11476.620117	4217.705566	27.048559
591.875610	1528.819214	11484.891602	4220.241699	27.032974
592.216125	1524.739014	11512.017578	4227.520508	27.062243
592.556580	1528.819214	11542.123047	4231.048828	26.986393
592.897034	1527.385620	11559.435547	4240.642578	27.045887
593.237366	1524.408203	11564.838867	4248.582031	27.132042
593.577698	1529.260254	11603.103516	4256.301270	27.070511
593.918030	1530.252686	11650.410156	4266.666992	27.039248
594.258301	1531.686401	11705.215820	4289.052734	27.103340
594.598511	1533.450684	11771.158203	4306.585938	27.087465
594.938721	1535.325317	11857.501953	4329.743164	27.071983
595.278809	1534.443115	11935.464844	4353.341309	27.102129
595.618958	1537.861328	11997.327148	4363.927246	27.019218
595.958984	1535.876587	12031.291016	4370.543945	27.008629
596.299011	1534.663574	12048.934570	4380.248047	27.064020
596.638977	1534.112305	12065.916992	4382.563477	27.046183
596.978943	1536.317749	12067.018555	4387.525879	27.075195
597.318848	1538.302490	12054.998047	4383.997559	27.058834
597.658630	1541.720947	12036.031250	4373.741699	26.986248
597.998474	1541.941650	12002.398438	4369.110352	27.027201
598.338257	1541.610718	11959.060547	4359.957520	27.054092
598.677979	1536.648438	11904.476563	4359.406738	27.226130
599.017700	1535.986938	11873.490234	4345.953613	27.182259
599.357361	1536.317749	11823.316406	4330.846191	27.165632
599.696960	1537.530640	11767.958984	4312.981934	27.129374
600.036560	1535.104736	11732.892578	4304.601074	27.157814
600.376038	1537.420532	11709.957031	4295.007813	27.108160
600.715576	1535.215088	11680.955078	4292.140137	27.173227
601.055054	1530.473267	11653.055664	4293.573730	27.296402
601.394409	1530.142456	11614.680664	4281.223145	27.280184
601.733826	1529.260376	11593.729492	4271.850098	27.250219
602.073120	1523.195435	11560.426758	4265.564941	27.321972
602.412415	1519.335693	11560.868164	4254.096191	27.234493
602.751587	1515.366089	11583.473633	4262.256348	27.283083
603.090820	1516.578979	11618.099609	4271.188477	27.269255
603.429993	1518.563843	11665.185547	4281.994629	27.234982
603.769104	1517.902100	11700.142578	4295.227539	27.276173
604.108154	1517.240479	11724.841797	4305.923828	27.319674
604.447205	1517.571289	11761.012695	4322.244141	27.380182
604.786194	1516.358276	11777.001953	4332.168457	27.442822
605.125183	1519.666504	11801.591797	4336.579590	27.396746
605.464111	1522.423340	11833.351563	4336.910156	27.296156
605.802979	1524.849121	11869.520508	4333.822754	27.153820
606.141846	1523.415527	11894.111328	4342.203613	27.180319
606.480652	1525.621338	11927.525391	4353.892578	27.189938
606.819336	1524.187622	11986.520508	4376.608398	27.263718
607.158020	1522.202759	12036.363281	4390.503418	27.280361
607.496765	1518.453491	12074.296875	4400.538086	27.303213
607.835388	1515.255615	12102.967773	4409.250000	27.333521
608.173950	1520.328369	12105.945313	4403.295410	27.234756
608.512512	1522.313110	12089.955078	4402.854492	27.258131
608.851013	1523.415771	12038.128906	4392.598633	27.287315
609.189514	1528.708862	11961.158203	4368.338379	27.219202
609.527893	1531.575928	11846.584961	4349.591797	27.319569
609.866333	1536.428101	11725.615234	4320.589844	27.324667
610.204712	1538.082153	11597.809570	4291.368164	27.369390
610.542969	1536.317749	11477.282227	4258.837402	27.386873
610.881226	1535.545898	11375.941406	4236.893066	27.451612
611.219482	1536.538330	11296.544922	4208.222656	27.373796
611.557678	1534.774048	11222.221680	4185.176270	27.359140
611.895813	1534.001953	11170.172852	4166.209473	27.315907
612.233948	1529.370605	11119.116211	4159.923828	27.430895
612.571960	1530.693848	11067.949219	4146.360352	27.425777
612.910034	1530.693848	11004.432617	4136.104492	27.501400
613.247986	1530.032227	10945.435547	4123.423340	27.544132
613.585938	1525.510986	10878.611328	4100.045898	27.526005
613.923828	1526.723877	10775.286133	4075.233887	27.555742
614.261658	1528.708740	10655.861328	4046.453125	27.585213
614.599487	1530.583374	10533.898438	4019.325928	27.642513
614.937317	1532.899170	10426.493164	3986.134033	27.584291
615.275024	1529.921753	10327.688477	3965.512695	27.684195
615.612732	1525.951904	10242.007813	3943.458008	27.736240
615.950378	1524.297852	10159.083008	3921.403564	27.761034
616.288025	1523.856812	10087.185547	3901.003418	27.759607
616.625549	1523.415649	10036.679688	3888.101563	27.776493
616.963074	1522.092407	9979.669922	3876.522705	27.838116
617.300537	1521.761597	9949.125000	3870.347900	27.868580
617.638000	1521.761597	9913.396484	3864.283203	27.914961
617.975464	1523.636230	9882.080078	3852.703857	27.864849
618.312744	1525.952026	9843.483398	3852.924561	27.976723
618.650024	1523.746582	9816.908203	3844.212891	27.980476
618.987305	1523.526001	9787.244141	3836.824463	27.993433
619.324585	1529.370483	9754.933594	3827.230713	27.935598
619.661743	1528.267822	9729.902344	3825.356445	28.007692
619.998901	1531.465820	9711.817383	3821.276367	27.991590
620.336060	1534.001953	9686.896484	3817.747314	28.011467
620.673096	1539.184814	9661.203125	3814.108643	28.009340
621.010193	1538.633423	9631.980469	3810.690186	28.073139
621.347168	1535.766357	9616.762695	3809.146240	28.132421
621.684082	1534.773926	9601.544922	3813.997803	28.254477
622.020996	1535.545898	9580.703125	3808.704590	28.254993
622.357849	1540.397827	9554.568359	3799.772705	28.192251
622.694641	1540.397827	9528.212891	3798.890137	28.274218
623.031433	1541.941650	9508.142578	3798.780029	28.330170
623.368164	1542.162231	9502.850586	3805.396484	28.430134
623.704895	1541.059570	9505.497070	3804.404297	28.418137
624.041504	1537.971924	9534.609375	3806.389160	28.367138
624.378174	1534.663818	9550.929688	3808.373779	28.363705
624.714783	1534.994629	9583.019531	3817.085449	28.355911
625.051331	1531.906982	9605.955078	3827.230713	28.428413
625.387756	1531.024780	9641.573242	3831.090088	28.358938
625.724304	1531.906860	9667.598633	3839.470703	28.363462
626.060669	1535.656128	9673.332031	3846.307617	28.394487
626.397034	1532.678955	9680.831055	3851.821777	28.462193
626.733337	1532.568604	9681.161133	3849.947510	28.439007
627.069641	1527.716553	9676.640625	3851.380859	28.514984
627.405884	1528.267944	9668.479492	3846.418945	28.477772
627.742126	1527.937012	9663.517578	3846.198242	28.495338
628.078308	1523.526123	9658.775391	3841.015137	28.487007
628.414429	1523.526123	9645.101563	3830.098145	28.400551
628.750488	1524.959595	9631.758789	3822.378662	28.339409
629.086548	1526.062256	9595.479492	3819.401367	28.420134
629.422546	1523.526123	9564.051758	3816.864502	28.522245
629.758545	1525.069824	9526.228516	3809.476563	28.550949
630.094421	1524.187744	9472.195313	3796.134277	28.585108
630.430298	1525.290405	9417.831055	3781.247314	28.583408
630.766113	1526.282959	9351.777344	3763.383301	28.587336
631.101929	1529.260254	9271.388672	3749.268555	28.674393
631.437622	1531.575928	9189.014648	3730.080811	28.710709
631.773376	1529.149902	9111.272461	3712.216797	28.792292
632.109070	1529.149902	9044.116211	3691.485596	28.773724
632.444641	1525.510864	8975.857422	3674.172607	28.839754
632.780273	1528.378052	8906.606445	3657.521240	28.857103
633.115784	1525.069946	8849.706055	3646.714355	28.965868
633.451294	1521.872070	8788.946289	3632.489258	29.043562
633.786682	1520.438477	8727.304688	3619.035645	29.119413
634.122131	1521.982178	8668.307617	3603.708008	29.130018
634.457458	1520.107666	8613.833008	3593.122314	29.223215
634.792847	1519.997314	8549.323242	3583.858887	29.360731
635.128113	1524.739136	8485.807617	3575.588623	29.461708
635.463318	1526.613770	8434.750000	3568.972412	29.564539
635.798584	1525.841919	8377.078125	3548.792480	29.526796
636.133728	1525.952148	8329.109375	3537.323730	29.565268
636.468872	1525.290527	8283.125000	3524.642090	29.585684
636.803955	1524.739136	8240.559570	3508.873535	29.544186
637.139038	1526.613770	8204.279297	3498.397705	29.528044
637.473999	1525.069946	8163.147949	3484.503662	29.518087
637.808899	1525.400757	8111.651855	3471.271240	29.544434
638.143799	1522.202759	8053.869141	3460.243652	29.671461
638.478638	1523.415771	7994.541504	3444.695313	29.690035
638.813538	1528.047363	7933.230469	3428.485107	29.670311
639.148315	1530.252808	7868.169434	3405.438232	29.586781
639.483032	1530.583496	7802.336914	3387.905029	29.614071
639.817749	1529.150024	7742.680176	3370.151123	29.628906
640.152405	1527.165161	7685.999023	3348.647949	29.575125
640.487000	1529.480835	7628.216309	3328.137207	29.492285
640.821594	1528.819214	7575.727539	3316.668457	29.566338
641.156128	1528.598511	7530.735840	3303.105225	29.564581
641.490662	1528.267822	7483.979980	3290.313721	29.585815
641.825134	1524.959595	7437.886230	3270.685303	29.523886
642.159546	1522.092651	7393.886719	3255.467285	29.520359
642.493896	1519.666626	7349.887695	3237.052002	29.456608
642.828186	1517.902222	7319.563477	3228.340332	29.481869
643.162537	1516.358398	7284.606934	3222.937012	29.585733
643.496765	1515.696777	7244.688477	3209.704346	29.569035
643.830994	1516.027588	7218.002441	3200.000488	29.533154
644.165100	1513.380981	7196.499023	3192.722168	29.549644
644.499268	1510.293457	7173.011230	3189.965088	29.661934
644.833313	1509.301025	7158.014160	3185.223633	29.669106
645.167358	1515.035156	7139.157715	3182.246338	29.643934
645.501343	1513.491211	7132.981934	3178.497070	29.629124
645.835327	1509.962524	7123.058105	3171.770508	29.605909
646.169189	1508.529053	7114.456055	3177.394775	29.769667
646.503052	1512.057617	7104.311035	3181.364258	29.850340
646.836914	1513.932251	7088.541504	3181.694824	29.917120
647.170654	1516.578979	7080.492676	3182.135742	29.934986
647.504395	1517.461182	7083.359375	3183.569580	29.934221
647.838074	1520.107666	7085.785156	3185.333740	29.919556
648.171753	1518.563965	7084.130859	3185.664551	29.953833
648.505371	1519.666626	7081.926270	3182.245850	29.890356
648.838928	1519.666626	7087.440430	3188.090332	29.965723
649.172424	1521.982300	7097.144531	3191.950439	29.953714
649.505920	1522.754150	7098.687500	3200.551270	30.089977
649.839294	1523.526245	7092.181641	3204.080322	30.178814
650.172729	1525.070068	7090.195801	3200.662109	30.108789
650.506104	1525.731567	7093.063965	3199.669678	30.067148
650.839355	1524.959595	7090.638184	3196.251221	30.028532
651.172668	1528.157593	7082.256836	3193.604492	29.985905
651.505859	1533.671265	7068.252441	3191.840332	29.960155
651.839111	1538.082153	7056.342773	3192.942627	29.988806
652.172241	1535.876709	7041.786621	3186.547363	29.979979
652.505371	1535.435547	7022.710449	3181.584717	29.999393
652.838379	1536.648560	7007.603516	3181.805176	30.070740
653.171387	1536.758789	6991.062500	3179.048340	30.109976
653.504333	1537.310181	6964.927734	3168.462402	30.052820
653.837280	1534.001953	6946.622559	3165.374512	30.140162
654.170227	1533.781494	6934.712891	3161.073975	30.129848
654.503052	1535.214966	6922.582520	3158.317383	30.127932
654.835876	1537.751221	6907.695801	3152.252197	30.065506
655.168579	1542.713379	6891.927246	3145.745850	29.967627
655.501343	1541.279907	6883.436035	3143.871338	29.998962
655.833984	1544.477783	6877.039551	3141.886475	29.955748
656.166626	1543.044312	6878.804199	3141.886475	29.964659
656.499268	1544.588013	6896.999023	3140.452637	29.815807
656.831787	1545.580444	6924.126465	3151.700439	29.861603
657.164307	1540.287598	6959.083496	3164.051270	29.965397
657.496765	1539.625854	6995.473145	3176.511963	30.002419
657.829224	1541.059448	7031.642090	3191.619385	30.061655
658.161621	1538.302612	7066.819336	3203.529053	30.120674
658.493958	1535.986938	7092.732910	3206.616455	30.064888
658.826233	1532.568604	7112.912109	3211.909668	30.093864
659.158508	1530.032227	7145.002441	3216.982422	30.043797
659.490723	1530.914429	7156.470215	3222.495605	30.069584
659.822876	1531.576050	7165.181641	3223.708984	30.036411
660.154968	1531.245239	7168.710449	3219.628662	29.949335
660.487061	1529.921875	7173.231934	3217.092529	29.896828
660.819153	1531.906860	7170.034180	3215.989990	29.869547
661.151123	1530.473267	7159.007324	3210.145508	29.842091
661.483093	1531.134888	7142.245605	3206.947510	29.865969
661.815002	1528.708740	7124.049805	3202.757080	29.918613
662.146851	1524.077393	7100.892090	3197.463867	30.006136
662.478760	1521.320557	7082.146484	3194.266113	30.084478
662.810486	1519.666504	7055.461426	3186.877686	30.116924
663.142212	1519.004883	7017.968750	3176.071533	30.134161
663.473938	1521.430908	6967.243164	3167.469971	30.225775
663.805603	1521.320557	6898.985352	3148.172363	30.252010
664.137207	1523.967041	6828.961914	3125.676270	30.192472
664.468689	1525.400635	6759.269531	3106.268555	30.204575
664.800293	1526.172607	6684.834961	3087.411865	30.264421
665.131775	1529.921875	6612.826660	3069.327148	30.285936
665.463196	1529.480713	6554.823730	3061.277100	30.481430
665.794617	1531.906860	6497.812500	3046.831543	30.506514
666.125916	1537.530640	6446.314941	3035.473389	30.515554
666.457275	1537.971802	6413.785156	3026.430908	30.527401
666.788574	1536.979370	6383.789551	3019.925049	30.596323
667.119812	1539.295044	6353.906250	3015.844971	30.668102
667.450928	1540.397827	6330.308105	3010.772217	30.697327
667.782104	1540.177368	6313.988281	3006.912598	30.724619
668.113159	1540.397827	6295.461914	3004.707031	30.794731
668.444214	1535.876709	6287.633301	2998.862793	30.788321
668.775208	1536.758789	6277.928711	2997.429199	30.808228
669.106201	1540.067017	6267.453125	2997.649902	30.832745
669.437134	1543.044312	6245.729004	2991.916016	30.809460
669.768005	1546.904053	6219.263184	2985.630127	30.792282
670.098877	1548.999146	6209.559570	2986.623047	30.846588
670.429688	1548.227295	6190.813477	2984.306885	30.932753
670.760437	1550.101929	6188.717773	2975.815918	30.735764
671.091187	1550.542969	6176.477539	2969.971680	30.684151
671.421814	1549.109375	6162.472656	2962.472900	30.636293
671.752441	1546.573120	6143.506836	2953.430908	30.604265
672.083008	1542.934204	6130.383789	2946.483643	30.595419
672.413574	1544.367798	6119.577148	2935.456055	30.404909
672.744080	1539.846558	6102.816406	2933.802246	30.549309
673.074524	1536.758911	6089.362793	2929.281250	30.587381
673.404968	1535.876709	6066.977539	2928.840088	30.742275
673.735352	1536.869019	6040.401855	2922.003174	30.756613
674.065613	1533.560913	6016.141602	2922.003418	30.974178
674.395935	1531.355469	6001.144531	2922.444092	31.122019
674.726196	1528.819214	5980.192871	2914.283936	31.124432
675.056335	1529.150024	5964.313965	2908.108398	31.091486
675.386536	1531.796509	5940.384766	2908.218994	31.221388
675.716614	1528.929443	5925.387695	2900.720459	31.202187
676.046692	1526.503296	5913.808594	2899.507324	31.294930
676.376770	1526.834229	5913.698730	2897.522217	31.245279
676.706726	1523.856812	5920.866699	2894.655273	31.175697
677.036621	1524.518555	5919.323242	2892.008545	31.116058
677.366516	1525.290405	5932.114746	2896.198975	31.108765
677.696411	1521.210327	5936.635254	2903.697510	31.310400
678.026184	1518.343384	5951.631836	2903.918213	31.253883
678.355957	1517.902100	5965.967285	2914.173584	31.390533
678.685669	1519.997314	5992.542969	2921.010498	31.324736
679.015320	1519.666626	6014.707520	2925.311279	31.271008
679.344971	1521.210449	6027.168945	2931.155518	31.290680
679.674561	1522.313232	6048.010254	2929.612061	31.095736
680.004150	1517.240723	6064.110352	2931.045410	31.094023
680.333618	1518.453735	6078.115234	2932.147949	31.004366
680.663086	1517.791992	6094.435059	2936.117676	30.990524
680.992493	1519.997437	6107.778320	2933.361328	30.807137
681.321899	1521.761719	6110.093750	2932.920166	30.755369
681.651184	1523.746704	6108.219238	2934.243408	30.766825
681.980530	1526.393188	6103.146973	2932.919922	30.731972
682.309753	1526.723999	6094.655762	2927.847412	30.673038
682.638977	1527.385498	6081.533691	2930.604248	30.811880
682.968079	1528.929199	6066.426270	2924.760010	30.762131
683.297241	1531.024414	6046.797852	2923.105957	30.827089
683.626343	1532.678589	6027.499512	2926.303955	31.005136
683.955383	1530.803955	5996.403320	2923.326660	31.183331
684.284363	1533.340332	5959.351563	2914.835693	31.213100
684.613281	1533.119751	5924.835938	2903.367432	31.200733
684.942139	1531.355469	5886.681641	2901.713135	31.463951
685.271057	1532.348022	5854.041016	2888.480469	31.379658
685.599792	1529.260376	5815.224121	2881.092285	31.540907
685.928589	1530.363037	5784.348633	2875.248047	31.614708
686.257324	1527.716553	5753.692871	2866.756592	31.685932
686.585999	1528.488525	5724.580566	2861.794434	31.774946
686.914612	1531.024780	5680.582031	2856.611572	31.945259
687.243164	1531.024780	5642.647949	2846.576660	31.995926
687.571777	1531.245117	5601.516602	2838.637207	32.120514
687.900269	1530.363037	5560.385254	2831.249023	32.279873
688.228699	1528.378052	5526.420898	2825.514648	32.444290
688.557129	1530.362915	5496.758301	2818.236816	32.469627
688.885498	1526.393188	5467.314941	2811.840820	32.617943
689.213867	1525.510986	5442.834473	2808.532715	32.752510
689.542114	1524.628906	5421.772461	2797.615967	32.664619
689.870361	1523.636475	5396.079102	2787.250244	32.630924
690.198608	1522.313110	5375.126465	2778.759033	32.611126
690.526794	1522.533813	5343.258301	2763.431152	32.478062
690.854858	1522.313110	5320.982910	2752.514160	32.385048
691.182922	1516.248169	5299.259277	2742.810059	32.422897
691.510986	1516.358398	5276.433105	2737.296387	32.471111
691.838928	1521.320679	5241.477051	2729.136230	32.466797
692.166931	1522.974731	5200.455566	2720.976074	32.576683
692.494812	1526.282837	5167.484375	2712.154297	32.568134
692.822632	1525.841797	5120.288086	2702.229736	32.727932
693.150452	1527.495850	5083.236328	2695.613281	32.851593
693.478149	1525.952148	5042.655762	2686.019775	32.987358
693.805908	1527.826782	5017.734375	2678.080078	32.959419
694.133606	1527.606079	4996.671875	2669.258301	32.909500
694.461243	1529.039673	4976.712402	2664.737061	32.940987
694.788818	1530.583496	4963.038086	2655.253906	32.765778
695.116333	1532.458130	4961.714844	2657.238770	32.799545
695.443848	1532.347900	4954.547363	2659.664551	32.941292
695.771301	1534.663452	4967.780273	2665.950195	32.952179
696.098755	1536.869019	4989.614258	2671.794434	32.870235
696.426147	1538.302612	5020.049316	2678.852051	32.757969
696.753418	1537.751343	5064.489258	2691.974365	32.727779
697.080688	1537.530640	5103.635742	2706.750977	32.787041
697.407898	1537.199829	5152.597168	2728.033691	32.937840
697.735107	1537.310059	5187.553223	2739.060791	32.922485
698.062317	1540.066895	5222.729980	2750.308350	32.863213
698.389404	1541.831421	5252.503906	2761.004883	32.855865
698.716492	1540.949097	5280.292480	2767.841797	32.810379
699.043457	1536.427979	5295.730957	2780.302490	33.087902
699.370483	1534.884155	5303.449219	2784.272217	33.152885
699.697388	1536.207397	5314.476563	2783.610596	33.015202
700.024292	1536.648438	5318.777832	2783.831299	32.975677
700.351135	1538.192261	5310.507324	2785.595703	33.067318
700.677917	1537.309937	5302.567383	2782.948975	33.082439
701.004639	1538.192139	5290.989258	2780.522949	33.104130
701.331299	1538.853760	5274.338379	2773.575928	33.053867
701.658020	1535.876465	5256.915039	2774.017090	33.274059
701.984619	1535.435303	5223.171387	2760.453613	33.218708
702.311218	1537.640747	5193.177246	2749.757324	33.158375
702.637756	1539.074341	5146.642578	2735.311768	33.159107
702.964233	1536.207275	5091.506348	2716.124512	33.187565
703.290649	1532.678711	5023.027344	2700.245117	33.451283
703.617065	1532.237671	4950.688477	2683.373535	33.674198
703.943481	1531.024658	4864.344727	2661.429199	33.912270
704.269775	1528.708862	4791.344238	2638.492676	34.014954
704.596008	1528.267822	4730.583984	2622.282471	34.163231
704.922241	1525.510986	4663.869141	2601.551025	34.286720
705.248474	1526.503418	4603.991211	2581.150391	34.269737
705.574585	1524.959717	4556.352539	2567.697266	34.397968
705.900696	1525.400757	4518.529297	2554.464355	34.380871
706.226746	1526.503540	4489.969238	2544.429443	34.349171
706.552734	1525.621338	4460.085449	2540.239258	34.575920
706.878723	1523.526245	4434.391602	2534.063965	34.716061
707.204651	1522.533813	4421.049316	2526.896484	34.650932
707.530518	1526.282959	4410.683105	2526.676025	34.682880
707.856323	1523.526123	4401.089844	2528.881592	34.937733
708.182068	1521.761719	4400.096680	2528.550537	34.978168
708.507813	1526.282837	4397.781250	2528.991699	34.919357
708.833496	1525.841797	4395.465332	2529.212158	34.965225
709.159180	1522.092407	4407.264648	2532.961426	35.036694
709.484802	1519.335693	4415.645020	2539.246826	35.214165
709.810303	1521.982178	4421.489746	2547.186279	35.357868
710.135864	1522.643799	4431.855469	2548.289307	35.255100
710.461304	1523.415771	4434.281738	2552.920654	35.367649
710.786743	1522.754150	4447.514648	2556.118408	35.331585
711.112122	1522.974731	4447.183594	2558.655029	35.417450
711.437500	1524.739136	4451.043457	2561.852783	35.441074
711.762817	1526.723999	4454.351074	2562.624512	35.383625
712.088013	1525.952148	4456.335938	2569.461670	35.609997
712.413269	1532.017090	4455.343262	2572.218262	35.582794
712.738403	1533.009521	4461.628906	2570.233398	35.416821
713.063538	1530.142578	4457.989746	2568.910156	35.478886
713.388611	1526.282959	4458.431152	2566.814941	35.487019
713.713623	1523.085083	4456.666992	2565.602051	35.537338
714.038574	1522.533691	4455.343750	2566.373779	35.591808
714.363525	1517.571411	4444.757813	2565.602051	35.803345
714.688477	1518.784424	4438.692871	2564.388916	35.809494
715.013306	1518.233032	4424.467285	2560.860352	35.875542
715.338135	1517.240479	4405.832031	2559.316650	36.075581
715.662842	1516.799438	4392.268066	2554.244141	36.079151
715.987549	1514.704346	4365.250977	2545.201660	36.150867
716.312195	1515.586548	4337.020996	2536.600342	36.187756
716.636841	1510.072876	4309.893555	2526.014404	36.285950
716.961426	1512.940063	4277.473633	2520.721191	36.453930
717.285950	1510.624390	4246.596680	2511.568604	36.584591
717.610474	1510.513916	4219.910645	2499.658936	36.507942
717.934937	1511.616699	4188.042480	2496.020020	36.780521
718.259277	1510.293579	4158.048828	2483.118408	36.741493
718.583679	1511.065308	4126.400391	2474.848145	36.851219
718.908020	1511.506470	4098.060059	2466.136230	36.907402
719.232239	1507.205811	4065.860107	2457.204346	37.128834
719.556519	1505.882568	4031.344971	2448.713135	37.332989
719.880737	1508.529053	4001.350830	2446.948730	37.644875
720.204834	1513.270752	3963.527588	2441.214355	37.871281
720.528931	1516.248047	3929.343262	2435.590576	38.098064
720.852966	1519.335693	3900.341797	2429.084473	38.208588
721.176941	1523.305542	3871.340088	2416.733643	38.050037
721.500916	1525.069824	3841.566650	2405.044922	37.987320
721.824829	1525.510986	3815.542480	2397.766846	38.089252
722.148743	1523.967041	3794.039063	2391.922607	38.234715
722.472534	1524.849243	3771.322266	2387.952637	38.420376
722.796326	1528.047241	3750.590820	2384.424072	38.531387
723.119995	1527.716553	3727.654297	2380.675049	38.771938
723.443665	1531.796631	3714.201172	2379.241455	38.830784
723.767334	1531.686279	3707.695801	2379.241455	38.949974
724.090942	1534.774048	3705.820801	2372.735596	38.597118
724.414551	1535.435547	3699.424561	2375.051270	38.799446
724.737976	1536.207520	3699.755615	2368.214355	38.455666
725.061462	1539.405396	3692.477783	2372.184082	38.678623
725.384888	1539.405518	3692.257324	2376.264404	38.872108
725.708252	1540.949341	3693.801270	2374.169189	38.703072
726.031616	1539.736206	3705.379883	2376.264160	38.627224
726.354858	1541.390381	3719.053223	2381.446533	38.576042
726.678162	1537.751343	3719.604980	2386.519043	38.901222
727.001404	1536.317749	3735.263428	2394.017822	39.005058
727.324463	1538.964355	3741.769775	2398.318604	39.011810
727.647583	1536.758911	3746.511230	2399.311035	39.033882
727.970642	1536.648682	3750.922363	2400.303223	39.003967
728.293701	1536.758789	3754.451172	2404.052734	39.107944
728.616699	1534.002075	3762.831543	2409.786865	39.293484
728.939575	1531.465820	3774.961670	2409.235596	39.125092
729.262512	1528.929443	3786.760742	2413.205322	39.164833
729.585266	1530.473267	3800.875732	2415.080078	38.962559
729.908142	1531.796631	3818.629883	2415.410889	38.639210
730.230896	1532.678711	3826.128418	2420.373047	38.705639
730.553467	1533.450562	3835.611572	2424.673828	38.712463
730.876160	1534.773926	3837.927002	2435.701172	39.117123
731.198792	1536.097290	3846.527832	2437.244873	39.003445
731.521362	1536.758911	3854.026855	2440.001709	38.978779
731.843872	1535.656128	3861.084473	2442.317383	38.989002
732.166321	1532.678711	3866.487793	2445.184326	39.099411
732.488770	1532.017212	3865.495117	2449.595215	39.322334
732.811157	1530.032227	3856.783447	2448.382080	39.469189
733.133484	1528.378174	3843.440918	2444.191895	39.558914
733.455811	1530.693848	3832.854248	2438.237305	39.421383
733.778015	1531.576172	3824.032715	2431.841553	39.270771
734.100281	1528.157593	3820.725098	2426.327637	39.177475
734.422424	1527.385742	3806.279053	2422.578613	39.281914
734.744507	1525.511108	3792.605713	2422.137695	39.549587
735.066589	1524.077515	3784.444824	2415.190430	39.423370
735.388611	1525.511108	3774.409912	2412.102539	39.423355
735.710571	1528.598755	3754.340820	2407.471436	39.486725
736.032532	1531.576172	3740.666748	2402.950195	39.444920
736.354431	1531.024780	3725.558838	2402.619141	39.716599
736.676270	1527.165161	3713.097900	2404.714355	40.145298
736.998108	1525.070068	3704.386475	2403.832275	40.322838
737.319824	1523.967407	3695.013428	2397.656982	40.242798
737.641541	1519.225586	3684.647949	2394.018311	40.398251
737.963135	1520.107788	3675.936768	2393.687256	40.521740
738.284790	1520.218018	3657.190430	2388.063232	40.610970
738.606323	1518.894775	3644.950439	2386.960693	40.829876
738.927856	1519.776978	3628.299072	2381.115967	40.850368
739.249390	1520.659180	3611.537598	2376.925781	40.952480
739.570740	1524.518677	3597.863770	2373.837891	40.963715
739.892212	1525.731567	3585.733643	2373.617432	41.159470
740.213562	1527.385620	3582.977051	2369.096191	40.947369
740.534790	1527.054810	3572.390625	2366.890625	41.061024
740.856079	1529.701416	3558.496582	2367.552490	41.297962
741.177246	1532.458130	3555.850098	2370.860596	41.435493
741.498413	1534.222534	3552.652588	2369.537598	41.384396
741.819580	1531.245117	3538.096436	2368.875977	41.738560
742.140625	1531.796509	3528.392578	2362.590332	41.610512
742.461670	1531.796509	3519.239502	2362.590332	41.802147
742.782654	1530.032104	3500.052002	2363.803223	42.322979
743.103577	1527.275146	3486.708984	2357.738281	42.382813
743.424438	1528.488159	3469.396484	2352.886230	42.474857
743.745300	1528.929443	3453.737305	2340.425293	42.159836
744.066101	1529.260132	3436.093750	2335.683594	42.291233
744.386902	1534.442871	3418.780762	2329.287842	42.181660
744.707581	1532.899048	3395.182617	2320.686279	42.302216
745.028198	1531.906616	3382.722168	2321.127441	42.641788
745.348816	1530.693726	3369.268555	2310.872070	42.433865
745.669373	1530.583374	3360.998535	2311.754395	42.677258
745.989929	1529.921753	3352.176758	2307.453613	42.668663
746.310364	1530.804077	3345.119141	2309.218262	42.904026
746.630798	1530.583496	3336.958740	2307.895020	43.031563
746.951172	1528.378052	3327.034180	2306.461182	43.259136
747.271545	1526.393066	3320.858887	2303.483887	43.304855
747.591858	1525.621216	3316.999268	2299.293457	43.188663
747.912109	1525.621216	3315.676025	2295.654541	43.017303
748.232300	1522.533569	3319.976563	2294.662109	42.957054
748.552429	1526.834229	3321.961426	2297.749756	42.944897
748.872559	1528.267822	3316.889160	2301.940186	43.255234
749.192627	1528.488403	3319.645752	2303.153320	43.249405
749.512695	1530.362915	3321.299805	2294.000732	42.639011
749.832642	1533.781494	3316.337891	2296.867676	42.808529
750.152588	1536.538208	3315.455322	2295.434326	42.660568
750.472473	1537.310181	3308.948975	2297.639648	42.916733
750.792358	1538.854126	3300.789551	2301.719971	43.297039
751.112122	1539.515747	3296.157715	2296.867920	43.113632
751.431824	1540.397827	3291.968018	2297.970703	43.251072
751.751587	1542.162109	3293.952393	2292.567139	42.836464
752.071228	1546.021606	3284.909912	2296.647217	43.166981
752.390869	1547.786133	3282.925537	2294.331543	43.025097
752.710327	1550.542847	3281.712402	2291.023438	42.773430
753.029846	1546.793579	3276.198730	2286.612305	42.778797
753.349304	1546.793579	3271.787598	2283.855713	42.728386
753.668762	1546.793579	3271.125732	2284.076172	42.757572
753.988098	1547.786011	3263.627197	2286.281738	43.039864
754.307434	1547.786011	3258.113770	2283.635010	43.023857
754.626770	1548.006470	3243.006348	2281.870605	43.295822
754.946045	1548.557861	3226.465820	2285.178955	43.901161
755.265259	1546.462646	3212.791748	2288.156006	44.510616
755.584351	1544.698242	3212.901855	2288.266357	44.572983
755.903442	1543.816162	3206.836670	2287.384033	44.711887
756.222534	1541.059204	3204.521484	2294.220947	45.276756
756.541565	1536.097046	3203.859863	2289.038086	45.146770
756.860535	1534.553223	3199.559082	2289.148438	45.320873
757.179443	1535.104614	3201.985107	2287.494629	45.137611
757.498291	1532.237549	3200.220703	2286.502197	45.220161
757.817139	1529.260254	3202.977295	2289.920654	45.447372
758.135925	1529.811523	3206.947510	2291.243896	45.400753
758.454651	1529.370483	3203.639160	2295.654785	45.768299
758.773376	1526.944580	3206.837158	2287.494629	45.273731
759.092041	1526.282959	3200.110596	2279.665283	45.009552
759.410645	1522.864502	3200.110596	2279.775391	45.128197
759.729187	1524.628784	3204.411133	2279.334473	44.928780
760.047607	1525.841797	3205.844971	2282.532471	45.041027
760.366089	1527.716431	3206.396240	2279.444580	44.780914
760.684509	1528.047119	3214.887207	2277.680176	44.440079
761.002869	1528.157471	3226.245117	2278.893311	44.210667
761.321228	1526.834229	3258.114258	2282.421875	43.643295
761.639465	1523.415771	3301.450928	2287.935547	42.998013
761.957642	1524.628784	3355.594971	2294.662109	42.056118
762.275879	1524.297974	3392.095215	2307.233154	41.917568
762.593994	1528.047241	3424.294678	2314.841797	41.492188
762.912109	1529.811646	3457.266357	2321.348145	41.066414
763.230103	1533.781494	3481.416016	2331.603516	40.963642
763.548157	1530.914429	3510.197266	2336.345459	40.693073
763.866150	1530.142578	3521.555176	2345.387451	40.938019
764.184021	1533.671265	3534.346680	2346.270020	40.616222
764.501892	1533.561157	3543.609863	2345.828857	40.410351
764.819702	1535.545898	3548.902832	2350.239746	40.464451
765.137451	1534.443115	3551.218262	2351.342529	40.505230
765.455200	1535.215088	3557.062988	2359.281982	40.758106
765.772888	1536.317749	3558.386230	2365.457275	41.004524
766.090515	1535.215088	3556.290527	2366.339355	41.122871
766.408081	1536.758789	3554.195313	2369.206299	41.262638
766.725586	1537.310181	3549.674805	2370.088623	41.383080
767.043091	1536.207397	3542.837891	2370.309082	41.567280
767.360535	1533.671143	3533.905518	2370.750244	41.849052
767.677917	1533.560791	3512.953613	2371.632324	42.339828
767.995239	1531.686157	3482.959473	2367.552246	42.836956
768.312500	1535.104614	3428.705322	2353.437500	43.215706
768.629822	1532.678711	3368.716797	2343.402832	44.156170
768.947021	1531.576050	3315.345703	2327.303223	44.609303
769.264160	1528.378174	3279.175537	2315.614258	44.964432
769.581299	1528.488281	3238.375000	2304.035645	45.356651
769.898376	1523.856812	3201.103027	2289.259033	45.634457
770.215393	1529.260132	3163.059082	2280.326904	45.970573
770.532349	1530.252563	3136.483643	2272.056396	46.182884
770.849304	1527.495850	3109.136230	2264.557861	46.601112
771.166199	1529.590942	3082.450195	2258.162109	46.918041
771.483032	1529.921753	3060.395264	2246.803955	46.840549
771.799866	1530.031982	3043.634033	2243.054688	47.107674
772.116577	1529.590942	3022.461670	2235.556152	47.289104
772.433350	1529.591064	3013.529541	2231.365723	47.291359
772.749939	1528.929443	2994.341797	2226.513672	47.603271
773.066589	1530.583374	2978.242188	2218.353516	47.509132
773.383057	1531.245117	2968.758545	2212.509277	47.391846
773.699646	1533.671021	2958.282959	2210.855225	47.534645
774.016113	1537.089478	2946.924561	2207.657471	47.563576
774.332520	1537.971680	2943.947266	2203.246582	47.317673
774.648804	1539.625610	2932.699463	2197.291748	47.209709
774.965149	1537.751099	2931.486328	2194.424561	47.116085
775.281433	1539.956543	2928.178223	2184.500244	46.429451
775.597656	1539.846313	2922.885010	2178.765625	46.196777
775.913879	1540.838867	2908.549561	2174.575439	46.335571
776.229980	1539.625854	2895.647949	2171.708252	46.612988
776.546082	1542.603149	2887.598145	2173.031738	46.872189
776.862122	1539.515503	2881.974121	2169.171875	46.903225
777.178162	1536.979248	2869.513428	2162.666260	46.954670
777.494141	1540.728516	2869.292725	2157.593262	46.430931
777.809998	1537.971680	2867.638672	2159.357666	46.732452
778.125854	1533.340332	2864.220215	2160.901611	47.153862
778.441711	1534.332642	2860.581299	2152.631348	46.620121
778.757446	1531.796509	2852.420898	2151.087646	46.893814
779.073181	1534.112183	2842.276123	2149.653809	47.053860
779.388855	1534.222412	2846.466309	2152.300293	47.100838
779.704468	1531.465576	2844.040283	2154.285400	47.450237
780.020020	1532.568359	2835.549561	2147.779297	47.215641
780.335571	1528.488403	2833.233887	2146.125244	47.337727
780.651062	1527.385620	2824.853271	2143.588867	47.492764
780.966553	1523.856934	2813.605225	2140.059814	47.776989
781.281860	1524.298096	2804.231934	2141.603760	48.229500
781.597290	1525.511108	2792.984131	2144.360596	48.825455
781.912476	1522.754272	2783.169922	2143.368408	49.238846
782.227722	1523.746704	2773.355713	2143.258301	49.576435
782.542908	1521.651611	2765.857178	2139.067627	49.623314
782.858093	1520.769409	2761.225586	2138.185547	49.773312
783.173218	1522.313232	2755.491455	2138.626709	49.977650
783.488281	1521.982422	2742.258789	2136.090332	50.325314
783.803345	1523.305664	2738.840332	2135.869873	50.394630
784.118225	1517.902100	2726.930908	2138.516357	51.331635
784.433167	1519.335693	2714.801025	2138.626953	51.803364
784.748047	1521.761719	2708.625732	2136.200439	51.769936
785.062866	1518.674072	2699.252441	2137.965332	52.456600
785.377686	1521.210327	2698.039551	2134.656982	52.127075
785.692444	1517.791870	2690.100098	2133.774902	52.544460
786.007141	1519.114990	2681.057861	2130.907715	52.652565
786.321716	1519.666504	2675.654297	2126.606934	52.504051
786.636353	1516.358276	2677.639160	2126.496582	52.540115
786.950928	1516.137695	2676.205566	2129.253418	52.851711
787.265442	1519.115112	2677.087891	2130.797363	52.823544
787.579834	1520.659058	2684.365967	2129.253418	52.297909
787.894226	1519.776978	2687.784424	2128.040527	52.077026
788.208618	1517.681885	2688.776611	2128.812500	52.184559
788.522949	1519.887207	2689.327881	2131.348877	52.286678
788.837219	1519.556396	2690.871582	2129.253662	52.052364
789.151367	1519.887329	2689.438232	2131.569580	52.300610
789.465515	1520.218140	2688.004639	2130.466797	52.256870
789.779602	1521.100220	2684.806641	2125.504395	51.937859
790.093689	1523.967407	2684.475830	2127.158447	51.976448
790.407776	1522.644043	2679.623779	2124.181152	51.992016
790.721741	1523.636475	2679.403076	2120.541992	51.645851
791.035645	1523.415771	2679.072266	2117.343994	51.393147
791.349548	1525.510986	2671.573730	2115.800293	51.505844
791.663391	1529.921875	2665.619141	2114.256348	51.451607
791.977173	1531.134888	2654.701904	2114.035645	51.879482
792.290894	1533.560791	2648.195801	2111.499512	51.850040
792.604614	1532.899170	2638.381592	2106.316650	51.870338
792.918274	1532.127319	2627.244141	2103.339355	52.159920
793.231812	1534.112305	2614.783447	2102.236572	52.571430
793.545410	1535.876587	2603.315186	2096.833252	52.551655
793.858948	1531.796387	2591.957275	2091.760742	52.818810
794.172363	1531.575928	2579.827148	2093.855957	53.639816
794.485840	1531.906738	2572.990234	2090.988770	53.701939
794.799194	1533.009521	2566.925293	2084.593018	53.348976
795.112488	1534.442871	2563.065674	2082.387695	53.269753
795.425781	1536.427856	2558.434326	2081.946533	53.377224
795.738953	1536.538086	2551.928223	2078.968994	53.420937
796.052185	1540.177124	2545.752930	2076.983887	53.383022
796.365234	1536.868896	2541.672852	2078.637939	53.917885
796.678284	1533.671143	2542.995850	2076.653076	53.796555
796.991333	1533.671021	2542.113770	2076.542969	53.832699
797.304382	1533.009521	2535.828369	2079.189453	54.464466
797.617310	1534.553345	2533.402588	2074.447998	54.051666
797.930115	1532.678711	2533.733154	2074.889160	54.163933
798.242981	1527.054810	2533.402588	2073.786133	54.328270
798.555786	1524.849365	2534.505127	2075.219727	54.510693
798.868530	1521.430908	2532.189697	2072.904053	54.560310
799.181213	1523.084961	2532.300293	2074.227051	54.610950
799.493896	1520.879517	2529.984619	2072.352783	54.649734
799.806519	1518.343262	2528.661377	2073.124756	54.911564
800.119080	1519.004883	2524.360596	2069.595703	54.765774
800.431580	1520.989868	2521.603516	2066.949463	54.562477
800.744080	1523.526123	2519.287842	2062.097168	54.086338
801.056458	1525.180298	2511.678955	2062.979248	54.515934
801.368835	1527.716309	2504.952393	2062.979248	54.773144
801.681152	1525.731567	2493.814697	2060.443115	55.234055
801.993408	1522.423218	2482.677002	2058.899414	55.868168
802.305664	1521.982178	2479.148193	2056.362793	55.829460
802.617798	1516.909668	2470.877930	2052.503418	56.143772
802.929993	1518.673950	2462.607422	2045.225586	55.782707
803.242065	1518.012329	2452.241943	2047.761963	56.704437
803.554016	1519.886963	2452.241699	2045.005249	56.321728
803.865967	1521.541138	2451.249512	2040.814941	55.853409
804.177979	1520.438477	2448.823730	2044.564209	56.455627
804.489807	1519.887207	2439.670898	2044.122925	56.995544
804.801697	1522.202881	2436.583252	2045.225586	57.199688
805.113464	1522.974854	2436.031738	2042.248291	56.871971
805.425232	1525.952148	2434.598145	2040.704590	56.650494
805.736938	1523.526123	2427.981689	2039.270996	57.022686
806.048584	1525.400879	2424.673584	2040.594116	57.289989
806.360168	1529.150146	2425.004395	2040.484009	57.077797
806.671753	1527.937134	2423.239990	2040.263184	57.223770
806.983276	1526.172729	2419.160156	2039.491211	57.483280
807.294739	1525.290405	2412.654053	2037.506348	57.723339
807.606140	1521.431030	2407.360840	2031.772339	57.605164
807.917542	1521.541260	2403.611816	2029.015381	57.532146
808.228760	1522.864624	2400.524170	2026.479370	57.381561
808.540100	1523.526245	2402.068115	2028.133423	57.436897
808.851318	1523.967407	2397.877686	2028.794800	57.766502
809.162476	1525.952148	2394.900146	2031.220947	58.147186
809.473633	1524.849487	2395.230957	2034.418945	58.545532
809.784668	1525.731689	2395.010498	2029.125732	57.909389
810.095703	1526.503540	2388.614502	2027.251099	58.083889
810.406738	1527.165161	2381.226074	2026.369019	58.450615
810.717590	1526.282959	2371.742676	2020.965576	58.510490
811.028503	1521.761841	2368.103760	2017.106201	58.527687
811.339294	1521.761841	2361.046387	2013.136353	58.546833
811.650085	1522.423462	2352.776123	2012.254150	58.990681
811.960876	1523.085083	2351.121826	2009.607544	58.756145
812.271545	1523.415894	2351.232178	2007.732910	58.505375
812.582153	1522.202881	2341.197266	2002.550171	58.650864
812.892761	1516.689209	2333.809326	1996.154419	58.677444
813.203308	1519.556396	2328.626221	1993.838501	58.620663
813.513855	1520.218018	2325.428467	1991.963867	58.586651
813.824280	1516.248291	2323.884766	1993.948608	59.147938
814.134705	1519.446045	2318.701904	1997.367188	59.795765
814.445068	1518.233032	2317.819580	1997.146606	59.895153
814.755371	1517.350952	2321.458740	1999.352173	59.942364
815.065613	1516.689209	2320.466064	1993.176880	59.281090
815.375854	1513.932373	2315.172852	1992.294800	59.702728
815.686035	1514.263184	2316.496094	1989.317505	59.216507
815.996155	1515.255737	2312.085205	1989.648193	59.535004
816.306152	1518.674194	2304.807373	1990.751099	60.050499
816.616211	1516.579102	2302.822266	1991.743652	60.434807
816.926208	1518.674316	2306.020508	1989.538086	59.803905
817.236145	1520.659058	2308.997803	1989.537964	59.476830
817.546021	1525.841797	2317.157959	1989.427856	58.584175
817.855774	1526.503540	2324.105225	1991.964111	58.357521
818.165588	1525.400879	2339.763916	1992.515259	57.359478
818.475281	1524.629028	2349.908936	2002.991089	57.963615
818.784973	1525.290527	2366.339600	2010.158691	57.650402
819.094604	1526.062500	2396.885010	2018.649780	56.565750
819.404175	1527.275513	2419.821533	2031.441650	56.486290
819.713684	1526.172729	2456.762939	2041.586548	55.385693
820.023254	1524.298096	2534.284180	2063.310303	53.368282
820.332642	1524.187866	2684.475342	2101.464600	49.752907
820.642090	1523.636475	2922.443848	2166.966553	45.991329
820.951416	1522.974854	3194.376465	2253.089355	43.682770
821.260681	1523.967285	3454.178467	2338.109619	42.178925
821.569946	1525.400879	3665.019775	2408.684082	41.282269
821.879150	1529.150024	3838.809082	2469.444092	40.711376
822.188293	1528.929443	3977.311768	2519.728271	40.467487
822.497437	1528.708862	4100.045410	2562.955322	40.222137
822.806458	1526.613647	4208.553711	2593.500977	39.780434
823.115479	1529.480835	4293.243164	2627.575195	39.731869
823.424438	1529.370483	4370.543945	2653.709961	39.573071
823.733337	1527.165039	4440.566895	2676.866943	39.462524
824.042236	1525.952148	4501.988770	2694.841553	39.276714
824.351013	1526.944458	4551.832031	2711.492676	39.160072
824.659790	1526.944458	4587.119141	2725.387207	39.162560
824.968445	1522.202881	4637.402832	2734.980957	38.930988
825.277100	1523.195313	4701.140625	2752.624512	38.686291
825.585693	1521.871826	4773.699707	2778.538330	38.644928
825.894287	1523.084961	4851.772949	2802.908691	38.448292
826.202820	1521.100098	4899.300781	2828.381592	38.697567
826.511292	1524.959595	4891.250977	2832.020752	38.827927
826.819702	1528.488281	4792.556641	2816.472168	39.459465
827.128113	1529.260376	4605.093750	2761.666748	40.067394
827.436401	1532.678711	4370.654297	2688.555908	40.728935
827.744751	1533.230103	4138.199707	2612.908936	41.446884
828.052917	1533.340210	3952.059082	2551.597412	42.099033
828.361145	1528.819092	3805.065918	2498.776855	42.612152
828.669312	1527.054688	3683.545410	2450.918457	42.841072
828.977356	1525.400635	3573.272705	2411.440918	43.266388
829.285400	1525.841675	3477.335938	2378.469238	43.691010
829.593384	1523.856812	3398.711426	2348.033936	43.959522
829.901306	1522.312988	3322.182373	2324.104980	44.547234
830.209167	1524.849243	3253.482178	2302.270752	44.973198
830.517029	1525.731323	3192.501465	2285.950439	45.610313
830.824829	1524.518311	3135.821533	2268.968750	46.201759
831.132568	1527.606079	3096.564453	2254.522949	46.331177
831.440247	1530.252563	3047.713623	2239.636230	46.748062
831.747925	1528.157471	2990.372070	2223.426270	47.549026
832.055481	1528.488159	2934.133301	2204.679932	48.105438
832.363037	1530.693604	2880.430176	2185.823242	48.537594
832.670532	1532.678589	2841.614502	2171.377686	48.795292
832.977966	1532.568359	2810.517578	2162.335449	49.279507
833.285400	1533.009521	2791.440674	2152.741699	49.246410
833.592712	1533.009399	2771.150391	2148.440918	49.706093
833.900085	1531.355347	2757.917725	2142.044922	49.788708
834.207275	1529.811523	2743.692627	2140.170410	50.281605
834.514526	1529.811523	2728.254395	2138.406006	50.782101
834.821716	1531.465576	2712.705811	2136.862061	51.250919
835.128784	1532.678711	2701.347900	2134.987793	51.538029
835.435852	1535.986816	2698.260254	2129.584473	51.072117
835.742798	1532.568359	2687.894531	2129.694580	51.684643
836.049805	1535.545776	2679.734131	2126.937988	51.686615
836.356750	1536.207520	2666.501465	2126.165771	52.195118
836.663574	1530.031982	2653.048096	2124.622070	52.945820
836.970398	1527.495850	2640.036133	2117.895508	53.067711
837.277161	1529.039673	2629.339355	2114.146240	53.177017
837.583923	1527.385498	2611.916504	2110.617676	53.777363
837.890564	1527.937012	2592.287842	2107.419434	54.444683
838.197205	1528.267822	2561.301270	2098.597900	55.209255
838.503784	1532.237671	2521.272217	2088.231934	56.215858
838.810303	1530.693970	2469.223633	2074.227539	57.913307
839.116699	1530.252808	2421.255127	2056.142578	59.022266
839.423096	1531.024658	2384.203613	2041.806885	59.868122
839.729492	1529.591064	2343.182373	2023.832642	60.748138
840.035828	1528.929443	2307.123535	2014.018433	62.335220
840.342102	1526.723999	2272.056641	2005.968506	64.299416
840.648315	1525.952148	2245.150391	1992.515259	64.872673
840.954529	1526.613892	2223.205811	1986.229736	65.980644
841.260620	1527.606201	2202.033203	1978.621094	66.873787
841.566711	1527.385620	2181.963867	1975.202759	68.413078
841.872803	1526.944458	2162.004395	1975.202881	70.585213
842.178772	1525.731445	2151.308105	1970.240479	71.055885
842.484680	1522.974609	2137.193115	1965.167969	71.992844
842.790588	1521.872070	2127.158203	1963.182983	72.909470
843.096436	1525.841675	2118.667236	1958.220459	72.935249
843.402222	1526.944458	2110.837891	1955.794434	73.446617
843.707947	1523.415771	2102.346924	1955.132813	74.571396
844.013611	1522.423218	2091.429932	1950.060303	75.155014
844.319275	1526.172485	2078.527832	1940.577148	75.025009
844.624817	1527.936890	2068.162598	1933.630005	75.096970
844.930359	1527.826538	2049.857422	1925.249390	76.130142
845.235901	1526.613647	2036.955566	1915.545410	76.210037
845.541321	1525.841797	2020.855713	1909.149170	77.433655
845.846680	1525.510864	2005.638062	1901.209595	78.249832
846.152039	1528.047119	1993.287598	1899.665894	79.876709
846.457275	1528.378052	1981.929443	1892.277954	80.233444
846.762512	1530.032104	1968.806885	1885.882080	81.100830
847.067749	1533.891602	1959.543945	1882.684204	81.943069
847.372925	1534.332764	1948.736938	1878.934692	83.155998
847.677979	1535.325317	1941.789795	1875.075195	83.586609
847.983032	1537.861572	1936.937866	1872.979858	83.973488
848.288025	1535.656006	1930.211548	1865.812134	83.677986
848.592957	1541.390259	1925.138916	1863.717041	83.994247
848.897888	1539.956665	1923.926025	1861.290894	83.687469
849.202759	1540.618286	1920.617798	1855.115723	82.762589
849.507507	1541.831299	1917.199463	1855.115479	83.460510
849.812317	1539.295044	1913.560303	1856.438843	84.737709
850.117004	1541.169678	1907.936401	1854.564331	85.447952
850.421631	1541.941650	1902.863892	1858.754639	87.778740
850.726257	1541.390137	1901.540527	1861.952515	89.007919
851.030823	1540.397827	1898.673584	1863.937744	90.304718
851.335327	1539.736084	1893.821411	1863.937866	91.560356
851.639771	1540.177246	1885.881836	1866.253540	94.322235
851.944153	1540.177124	1881.470825	1862.834961	94.539642
852.248535	1538.964233	1874.854492	1863.827393	96.717056
852.552856	1535.325317	1873.641602	1858.975220	95.664894
852.857056	1534.663696	1873.089844	1859.305786	95.927010
853.161255	1537.861572	1875.515991	1856.769531	94.448036
853.465393	1536.317749	1874.192505	1857.431396	95.039253
853.769531	1532.568359	1873.310669	1854.784790	94.563080
854.073547	1527.165039	1870.884644	1853.461670	94.931053
854.377563	1524.408203	1868.458496	1854.674683	95.993660
854.681580	1520.548828	1865.150269	1854.564575	96.928131
854.985474	1517.681519	1855.446411	1857.762329	100.685661
855.289307	1517.571289	1853.020264	1860.519165	102.235481
855.593140	1517.791870	1852.910156	1860.850220	102.369331
855.896851	1516.137817	1852.469116	1857.431763	101.475525
856.200623	1517.902100	1850.153687	1854.123169	101.194725
856.504272	1518.453613	1852.800049	1851.917725	99.736107
856.807922	1515.917358	1854.454102	1847.507080	97.947929
857.111389	1513.711914	1852.579468	1848.389160	98.763435
857.414978	1516.248169	1844.419312	1848.940430	101.377670
857.718445	1516.358398	1844.419434	1844.639893	100.067200
858.021790	1517.350952	1843.978394	1844.198608	100.067421
858.325195	1517.681763	1841.993530	1843.206055	100.373878
858.628479	1515.917358	1841.000977	1842.875366	100.576584
858.931763	1516.468750	1837.141357	1844.640015	102.338417
859.234985	1515.476318	1831.297119	1846.955688	104.958054
859.538147	1512.609131	1827.547607	1854.123291	108.438370
859.841248	1511.065308	1827.988647	1854.895142	108.489906
860.144287	1514.924927	1826.996094	1855.777344	109.222656
860.447266	1520.989990	1828.098755	1857.872803	109.694954
860.750305	1525.180298	1825.121460	1856.659546	110.514755
861.053223	1529.150146	1825.011353	1857.872559	111.106964
861.356018	1530.804199	1831.076294	1855.225952	108.042595
861.658813	1531.245239	1826.555054	1851.035522	108.289757
861.961609	1528.378296	1823.247070	1854.895264	110.732979
862.264343	1529.370605	1821.813599	1854.123291	111.048203
862.567017	1529.701416	1819.718384	1854.564331	112.015144
862.869629	1529.480957	1819.608032	1853.130737	111.554489
863.172180	1532.017212	1819.497803	1851.917725	111.277252
863.474670	1527.385742	1816.961304	1851.917725	112.071609
863.777161	1522.643921	1821.151733	1851.807617	110.269707
864.079590	1521.541138	1821.151733	1855.226196	111.372917
864.381958	1521.982300	1821.703369	1855.667236	111.331825
864.684265	1520.107666	1823.688110	1857.431763	111.115227
864.986511	1518.784302	1824.680420	1855.777588	110.165924
865.288757	1520.217896	1824.901001	1856.218506	110.278717
865.590942	1520.438477	1827.106445	1855.997925	109.421097
865.893066	1519.556396	1829.532593	1852.358765	107.363846
866.195068	1517.791992	1828.429932	1850.153442	106.993195
866.497131	1518.894775	1829.311890	1851.807495	107.246895
866.799133	1514.263062	1824.459961	1849.712646	108.140854
867.100952	1509.852295	1821.703125	1848.940430	108.734077
867.402832	1512.939819	1822.364746	1848.720093	108.517525
867.704651	1513.491211	1821.372192	1848.278809	108.739288
868.006409	1515.696533	1822.364624	1848.830322	108.630081
868.308105	1519.335571	1826.775635	1843.427124	105.416176
868.609802	1517.681519	1830.524902	1844.860352	104.582306
868.911438	1515.696655	1832.620361	1842.654907	103.166237
869.213013	1517.571411	1829.863281	1845.522095	105.014160
869.514465	1518.343384	1829.311768	1846.624634	105.567406
869.815979	1522.423340	1833.281616	1845.963135	104.079521
870.117371	1526.834351	1834.825562	1847.617188	104.153244
870.418701	1529.370605	1835.487183	1847.506836	103.926498
870.720093	1530.914429	1839.015991	1842.544678	101.145302
871.021301	1533.671265	1839.787964	1844.198853	101.440918
871.322571	1535.656128	1838.133911	1848.279053	103.354012
871.623718	1534.553467	1840.339233	1848.830322	102.776810
871.924805	1534.222656	1845.191406	1849.050781	101.241081
872.225891	1536.207397	1847.837769	1850.263794	100.778496
872.526917	1541.279907	1846.845459	1851.697144	101.587769
872.827881	1541.831299	1848.389282	1850.814941	100.791260
873.128784	1544.808594	1851.476807	1847.617188	98.741432
873.429626	1546.462646	1858.203491	1848.499268	96.887085
873.730408	1542.603149	1858.313599	1848.609741	96.926346
874.031189	1541.279907	1857.651978	1846.514526	96.479637
874.331848	1539.956543	1858.534180	1846.734985	96.296288
874.632568	1537.530640	1857.431396	1849.712280	97.587029
874.933167	1537.640869	1854.123169	1854.895142	100.243919
875.233704	1539.956665	1853.130737	1858.754883	101.795853
875.534241	1538.082031	1853.902710	1856.880249	100.942795
875.834717	1537.751221	1853.351318	1853.461914	100.035042
876.135071	1536.427979	1851.256104	1853.792603	100.805679
876.435425	1533.450684	1851.035767	1850.374268	99.791710
876.735779	1531.355469	1852.579468	1852.469360	99.965721
877.036011	1528.488403	1853.240845	1855.225952	100.611267
877.336182	1526.172729	1851.586914	1855.777344	101.287720
877.636353	1526.944580	1856.659424	1851.917725	98.561882
877.936462	1525.841797	1863.276001	1851.366455	96.470558
878.236511	1527.937012	1868.348633	1852.138184	95.237984
878.536560	1527.165161	1875.295776	1857.872437	94.995171
878.836487	1523.415771	1889.961914	1865.260742	93.261101
879.136414	1521.431030	1918.963745	1872.538818	88.321732
879.436279	1522.313232	1970.460938	1890.733765	82.209625
879.736084	1522.313110	2053.055176	1912.016357	73.426109
880.035828	1522.864502	2156.711426	1945.318604	66.649231
880.335510	1523.967285	2274.923584	1987.332642	61.703373
880.635193	1523.305664	2391.922607	2026.258911	57.902767
880.934753	1524.518555	2499.879639	2064.854248	55.398529
881.234314	1524.959717	2592.508545	2090.658203	52.990410
881.533752	1523.415771	2675.213135	2119.439209	51.747250
881.833252	1523.085083	2748.654541	2147.117676	50.917767
882.132629	1521.320679	2812.833252	2171.708496	50.358612
882.431946	1519.776855	2872.160156	2192.550049	49.747227
882.731323	1522.864502	2918.805176	2211.186279	49.308811
883.030579	1526.613647	2956.518555	2222.875000	48.692844
883.329712	1526.723877	2991.364746	2236.218018	48.441509
883.628845	1526.282837	3021.027832	2244.819092	48.070824
883.927979	1529.480713	3040.325439	2254.302246	47.974586
884.226990	1530.693604	3058.410156	2261.139160	47.812897
884.526001	1530.803833	3066.460205	2266.101318	47.881641
884.824951	1530.142212	3073.297119	2262.683105	47.470341
885.123840	1530.473145	3074.620361	2261.911133	47.368412
885.422729	1530.473145	3053.227539	2252.538086	47.418346
885.721497	1530.914307	3009.008301	2239.746582	47.955833
886.020203	1532.899292	2928.619141	2217.140869	49.024277
886.318909	1532.678711	2828.602051	2183.176758	50.195721
886.617554	1529.149902	2714.249512	2142.706543	51.772579
886.916138	1528.047241	2597.140137	2108.852783	54.326946
887.214661	1524.408203	2491.829590	2066.618408	56.046951
887.513184	1524.518677	2402.067871	2035.080566	58.180428
887.811523	1527.495850	2321.127686	2004.535156	60.108387
888.109924	1514.483765	2151.307861	1977.628662	72.727287
888.408264	1528.378052	2035.521729	1834.053711	60.273975
888.706543	1546.903931	1977.628662	1905.841187	83.333328
889.004761	1565.429688	1931.314087	1859.526611	80.379738
889.302979	1509.852295	1919.735474	1838.685181	80.225998
889.601135	1470.484985	1905.841187	1831.738037	82.978729
889.899170	1489.010742	1859.526611	1922.051270	116.875031
890.197205	1468.169312	1882.683960	1787.739258	77.094971
890.495178	1528.378052	1875.736694	1808.580688	80.666664
890.793091	1560.798218	1901.209717	1817.843628	75.510201
>>>>>End Processed Spectral Data<<<<<
