Jaz Data File
++++++++++++++++++++++++++++++++++++
Date: Fri Jun 21 02:31:13 2019
User: jaz
Dark Spectrum Present: Yes
Reference Spectrum Present: Yes
Processed Spectrum Present: Yes
Spectrometers: JAZA3541
Integration Time (usec): 119000 (JAZA3541)
Spectra Averaged: 1 (JAZA3541)
Boxcar Smoothing: 10 (JAZA3541)
Correct for Electrical Dark: No (JAZA3541)
Strobe/Lamp Enabled: Yes (JAZA3541)
Correct for Detector Non-linearity: No (JAZA3541)
Correct for Stray Light: No (JAZA3541)
Number of Pixels in Processed Spectrum: 2048
>>>>>Begin Processed Spectral Data<<<<<
W	D	R	S	P
190.543274	0.000000	0.000000	0.000000	0.000000
190.921555	0.000000	0.000000	0.000000	0.000000
191.299805	1558.482544	1405.644653	1715.951782	-103.030235
191.678024	1533.009521	1440.380615	1711.320313	-192.500153
192.056229	1539.956665	1535.325317	1741.424683	-4350.094727
192.434387	1519.115234	1551.535278	1787.739258	828.573914
192.812531	1604.796997	1597.849854	1750.687622	-2100.008789
193.190659	1556.166748	1542.272461	1748.371948	-1383.339722
193.568741	1623.322754	1530.693848	1766.897705	-155.000153
193.946793	0.000000	0.000000	0.000000	0.000000
194.324829	1410.165894	1403.770142	1593.769775	-2870.716064
194.702835	1483.938232	1477.322021	1675.481812	-2895.064697
195.080811	1555.725708	1551.645752	1758.847900	-4978.538574
195.458755	1552.307251	1560.467407	1759.840210	2543.247314
195.836685	1553.520386	1565.540039	1763.699829	1748.631470
196.214569	1554.953857	1568.627808	1762.266357	1516.112793
196.592422	1551.425171	1571.164063	1759.178345	1052.506836
196.970261	1549.219727	1570.833130	1757.414307	963.266052
197.348068	1548.999146	1571.274170	1758.186157	939.110107
197.725861	1545.690796	1573.810425	1756.201050	748.623840
198.103622	1539.625854	1573.589844	1750.136108	619.804260
198.481323	1540.287598	1569.399536	1746.938232	709.848389
198.859039	1539.846436	1568.958374	1743.740356	700.379089
199.236694	1536.758789	1568.296631	1741.645264	649.652832
199.614334	1539.295166	1566.201660	1742.196777	754.099060
199.991959	1540.728760	1571.604858	1742.307129	652.862183
200.369553	1537.751465	1570.502075	1742.417236	624.921997
200.747101	1536.759033	1571.935669	1744.512451	590.600586
201.124619	1535.215210	1570.502197	1745.394531	595.628418
201.502136	1531.796631	1571.274048	1743.409546	536.035339
201.879623	1529.922119	1568.517334	1747.379272	563.430359
202.257065	1525.621216	1569.730225	1747.820557	503.750488
202.634476	1525.621216	1573.589600	1747.489624	462.530518
203.011871	1524.187744	1573.258911	1750.467041	461.124756
203.389221	1524.408203	1571.715088	1747.600098	471.795807
203.766571	1523.415649	1570.722656	1743.740479	465.734039
204.143875	1523.305542	1567.635010	1743.850830	497.513947
204.521164	1526.613770	1564.878296	1742.637695	564.554016
204.898392	1524.408203	1563.444702	1744.291870	563.277100
205.275620	1523.856812	1563.665405	1742.527588	549.305481
205.652817	1524.297852	1562.783081	1744.732910	572.778320
206.029984	1529.370483	1566.422241	1748.923218	592.556885
206.407135	1528.378052	1568.848267	1750.797852	549.588867
206.784225	1530.473389	1569.950928	1751.900635	560.894226
207.161301	1530.252808	1570.281616	1752.782959	555.924988
207.538376	1528.929443	1571.274170	1750.797852	523.957581
207.915405	1529.260376	1568.517456	1750.136108	562.639221
208.292404	1529.480835	1568.737671	1748.261475	557.305847
208.669373	1525.952148	1570.833008	1746.827881	492.137939
209.046310	1524.628784	1571.053589	1746.166260	477.196350
209.423218	1528.267822	1569.509644	1746.056030	528.076111
209.800095	1530.032227	1570.612549	1742.196411	522.825256
210.176956	1530.032227	1570.833130	1736.241943	505.404785
210.553787	1531.686279	1566.201660	1737.124268	595.207092
210.930603	1535.435425	1566.091553	1731.059204	638.122925
211.307358	1536.648438	1565.760620	1733.815796	677.267517
211.684113	1538.412842	1570.391968	1735.359741	615.860779
212.060837	1534.773804	1573.920776	1734.808594	510.984070
212.437531	1533.340210	1574.802856	1736.793579	490.690735
212.814178	1532.458130	1578.772705	1735.029053	437.380493
213.190826	1532.788940	1580.426758	1738.888550	432.638641
213.567413	1530.914307	1580.095947	1739.770630	424.663177
213.943985	1528.267822	1576.015869	1739.439941	442.263367
214.320541	1528.488281	1577.669800	1736.241943	422.422211
214.697052	1527.716431	1577.228760	1737.565063	423.831055
215.073563	1529.591064	1581.198486	1738.778320	405.343353
215.449997	1529.921875	1582.852661	1740.763184	398.333984
215.826431	1528.708862	1588.586670	1740.983643	354.513275
216.202850	1529.370483	1590.792236	1743.960938	349.372070
216.579224	1533.119751	1588.807495	1746.607300	383.365417
216.955582	1533.560791	1588.586914	1745.173950	384.568542
217.331894	1531.135010	1586.932861	1745.835571	384.782837
217.708191	1532.017090	1588.035400	1747.599854	384.843384
218.084442	1537.420532	1591.674438	1753.775146	398.781647
218.460678	1534.443115	1598.180420	1753.444336	343.599762
218.836899	1532.678711	1603.694214	1758.627197	318.167847
219.213074	1532.127563	1606.892090	1761.163452	306.342987
219.589233	1531.024658	1605.348389	1762.707275	311.720917
219.965347	1533.891846	1609.869385	1765.353760	304.645172
220.341431	1535.987061	1615.713867	1767.007813	289.765472
220.717499	1535.435669	1614.721558	1769.654419	295.410400
221.093552	1534.002075	1619.242554	1765.464111	271.540039
221.469543	1535.104858	1625.197510	1765.243652	255.446793
221.845535	1536.207642	1630.380249	1765.574463	243.560013
222.221466	1537.310303	1634.350098	1769.434204	239.204849
222.597397	1535.435547	1642.069214	1769.544312	219.544891
222.973297	1537.420532	1647.362183	1768.551758	210.230820
223.349167	1536.979492	1655.853271	1767.118286	193.599289
223.725006	1537.530640	1662.359375	1767.449219	184.187225
224.100800	1538.082153	1671.952881	1766.567017	170.675751
224.476578	1538.854004	1682.097900	1762.707397	156.274292
224.852325	1537.971680	1701.726563	1763.479126	137.710358
225.228058	1541.279907	1724.332397	1764.030518	121.686745
225.603760	1540.838867	1750.246460	1766.897461	107.951477
225.979416	1536.317749	1779.248169	1765.574585	94.371399
226.355057	1535.325195	1813.322388	1770.426758	84.569763
226.730652	1533.671143	1852.028076	1769.544434	74.090828
227.106232	1534.773926	1886.543335	1770.978027	67.147423
227.481796	1531.575928	1920.286865	1770.426514	61.446838
227.857315	1528.378052	1946.972900	1775.057861	58.930447
228.232788	1528.819214	1971.673950	1775.829834	55.776894
228.608246	1531.465698	1999.903687	1775.719482	52.142181
228.983704	1534.112305	2022.950684	1779.579102	50.214306
229.359100	1531.575928	2040.263428	1780.571411	48.948616
229.734482	1528.378052	2061.546143	1782.446045	47.652512
230.109833	1529.039795	2075.881592	1784.320557	46.682747
230.485153	1528.488403	2087.349609	1783.438599	45.619591
230.860443	1521.541260	2101.575195	1783.769531	45.209126
231.235703	1520.879517	2121.534668	1785.974854	44.134365
231.610931	1519.225464	2137.523926	1789.062500	43.641872
231.986145	1517.240479	2152.079834	1796.340576	43.963894
232.361313	1516.468506	2165.532959	1802.736206	44.104664
232.736465	1519.115112	2169.833984	1805.493164	44.009491
233.111572	1517.571289	2172.921387	1808.029419	44.321064
233.486664	1518.894653	2171.708252	1806.485474	44.054050
233.861725	1517.350586	2169.944092	1808.249756	44.575859
234.236755	1520.107422	2156.931885	1805.272461	44.779221
234.611771	1522.313110	2138.516357	1808.139648	46.385109
234.986740	1523.415771	2132.671875	1808.691040	46.823540
235.361679	1526.062256	2128.922607	1811.778687	47.393467
235.736588	1526.393188	2124.952881	1811.447754	47.623413
236.111496	1527.936890	2122.196045	1812.440063	47.875271
236.486343	1528.819092	2122.857666	1816.740845	48.468529
236.861160	1527.716309	2128.371582	1818.946289	48.485378
237.235962	1529.370483	2138.626465	1823.136719	48.217209
237.610733	1532.016968	2152.962158	1825.893433	47.327278
237.985474	1532.016968	2177.111572	1829.863281	46.170952
238.360199	1533.009521	2207.988037	1836.148804	44.910954
238.734879	1534.994385	2240.628662	1843.316406	43.694309
239.109543	1532.347900	2281.539551	1850.153442	42.419792
239.484177	1533.450562	2334.360352	1854.564331	40.093624
239.858749	1535.325195	2397.105469	1861.621826	37.863091
240.233322	1530.804199	2464.923096	1866.032715	35.887135
240.607864	1528.709106	2528.660889	1868.789429	34.009670
240.982391	1529.370728	2583.025391	1874.634155	32.768177
241.356857	1527.826904	2627.685547	1877.942383	31.832771
241.731308	1533.340454	2665.288574	1882.684204	30.862169
242.105728	1529.150024	2699.583252	1890.623657	30.883747
242.480118	1528.708984	2736.414307	1893.490479	30.204512
242.854492	1529.480957	2770.378418	1896.137085	29.547657
243.228836	1527.606323	2818.898193	1901.981567	28.992302
243.603134	1531.245361	2883.187256	1911.906006	28.156584
243.977402	1529.150146	2971.956787	1924.697754	27.415150
244.351654	1526.724121	3079.692871	1938.151001	26.492928
244.725861	1527.495972	3195.809814	1952.155640	25.454424
245.100067	1529.260376	3309.391113	1963.624023	24.400660
245.474213	1530.693970	3406.872070	1976.636108	23.768646
245.848343	1529.150146	3476.453857	1986.670898	23.495090
246.222443	1528.378174	3532.362061	1993.067017	23.188253
246.596512	1530.252808	3565.884766	1997.147095	22.936085
246.970566	1530.804077	3581.543457	1995.823853	22.675714
247.344574	1531.134888	3573.714355	1997.588135	22.836479
247.718567	1528.157471	3552.431641	1992.184692	22.923141
248.092529	1533.561035	3529.936035	1993.397705	23.033583
248.466431	1533.891724	3510.307617	1998.580566	23.511694
248.840332	1534.002197	3506.668945	1995.933960	23.416615
249.214203	1533.891846	3516.923828	2003.983765	23.705715
249.588043	1529.811768	3538.868408	2006.409790	23.722479
249.961838	1525.952148	3566.656982	2012.254517	23.830118
250.335617	1524.629028	3592.460938	2017.106445	23.816122
250.709381	1522.423584	3603.377930	2020.524536	23.936178
251.083084	1521.320801	3591.468262	2019.421875	24.061140
251.456787	1521.982422	3561.474365	2014.239258	24.136248
251.830460	1521.762085	3509.425293	2006.409790	24.382788
252.204071	1522.203125	3429.367188	1994.059204	24.741241
252.577667	1521.761963	3337.069092	1984.465576	25.488998
252.951248	1521.541260	3250.725830	1975.533447	26.254698
253.324799	1517.020142	3177.835449	1962.851929	26.844152
253.698303	1516.248169	3130.969482	1956.345825	27.255333
254.071793	1518.233032	3092.374268	1953.920044	27.677759
254.445236	1520.769287	3078.479736	1952.376099	27.707769
254.818665	1521.541260	3072.855957	1956.566406	28.042353
255.192062	1521.320801	3089.396729	1955.794434	27.707436
255.565430	1525.511108	3120.272949	1959.433350	27.209219
255.938782	1522.092651	3155.891113	1962.410767	26.950577
256.312103	1523.636475	3214.445801	1971.122192	26.465771
256.685364	1522.202881	3288.438721	1985.568115	26.234619
257.058594	1520.107666	3374.341064	1992.515015	25.477232
257.431793	1523.195435	3472.593750	2006.520142	24.793533
257.804993	1527.716431	3583.969238	2021.627441	24.019955
258.178162	1529.150024	3682.222412	2033.205933	23.411007
258.551270	1530.032227	3768.455322	2044.343750	22.976511
258.924377	1529.370483	3840.132080	2053.826904	22.696257
259.297485	1525.290405	3899.569580	2060.994873	22.562824
259.670502	1529.149780	3942.906982	2067.941895	22.321718
260.043518	1533.891602	3992.750732	2078.307617	22.141001
260.416473	1530.362793	4040.167725	2082.498047	21.999130
260.789459	1527.606079	4078.542725	2085.916504	21.886488
261.162354	1530.803955	4110.521484	2096.612793	21.932976
261.535278	1529.149902	4134.229980	2104.883057	22.100401
261.908142	1529.370483	4159.372070	2104.000732	21.849047
262.280975	1526.613647	4174.479004	2102.898193	21.764120
262.653717	1530.583374	4190.909668	2104.662598	21.579279
263.026520	1530.914307	4200.062012	2111.940674	21.768236
263.399261	1525.952148	4207.781250	2114.146240	21.932571
263.771973	1526.834351	4219.911133	2113.594727	21.787733
264.144653	1523.084961	4213.735840	2109.073486	21.778690
264.517334	1525.290405	4186.388184	2103.229248	21.718061
264.889954	1525.952148	4137.316406	2095.951172	21.827633
265.262543	1526.393188	4074.020508	2090.437500	22.139984
265.635071	1529.480835	3996.830078	2078.748779	22.261459
266.007599	1528.047363	3930.997070	2069.485596	22.532232
266.380127	1524.408325	3887.770752	2069.265137	23.054308
266.752594	1526.503418	3869.796143	2071.911377	23.275280
267.125031	1525.952148	3869.355225	2069.375488	23.189495
267.497437	1520.879517	3888.873535	2070.478271	23.209465
267.869843	1518.674072	3911.148438	2069.265137	23.013456
268.242218	1521.430908	3946.104980	2077.425293	22.930685
268.614532	1521.872070	4017.010498	2088.452393	22.707371
268.986816	1519.004883	4098.060547	2095.840820	22.366169
269.359100	1521.871948	4188.152832	2099.038574	21.646881
269.731354	1522.092407	4275.819824	2109.294189	21.323889
270.103516	1523.084961	4346.615234	2124.180908	21.288809
270.475708	1518.784424	4407.816406	2129.253418	21.130573
270.847839	1522.092529	4464.496094	2130.355957	20.672331
271.219971	1526.944702	4510.920898	2136.531494	20.428675
271.592041	1529.921875	4535.180664	2139.288086	20.276663
271.964081	1532.237671	4553.485840	2138.847168	20.078110
272.336151	1532.237671	4574.547852	2142.155273	20.047846
272.708130	1531.686279	4593.956055	2145.022461	20.028811
273.080109	1530.804077	4614.908203	2147.779297	20.005007
273.452026	1530.252686	4644.680664	2149.322998	19.877497
273.823914	1533.560913	4678.535156	2158.585938	19.873774
274.195770	1535.435425	4714.483887	2161.453125	19.691984
274.567627	1536.979126	4748.447754	2161.563477	19.448557
274.939423	1537.420288	4784.065918	2172.811279	19.570692
275.311249	1538.853882	4807.002441	2175.457764	19.479038
275.682983	1536.979370	4827.954590	2177.773193	19.471245
276.054688	1534.443115	4832.806641	2178.986328	19.541304
276.426422	1536.648560	4815.052734	2177.993896	19.562729
276.798065	1537.530640	4785.389648	2173.141846	19.570160
277.169708	1537.199951	4757.159668	2173.251953	19.753414
277.541321	1539.515625	4739.075195	2177.111572	19.927616
277.912903	1539.074585	4743.375977	2173.362305	19.794884
278.284424	1539.736206	4756.277344	2179.427246	19.887545
278.655945	1535.656250	4777.670410	2187.036133	20.091827
279.027435	1538.523315	4811.523926	2194.313965	20.036375
279.398865	1537.971924	4872.173828	2207.657227	20.085325
279.770294	1538.412964	4936.683105	2220.889893	20.083069
280.141663	1538.082275	4996.009766	2231.145264	20.042728
280.513031	1541.500610	5055.887695	2240.298096	19.883907
280.884369	1538.523193	5092.829102	2242.393311	19.803307
281.255676	1540.177368	5132.637207	2248.568359	19.718828
281.626953	1538.412964	5166.601074	2252.538330	19.682701
281.998199	1539.736206	5202.770996	2257.390381	19.591793
282.369385	1540.508057	5250.519043	2260.698486	19.412083
282.740540	1542.603271	5308.743164	2261.249756	19.081779
283.111694	1540.397827	5362.334961	2271.946045	19.140772
283.482819	1541.059326	5430.263184	2290.251221	19.263374
283.853912	1542.382813	5511.203613	2303.373779	19.174234
284.224945	1538.743774	5583.652832	2312.195557	19.121611
284.595978	1542.272461	5653.455566	2325.538574	19.052086
284.966980	1541.941650	5715.318359	2336.896729	19.048244
285.337952	1537.861450	5756.670410	2341.969238	19.060066
285.708893	1539.405273	5777.953613	2350.129395	19.127401
286.079803	1540.949097	5798.574219	2352.665771	19.065010
286.450684	1543.154785	5811.917480	2355.312256	19.025595
286.821533	1537.861572	5818.423340	2355.422607	19.099388
287.192322	1536.097412	5819.305176	2353.106934	19.074711
287.563110	1538.082275	5831.985840	2353.878662	18.998947
287.933868	1538.854126	5849.850098	2358.730713	19.018263
288.304596	1538.523315	5884.034668	2370.088867	19.136196
288.675262	1538.743896	5930.018555	2384.975342	19.270748
289.045929	1537.641113	5962.328613	2395.120605	19.379436
289.416565	1536.869141	5990.999023	2397.436279	19.320656
289.787170	1538.302734	5998.938477	2401.626709	19.354280
290.157745	1535.545898	6001.916016	2407.140137	19.514599
290.528259	1536.317749	5993.204102	2417.285156	19.766432
290.898773	1539.736084	6004.672852	2418.608643	19.683876
291.269226	1537.751221	6002.908691	2420.813965	19.776745
291.639679	1538.192261	5995.741211	2422.468262	19.837719
292.010101	1540.397827	6016.803223	2427.320068	19.813269
292.380463	1537.199829	6050.877441	2435.370117	19.898857
292.750824	1539.625854	6085.503418	2443.750977	19.888903
293.121155	1537.640869	6131.597168	2455.770996	19.985609
293.491455	1534.884155	6201.399414	2466.026123	19.953690
293.861725	1532.458130	6279.141602	2478.045654	19.921015
294.231964	1532.458130	6366.808594	2495.137939	19.913322
294.602142	1535.766235	6463.296875	2513.994629	19.852304
294.972321	1533.009399	6543.686035	2531.197021	19.921213
295.342468	1527.716309	6605.217773	2544.540039	20.026064
295.712555	1525.731445	6647.011230	2557.221191	20.141249
296.082672	1529.370483	6671.602051	2558.434326	20.012009
296.452728	1529.811523	6675.351074	2559.205811	20.005566
296.822693	1528.378052	6675.020020	2561.301270	20.069847
297.192657	1527.495850	6668.844727	2572.438477	20.324291
297.562622	1525.510986	6691.009766	2576.077637	20.338144
297.932556	1531.355469	6707.330566	2581.591553	20.290594
298.302460	1530.693848	6710.307129	2581.040283	20.278473
298.672333	1529.260376	6708.653320	2586.223145	20.407078
299.042145	1529.260376	6706.778809	2584.789551	20.386778
299.411957	1527.716553	6705.897461	2583.466553	20.388435
299.781677	1527.716553	6663.441406	2578.283447	20.456060
300.151428	1527.496094	6619.552734	2572.549561	20.523211
300.521149	1524.629028	6556.917969	2561.411621	20.602604
300.890839	1525.842041	6491.747559	2547.627441	20.576015
301.260468	1526.503662	6415.769531	2537.592773	20.679775
301.630096	1525.621338	6328.434570	2528.880859	20.888996
301.999695	1525.290527	6236.907715	2521.052002	21.134176
302.369232	1523.526245	6126.966309	2504.731201	21.314604
302.738739	1525.952148	6024.302246	2489.954834	21.430140
303.108246	1529.922119	5926.270020	2478.376221	21.573683
303.477692	1530.363159	5852.166504	2463.048584	21.580933
303.847137	1526.724121	5775.858398	2460.512451	21.975967
304.216553	1530.363037	5724.691406	2455.219238	22.050163
304.585876	1531.465820	5688.742188	2452.021484	22.143240
304.955231	1535.215088	5666.687988	2445.846191	22.041321
305.324493	1534.443115	5638.126953	2443.861328	22.161022
305.693787	1530.252686	5612.212891	2443.971436	22.384314
306.063049	1530.032227	5607.581055	2441.876221	22.362553
306.432251	1528.708740	5606.588379	2444.522461	22.458086
306.801422	1529.260132	5598.097656	2441.214355	22.413139
307.170593	1532.568481	5595.450684	2442.758301	22.402565
307.539673	1528.819092	5608.573730	2445.294434	22.463982
307.908783	1531.575928	5615.080078	2445.294434	22.375843
308.277832	1531.355347	5644.522949	2454.006104	22.431637
308.646851	1534.773926	5681.133301	2469.775146	22.549932
309.015839	1536.207520	5715.649414	2478.376221	22.542931
309.384796	1538.082153	5746.415039	2487.308105	22.555866
309.753723	1535.766357	5771.998047	2489.403564	22.511452
310.122620	1533.891724	5793.611816	2494.917480	22.560772
310.491486	1532.899292	5812.357422	2497.784424	22.546900
310.860352	1530.914307	5821.179199	2500.100098	22.590349
311.229126	1534.332886	5826.031250	2504.069824	22.595646
311.597931	1529.701416	5843.123535	2507.819092	22.676142
311.966675	1526.613892	5869.699219	2513.112305	22.714230
312.335388	1526.834351	5896.274414	2516.751221	22.655464
312.704071	1522.974854	5922.739746	2515.648438	22.561970
313.072723	1524.959717	5931.230957	2517.082275	22.516148
313.441345	1523.526245	5931.341309	2516.310303	22.523270
313.809875	1523.195313	5911.823242	2515.648438	22.614201
314.178436	1523.195190	5885.688477	2511.127441	22.646048
314.546967	1521.982178	5851.614258	2509.142334	22.800095
314.915466	1519.446045	5811.254883	2500.430908	22.857143
315.283936	1523.967163	5773.100586	2500.982422	22.993284
315.652374	1523.195557	5733.402344	2499.879395	23.198000
316.020752	1523.416016	5692.822266	2489.844727	23.179049
316.389130	1525.842041	5654.116699	2479.589355	23.102808
316.757416	1525.621460	5628.202637	2474.296387	23.123856
317.125732	1523.085205	5605.376465	2471.980713	23.244190
317.494019	1524.739258	5578.800781	2467.680176	23.259167
317.862274	1526.062378	5549.468262	2462.717773	23.280163
318.230469	1529.922119	5524.436523	2460.622314	23.299458
318.598663	1533.671265	5506.020996	2457.865723	23.265688
318.966797	1531.245239	5488.487793	2454.116699	23.321074
319.334930	1533.781494	5473.932129	2446.286865	23.159149
319.703003	1532.678711	5446.804688	2440.332275	23.189177
320.071045	1530.583374	5422.875000	2434.928955	23.234272
320.439056	1532.127197	5403.687988	2436.582764	23.361523
320.807037	1537.199829	5414.494629	2437.906006	23.230272
321.175049	1538.192261	5435.997559	2446.617676	23.306076
321.542969	1539.074463	5475.586426	2453.675293	23.233788
321.910828	1539.956665	5513.740234	2458.637451	23.118540
322.278717	1543.375122	5567.442871	2466.908203	22.950235
322.646515	1543.375122	5607.582031	2474.737549	22.916216
323.014313	1543.595581	5643.199707	2479.038330	22.817881
323.382111	1542.492798	5687.860352	2483.228516	22.693663
323.749817	1541.941650	5724.360840	2498.777100	22.877562
324.117523	1535.876587	5743.216797	2501.754395	22.956968
324.485199	1533.781372	5748.399414	2504.070068	23.021984
324.852814	1537.971680	5759.096191	2505.062500	22.910740
325.220428	1539.736084	5759.537598	2503.849609	22.847364
325.588013	1537.751221	5774.203125	2508.811768	22.921551
325.955536	1536.317627	5782.694336	2510.907227	22.951086
326.323059	1532.678711	5803.094727	2512.450684	22.943245
326.690552	1531.465698	5815.775879	2518.405273	23.036139
327.058014	1530.914307	5817.209473	2522.926270	23.143810
327.425415	1534.773804	5825.149414	2525.462646	23.090960
327.792816	1535.986938	5825.590332	2529.653076	23.164522
328.160187	1538.082031	5828.567871	2528.329590	23.080080
328.527496	1530.032227	5812.688477	2529.212158	23.330847
328.894775	1529.039673	5795.044434	2523.257324	23.305592
329.262054	1528.929443	5777.400879	2523.367432	23.406958
329.629303	1532.678711	5770.233398	2520.500488	23.311127
329.996490	1530.473267	5766.263672	2524.029297	23.456213
330.363647	1532.237549	5787.656738	2531.086670	23.472404
330.730774	1527.826660	5805.520996	2536.600342	23.582182
331.097839	1528.157593	5829.229004	2544.098877	23.620657
331.464935	1527.936890	5850.953125	2543.878418	23.500757
331.831970	1528.488159	5875.543457	2552.369385	23.553444
332.198975	1526.503296	5903.552734	2558.544678	23.578472
332.565948	1526.613647	5927.261230	2560.750244	23.499647
332.932892	1525.069824	5965.636719	2568.910400	23.506922
333.299744	1527.716431	5998.608398	2577.291016	23.475731
333.666656	1527.936890	6036.652344	2587.215332	23.494019
334.033478	1526.062256	6062.897461	2594.603516	23.552570
334.400299	1526.282837	6098.184570	2596.368408	23.405699
334.767090	1527.385620	6137.110352	2602.653564	23.326078
335.133850	1523.746704	6170.633301	2610.152100	23.379210
335.500549	1522.423462	6201.068848	2616.768311	23.390207
335.867218	1517.681763	6233.599121	2624.598145	23.471920
336.233917	1517.791992	6266.350586	2628.457275	23.389524
336.600525	1517.902222	6286.419434	2635.184082	23.430384
336.967102	1518.453491	6298.108398	2634.632568	23.352713
337.333649	1514.814697	6301.747070	2641.910889	23.545269
337.700195	1515.365967	6302.960449	2640.366699	23.498245
338.066681	1514.814697	6287.301270	2638.271729	23.540289
338.433136	1514.924805	6274.620605	2636.507324	23.564163
338.799591	1517.791992	6256.425781	2631.104004	23.494368
339.165985	1518.674072	6243.192871	2630.001221	23.522549
339.532318	1518.233032	6246.500977	2632.647949	23.569199
339.898651	1522.864380	6259.623535	2635.404541	23.487370
340.264954	1521.320679	6270.540039	2641.800293	23.592922
340.631226	1519.446045	6293.697754	2644.005859	23.554682
340.997467	1514.042603	6324.463379	2646.762695	23.547215
341.363678	1512.278320	6352.583984	2656.687012	23.643314
341.729828	1514.704224	6393.384766	2671.243164	23.705978
342.095947	1517.902100	6440.028809	2681.388184	23.637873
342.462067	1519.335693	6484.028320	2692.967041	23.639559
342.828156	1520.769165	6534.422852	2705.427734	23.628647
343.194183	1523.526001	6589.118164	2715.131836	23.523525
343.560211	1529.811523	6630.911621	2727.372314	23.476521
343.926178	1529.590942	6675.130859	2735.752930	23.440922
344.292114	1528.598511	6720.674316	2746.339355	23.453835
344.658020	1526.723877	6756.071289	2757.476563	23.535492
345.023926	1530.252563	6774.155273	2762.328613	23.495401
345.389771	1530.473267	6798.194824	2766.187988	23.458239
345.755585	1531.024414	6824.880859	2771.481201	23.432007
346.121368	1537.089478	6843.737305	2778.318115	23.390070
346.487122	1534.443115	6866.122559	2789.345459	23.536716
346.852844	1536.869019	6899.425781	2801.695801	23.586264
347.218536	1538.853882	6923.574219	2801.585449	23.450274
347.584167	1539.184814	6951.252930	2810.296875	23.486622
347.949768	1540.177246	6975.071289	2812.943604	23.418421
348.315369	1540.838867	6981.578125	2822.537109	23.557428
348.680939	1544.477905	6995.692871	2829.043457	23.564758
349.046448	1547.786133	7005.065430	2830.477051	23.504219
349.411957	1546.793701	7011.351074	2826.617432	23.420444
349.777435	1543.706055	7011.021484	2831.469238	23.553848
350.142792	1546.903931	7013.336914	2832.020752	23.509239
350.508209	1547.675903	7017.306641	2827.719971	23.402750
350.873566	1545.911499	7036.273926	2830.807861	23.402761
351.238892	1545.470459	7057.776855	2832.902832	23.355602
351.604187	1549.109253	7084.462891	2843.930176	23.391838
351.969482	1553.079102	7127.248535	2852.420898	23.310053
352.334717	1553.851196	7176.099609	2863.007080	23.285273
352.699890	1551.535400	7256.376465	2880.319824	23.292227
353.065063	1551.976318	7340.295410	2897.191650	23.240171
353.430237	1551.314819	7438.216309	2922.554199	23.293058
353.795319	1548.778442	7545.511719	2946.042480	23.300419
354.160370	1548.668213	7656.886230	2968.537842	23.245235
354.525421	1547.014282	7778.847656	2988.166504	23.125654
354.890442	1547.786133	7926.062500	3019.373779	23.071871
355.255402	1544.367676	8060.375000	3048.155029	23.078356
355.620331	1547.345093	8211.227539	3081.677979	23.024609
355.985260	1548.006714	8359.985352	3110.789795	22.941690
356.350098	1549.440186	8488.122070	3133.285400	22.826313
356.714935	1547.455322	8615.155273	3161.515137	22.837130
357.079742	1548.116943	8735.904297	3188.752686	22.825325
357.444519	1544.588135	8862.386719	3213.674072	22.808578
357.809296	1537.530762	9007.835938	3241.352783	22.807930
358.173981	1534.663574	9175.340820	3281.161133	22.857889
358.538605	1535.104736	9362.474609	3321.962158	22.828323
358.903259	1535.104736	9576.954102	3366.732422	22.776199
359.267914	1535.214966	9815.033203	3412.385498	22.671638
359.632477	1534.001831	10056.529297	3460.905029	22.609528
359.997009	1532.237549	10270.126953	3502.257080	22.545713
360.361542	1533.671021	10432.007813	3532.251465	22.460157
360.726013	1533.009399	10550.330078	3562.466553	22.506210
361.090485	1533.119751	10621.235352	3571.067627	22.424318
361.454895	1537.640869	10669.645508	3576.691650	22.328621
361.819244	1538.081787	10689.494141	3579.338135	22.305370
362.183594	1538.964233	10671.849609	3578.014893	22.326466
362.547913	1538.523071	10616.161133	3574.265625	22.425907
362.912201	1539.515625	10574.367188	3562.466553	22.390528
363.276489	1536.097168	10510.079102	3552.431641	22.468670
363.640686	1532.568359	10443.033203	3536.000732	22.484039
364.004883	1531.686279	10386.685547	3524.863525	22.509062
364.369049	1529.701416	10336.401367	3514.607910	22.538595
364.733154	1531.024780	10286.117188	3502.478027	22.517788
365.097198	1537.200073	10230.098633	3490.899658	22.474663
365.461273	1542.272461	10137.360352	3473.145508	22.464844
365.825287	1545.580688	10013.523438	3452.524658	22.519567
366.189270	1546.132080	9845.798828	3421.316895	22.593494
366.553223	1545.690796	9649.182617	3385.478516	22.703642
366.917114	1546.132080	9422.791992	3342.141846	22.801666
367.281006	1547.014282	9187.691406	3299.355713	22.934374
367.644867	1549.991577	8990.744141	3262.745117	23.018553
368.008698	1548.337524	8831.179688	3237.272217	23.190598
368.372498	1548.999146	8707.012695	3215.989502	23.288448
368.736237	1547.124634	8622.102539	3206.175293	23.449553
369.099976	1540.728760	8559.579102	3199.889893	23.638645
369.463654	1538.854126	8522.858398	3193.604248	23.693428
369.827332	1534.994629	8489.886719	3187.869873	23.765650
370.190948	1534.884277	8472.683594	3179.709473	23.708170
370.554535	1533.450684	8443.021484	3173.203857	23.731621
370.918091	1534.002075	8424.715820	3170.998047	23.756552
371.281647	1538.854126	8421.626953	3172.983154	23.742306
371.645111	1536.427979	8420.744141	3171.880615	23.756210
372.008575	1536.648560	8415.342773	3167.690430	23.711504
372.371979	1535.876465	8419.863281	3172.211670	23.770168
372.735382	1531.906738	8436.183594	3179.599609	23.864815
373.098724	1531.686157	8473.456055	3192.722412	23.928137
373.462067	1529.149902	8530.798828	3205.293457	23.939268
373.825348	1528.708740	8601.592773	3224.591553	23.977247
374.188599	1525.731445	8696.095703	3249.512695	24.040358
374.551819	1522.643677	8812.875000	3278.734863	24.088278
374.915009	1517.130005	8930.976563	3307.405518	24.147728
375.278168	1514.152588	9048.197266	3334.312012	24.159126
375.641266	1512.829468	9160.785156	3358.352051	24.130928
376.004395	1510.624023	9243.048828	3373.569580	24.092644
376.367462	1513.491211	9303.587891	3384.155518	24.013365
376.730469	1516.689209	9354.423828	3388.896973	23.887104
377.093475	1522.092529	9382.984375	3403.453125	23.933170
377.456421	1522.864380	9423.675781	3411.502930	23.904362
377.819336	1524.298096	9463.595703	3418.229492	23.855150
378.182281	1526.172607	9498.992188	3432.455078	23.909767
378.545135	1521.872070	9540.673828	3445.467285	23.988562
378.907928	1522.864502	9571.441406	3455.612061	24.013531
379.270752	1523.305542	9599.780273	3470.940186	24.114910
379.633484	1526.282959	9631.869141	3477.446045	24.071833
379.996246	1524.077393	9659.878906	3485.165283	24.104422
380.358948	1525.069824	9686.673828	3493.766357	24.121441
380.721558	1521.430786	9715.344727	3502.477295	24.177048
381.084198	1523.305298	9733.429688	3508.542725	24.180359
381.446747	1525.951782	9744.015625	3507.550537	24.112722
381.809326	1527.275146	9746.000977	3500.713623	24.011490
382.171875	1527.495850	9729.791016	3497.846436	24.021942
382.534363	1528.488403	9709.280273	3484.172607	23.905806
382.896790	1533.229858	9671.567383	3481.195801	23.935675
383.259247	1531.245117	9648.851563	3481.416260	24.023968
383.621613	1532.017090	9663.408203	3486.708984	24.038837
383.983948	1527.716431	9692.850586	3494.428223	24.086704
384.346283	1523.195068	9736.739258	3512.733643	24.222656
384.708588	1519.225342	9811.723633	3523.540527	24.170221
385.070831	1519.887085	9891.341797	3545.374268	24.195162
385.433075	1519.335693	9960.373047	3563.458252	24.216486
385.795258	1517.020142	10042.305664	3583.087158	24.234579
386.157440	1518.784424	10104.719727	3593.452393	24.163563
386.519531	1514.042603	10178.823242	3611.096436	24.202042
386.881622	1519.335815	10246.749023	3628.408936	24.166075
387.243683	1517.350830	10314.126953	3649.470947	24.237516
387.605713	1519.556274	10383.047852	3663.585938	24.189449
387.967682	1522.643921	10443.366211	3680.788574	24.192486
388.329651	1525.069824	10513.719727	3697.771240	24.171608
388.691559	1523.746704	10610.648438	3719.384277	24.162666
389.053467	1521.431030	10715.627930	3752.576660	24.266888
389.415314	1519.887085	10810.132813	3780.916748	24.337673
389.777130	1518.784180	10914.560547	3803.853027	24.320171
390.138885	1520.328125	10994.397461	3830.980225	24.389225
390.500641	1518.012329	11088.901367	3850.608643	24.371782
390.862366	1521.872070	11165.982422	3865.054688	24.296515
391.224060	1525.510864	11220.676758	3883.801025	24.324390
391.585693	1529.921875	11295.551758	3905.304199	24.323902
391.947296	1536.317749	11367.119141	3914.897705	24.195179
392.308868	1535.766235	11409.905273	3933.974609	24.287775
392.670441	1535.656006	11454.014648	3941.362793	24.255091
393.031952	1533.119751	11484.449219	3958.344971	24.370867
393.393433	1537.310059	11495.697266	3962.094238	24.349167
393.754883	1537.089600	11506.393555	3965.181641	24.355682
394.116302	1538.523071	11496.689453	3965.512695	24.371855
394.477692	1529.701294	11492.830078	3956.690430	24.359709
394.839020	1527.936890	11479.376953	3952.720947	24.366163
395.200348	1526.834229	11463.718750	3960.329590	24.489519
395.561646	1529.480835	11443.759766	3954.154297	24.456375
395.922882	1529.150024	11409.354492	3951.287109	24.515053
396.284088	1529.480835	11337.236328	3933.864502	24.515127
396.645264	1527.275513	11269.638672	3913.794678	24.496305
397.006409	1530.914429	11181.641602	3902.546875	24.574648
397.367523	1533.450684	11090.887695	3886.998535	24.625301
397.728577	1538.964355	11024.392578	3875.640625	24.634380
398.089600	1539.074707	10949.627930	3867.260010	24.740154
398.450592	1539.625977	10886.000000	3856.783447	24.792048
398.811584	1539.074463	10829.209961	3844.102295	24.811562
399.172546	1537.971680	10760.399414	3830.869873	24.862198
399.533447	1528.819214	10692.691406	3824.804199	25.054747
399.894318	1532.127441	10638.768555	3814.328857	25.060848
400.255127	1532.237671	10596.091797	3813.005615	25.163336
400.615936	1531.355469	10585.175781	3810.910400	25.177824
400.976685	1529.150146	10593.115234	3819.181152	25.265224
401.337433	1531.575928	10626.307617	3832.413574	25.298576
401.698151	1531.355591	10702.835938	3853.806641	25.322533
402.058807	1537.861572	10785.099609	3881.595215	25.345228
402.419434	1539.736206	10877.398438	3911.809814	25.403294
402.780060	1538.633423	10977.195313	3931.548340	25.352539
403.140594	1534.663696	11064.090820	3950.625488	25.352648
403.501129	1535.986938	11144.919922	3968.489258	25.315012
403.861633	1537.420532	11224.757813	3995.065430	25.369665
404.222076	1539.625977	11293.236328	4013.039795	25.358957
404.582550	1535.986938	11374.728516	4031.676270	25.365942
404.942932	1535.656128	11422.916992	4047.224609	25.402065
405.303284	1530.804077	11480.369141	4065.970947	25.480179
405.663605	1531.245117	11533.189453	4076.005615	25.442657
406.023895	1532.568481	11582.260742	4089.899658	25.446859
406.384125	1530.914307	11629.016602	4102.250000	25.463552
406.744354	1529.811523	11684.814453	4116.805664	25.475071
407.104553	1536.317627	11746.566406	4132.354492	25.425795
407.464691	1536.868896	11813.392578	4151.321777	25.441025
407.824829	1537.420288	11876.467773	4170.729980	25.469557
408.184906	1538.522949	11926.201172	4183.852539	25.466034
408.544922	1538.633423	11974.169922	4197.856934	25.482386
408.904938	1537.971680	12007.030273	4208.883789	25.512438
409.264923	1536.317627	11999.752930	4210.427734	25.556713
409.624847	1534.112183	11979.573242	4209.545410	25.613356
409.984802	1533.560791	11956.416016	4199.511230	25.577929
410.344666	1535.656006	11935.685547	4199.069824	25.609676
410.704529	1534.774048	11906.352539	4202.488281	25.721394
411.064331	1531.355591	11896.317383	4201.054688	25.756962
411.424133	1532.017090	11892.458008	4205.135254	25.801199
411.783875	1531.245117	11887.385742	4214.949219	25.914133
412.143555	1536.317749	11895.656250	4218.147461	25.888039
412.503235	1535.986938	11932.376953	4223.991211	25.855171
412.862885	1536.317749	11957.078125	4229.394531	25.843378
413.222473	1535.876587	12000.966797	4249.795898	25.933073
413.582062	1530.473267	12055.992188	4270.085449	26.028288
413.941559	1529.480713	12132.080078	4286.847168	26.006514
414.301086	1532.237549	12203.647461	4312.319824	26.051685
414.660522	1531.796509	12282.932617	4336.138672	26.084148
415.019958	1529.150024	12364.093750	4355.987793	26.090012
415.379364	1530.142456	12462.125977	4373.520996	26.009722
415.738708	1528.708984	12566.443359	4406.161621	26.069233
416.098053	1529.591187	12702.960938	4440.676758	26.053782
416.457336	1526.503540	12866.385742	4480.595703	26.050468
416.816559	1528.047363	13056.165039	4539.811523	26.125378
417.175812	1526.834351	13278.144531	4598.256348	26.136845
417.535004	1528.488525	13530.667969	4675.336914	26.218975
417.894135	1528.157715	13808.997070	4749.881836	26.233744
418.253265	1528.047363	14142.681641	4840.636230	26.259888
418.612335	1530.583618	14503.713867	4938.227539	26.266939
418.971405	1528.378174	14871.801758	5026.665527	26.217314
419.330414	1527.054810	15239.122070	5110.031738	26.130100
419.689423	1521.871948	15591.002930	5199.021973	26.136297
420.048370	1521.210327	15940.676758	5285.696289	26.106970
420.407257	1519.997314	16263.223633	5368.400879	26.102858
420.766144	1519.887085	16600.767578	5448.458008	26.050009
421.125000	1524.518555	16922.103516	5527.744629	25.999052
421.483795	1525.180176	17245.310547	5617.395996	26.031691
421.842560	1520.769287	17599.064453	5703.518555	26.014879
422.201324	1520.328125	17935.947266	5788.208496	25.998899
422.560028	1519.887085	18241.623047	5864.627441	25.982590
422.918671	1520.769287	18531.310547	5940.274414	25.980978
423.277283	1524.077515	18778.761719	5991.330078	25.890085
423.635925	1525.841919	18955.306641	6040.180664	25.900616
423.994476	1527.385742	19096.347656	6083.407227	25.932219
424.353027	1529.921997	19197.578125	6096.088867	25.844780
424.711487	1530.914429	19260.099609	6115.276855	25.857716
425.069946	1529.701416	19272.009766	6106.785156	25.797567
425.428375	1529.701538	19241.906250	6096.640137	25.784132
425.786743	1531.576050	19143.101563	6067.638672	25.756216
426.145081	1531.796509	18994.343750	6025.404297	25.732832
426.503418	1530.914307	18822.097656	5985.375488	25.761457
426.861725	1533.561035	18640.148438	5947.221191	25.800938
427.219971	1537.751343	18467.904297	5908.735840	25.817749
427.578186	1539.405396	18302.933594	5874.551758	25.860586
427.936371	1542.051880	18152.521484	5836.507813	25.853912
428.294495	1545.249756	17946.314453	5789.200684	25.876072
428.652618	1543.485352	17745.066406	5745.863281	25.938072
429.010712	1544.477905	17538.191406	5698.005371	25.969749
429.368744	1549.991455	17290.296875	5641.104492	25.991320
429.726746	1550.432617	17043.066406	5580.675293	26.013929
430.084717	1548.999023	16817.117188	5532.044922	26.087339
430.442688	1548.337280	16581.134766	5491.133789	26.227961
430.800568	1549.660645	16415.947266	5467.425293	26.353350
431.158417	1548.668213	16272.815430	5434.674805	26.392065
431.516235	1546.903809	16145.229492	5400.821289	26.399721
431.874023	1542.492920	16049.514648	5385.162109	26.488340
432.231812	1543.816162	15953.795898	5368.731445	26.543516
432.589508	1543.706055	15895.242188	5367.408203	26.643156
432.947205	1543.595825	15808.457031	5357.152344	26.733921
433.304840	1542.052002	15756.189453	5348.110352	26.776569
433.662476	1541.831421	15700.720703	5341.383789	26.835100
434.020050	1545.029541	15676.790039	5341.382813	26.863979
434.377594	1544.147339	15649.995117	5341.272949	26.918804
434.735138	1536.869263	15624.854492	5343.368164	27.019470
435.092621	1536.648682	15592.102539	5353.182129	27.153399
435.450043	1536.979492	15602.911133	5362.776367	27.199030
435.807465	1532.789063	15644.480469	5372.811523	27.211639
436.164856	1532.017090	15690.354492	5393.983398	27.276976
436.522156	1531.576050	15735.567383	5408.870117	27.297215
436.879486	1527.936890	15802.060547	5442.393066	27.423441
437.236755	1525.510986	15877.817383	5476.025879	27.525295
437.593994	1529.701416	15964.602539	5496.426758	27.480101
437.951172	1528.267822	16095.165039	5528.626465	27.461981
438.308380	1526.944458	16181.729492	5551.673828	27.463585
438.665497	1526.503296	16304.906250	5591.922852	27.509193
439.022583	1530.252686	16441.642578	5633.937012	27.520470
439.379608	1531.906860	16545.410156	5667.680176	27.547026
439.736633	1532.568604	16637.816406	5690.505859	27.526443
440.093628	1535.104736	16715.669922	5710.796387	27.506824
440.450562	1534.773926	16800.359375	5730.535156	27.485098
440.807495	1534.222534	16869.169922	5755.457031	27.526892
441.164368	1534.773926	16950.664063	5774.313477	27.501101
441.521210	1534.773926	17015.833984	5793.280273	27.507847
441.878021	1532.899292	17084.865234	5818.863770	27.558989
442.234833	1536.979492	17175.837891	5836.838379	27.494711
442.591522	1538.854126	17250.492188	5847.424316	27.422796
442.948242	1535.766479	17338.599609	5869.809570	27.425734
443.304901	1538.082275	17434.316406	5899.583008	27.437323
443.661530	1541.169800	17547.126953	5923.181641	27.377380
444.018127	1542.382935	17676.144531	5954.058594	27.344372
444.374664	1544.367798	17807.478516	5980.413574	27.276737
444.731201	1552.197021	17927.343750	6008.202148	27.212000
445.087738	1551.535400	18043.792969	6046.135254	27.252785
445.444183	1552.307251	18093.746094	6063.448730	27.271759
445.800598	1548.888794	18151.085938	6090.354980	27.354610
446.156982	1546.352539	18172.921875	6097.854004	27.374866
446.513336	1545.359985	18160.902344	6108.660156	27.464046
446.869598	1546.793579	18160.683594	6117.592773	27.511913
447.225891	1546.021606	18175.570313	6127.517578	27.550333
447.582153	1546.352417	18179.318359	6131.928223	27.569199
447.938354	1548.999023	18181.964844	6135.346680	27.573843
448.294495	1548.006592	18183.066406	6135.567383	27.577662
448.650665	1544.147095	18170.828125	6135.566895	27.614771
449.006775	1537.971924	18154.617188	6137.552246	27.680559
449.362823	1539.405396	18162.666016	6139.536621	27.672859
449.718842	1541.610718	18152.962891	6151.997559	27.754435
450.074860	1540.838867	18172.703125	6160.157227	27.773909
450.430817	1544.918945	18136.753906	6155.416016	27.787745
450.786713	1541.831299	18068.271484	6141.962402	27.834978
451.142578	1537.861450	17979.615234	6122.664551	27.885122
451.498444	1534.001831	17847.619141	6094.434570	27.954760
451.854248	1533.119629	17694.558594	6057.824219	27.996916
452.210022	1529.039551	17510.074219	6013.936035	28.063868
452.565765	1527.385376	17293.279297	5961.226074	28.122992
452.921478	1529.370361	17109.785156	5913.697754	28.139990
453.277191	1531.796387	16919.673828	5859.003418	28.120884
453.632813	1531.906738	16753.052734	5816.658691	28.149996
453.988434	1531.245117	16601.978516	5771.446289	28.135334
454.343964	1528.819214	16476.490234	5738.144531	28.160408
454.699524	1529.591187	16350.117188	5713.002441	28.227142
455.054993	1527.385742	16251.754883	5691.167969	28.278172
455.410400	1526.282959	16187.574219	5673.414063	28.286261
455.765839	1523.636475	16166.403320	5668.672852	28.307739
456.121216	1525.400879	16186.471680	5685.324219	28.373940
456.476593	1529.591187	16245.579102	5705.503906	28.376705
456.831909	1529.480957	16359.379883	5738.585938	28.382561
457.187195	1528.267822	16504.277344	5778.173340	28.378088
457.542450	1528.157593	16688.544922	5828.788574	28.367552
457.897644	1528.267944	16878.652344	5887.232910	28.396454
458.252808	1531.024780	17079.128906	5941.928711	28.369398
458.607971	1536.317749	17244.759766	5980.744141	28.293234
458.963013	1539.956787	17343.453125	6017.134277	28.330299
459.318085	1542.934204	17441.373047	6039.409180	28.282495
459.673096	1541.831421	17513.933594	6056.280273	28.264587
460.028076	1541.610718	17581.533203	6076.901367	28.275015
460.383057	1541.059570	17632.478516	6093.883789	28.293491
460.737976	1542.272461	17654.751953	6108.991211	28.342743
461.092865	1543.265015	17668.205078	6117.150879	28.365288
461.447723	1543.375244	17674.822266	6124.098145	28.396229
461.802551	1546.573120	17650.451172	6124.098145	28.424986
462.157288	1547.786133	17647.472656	6121.562500	28.409101
462.512054	1548.337646	17629.390625	6124.871094	28.459164
462.866760	1545.911621	17608.216797	6130.935547	28.545242
463.221405	1547.676025	17561.681641	6127.186035	28.596903
463.576019	1547.896484	17482.503906	6104.580566	28.596149
463.930603	1548.447876	17383.810547	6080.761719	28.621473
464.285156	1546.242432	17249.832031	6045.474121	28.650974
464.639709	1547.345093	17084.640625	6004.674316	28.687933
464.994171	1543.706055	16863.326172	5946.449707	28.739248
465.348633	1542.603271	16613.998047	5887.233398	28.826994
465.703033	1539.295044	16373.494141	5827.355469	28.906586
466.057434	1532.899170	16159.786133	5787.215332	29.085590
466.411774	1530.032104	16020.070313	5747.186523	29.103817
466.766083	1522.864380	15879.141602	5715.097168	29.201393
467.120331	1521.100098	15783.867188	5699.769531	29.297747
467.474548	1521.430908	15706.787109	5681.464355	29.326250
467.828735	1519.997314	15633.897461	5671.098633	29.411442
468.182922	1520.438232	15605.998047	5661.945801	29.402508
468.537048	1521.871704	15567.403320	5653.124023	29.413288
468.891144	1520.879272	15539.833008	5644.191406	29.412409
469.245178	1517.571289	15543.692383	5640.112305	29.391882
469.599213	1514.483398	15538.730469	5642.758789	29.436699
469.953186	1512.278076	15543.582031	5638.126953	29.404600
470.307129	1512.719116	15539.062500	5647.279297	29.477104
470.661041	1515.255493	15572.252930	5657.535156	29.467743
471.014923	1517.019775	15620.001953	5677.163086	29.498325
471.368713	1514.483521	15633.895508	5684.331055	29.532728
471.722504	1516.799194	15624.414063	5690.836914	29.587124
472.076294	1515.696533	15594.748047	5684.220703	29.607992
472.429993	1517.571167	15538.951172	5678.266113	29.673933
472.783722	1517.681396	15533.877930	5674.847656	29.659731
473.137329	1521.210205	15559.459961	5688.190430	29.683048
473.490967	1524.628662	15589.895508	5701.092773	29.693457
473.844543	1525.069702	15655.178711	5725.903809	29.729664
474.198090	1525.731445	15736.008789	5761.081543	29.804838
474.551605	1524.849243	15840.216797	5791.736816	29.806345
474.905060	1525.400635	15973.979492	5842.572754	29.879560
475.258484	1526.834229	16111.156250	5882.049805	29.862312
475.611877	1525.180176	16262.120117	5926.931152	29.868828
475.965240	1522.974731	16434.146484	5979.971680	29.890320
476.318573	1525.731445	16599.001953	6034.225586	29.910524
476.671844	1529.149902	16778.083984	6088.700684	29.900785
477.025116	1531.024536	16965.107422	6140.087891	29.862892
477.378326	1533.340210	17172.417969	6202.943359	29.858557
477.731506	1535.435425	17399.578125	6260.946289	29.787369
478.084656	1534.773926	17628.064453	6327.992676	29.783957
478.437744	1532.788940	17876.400391	6402.095215	29.793331
478.790833	1532.347900	18179.759766	6484.358398	29.746429
479.143890	1529.149902	18532.742188	6588.677246	29.755638
479.496826	1527.606079	18959.386719	6718.247070	29.776882
479.849823	1528.488281	19549.675781	6902.732910	29.821812
480.202728	1529.039673	20281.115234	7120.300781	29.816759
480.555603	1525.952148	21176.748047	7397.747070	29.880695
480.908478	1522.974731	22400.552734	7784.583496	29.992027
481.261292	1522.974731	23963.777344	8258.535156	30.014793
481.614075	1524.628906	25732.109375	8796.554688	30.039995
481.966797	1526.834229	27496.359375	9335.788086	30.069683
482.319489	1527.606079	29080.205078	9781.399414	29.956495
482.672150	1526.393188	30462.691406	10159.192383	29.833805
483.024780	1524.739014	31572.472656	10462.882813	29.746481
483.377350	1523.636353	32530.302734	10712.209961	29.634186
483.729919	1522.313110	33403.109375	10941.908203	29.546297
484.082428	1523.856812	34220.453125	11176.898438	29.523079
484.434937	1524.187622	35104.066406	11446.955078	29.549742
484.787384	1523.636230	36042.925781	11722.637695	29.545805
485.139771	1526.503296	37078.054688	12033.935547	29.555483
485.492157	1529.921753	38098.410156	12328.916016	29.530874
485.844482	1531.355347	39044.769531	12612.425781	29.538954
486.196777	1530.693726	39872.480469	12851.939453	29.527176
486.549072	1531.796509	40529.593750	13021.869141	29.463388
486.901276	1531.134888	40987.113281	13142.617188	29.428957
487.253448	1530.363037	41207.882813	13184.630859	29.372471
487.605591	1528.047241	41187.921875	13173.823242	29.364128
487.957703	1529.039917	40949.730469	13089.244141	29.325218
488.309784	1533.450806	40448.871094	12910.382813	29.235022
488.661835	1533.450806	39685.007813	12680.463867	29.217712
489.013855	1533.560913	38832.492188	12413.383789	29.169264
489.365814	1533.340454	38064.773438	12171.446289	29.120417
489.717743	1533.009521	37422.546875	11986.078125	29.125669
490.069611	1532.017090	36896.214844	11832.798828	29.127710
490.421509	1533.561035	36463.058594	11721.865234	29.168198
490.773315	1538.633545	36034.433594	11609.607422	29.194782
491.125092	1539.625977	35581.214844	11491.726563	29.235123
491.476807	1534.553345	35043.742188	11334.036133	29.244165
491.828522	1536.317749	34357.406250	11127.495117	29.222607
492.180176	1533.230225	33541.167969	10895.373047	29.249441
492.531830	1530.804199	32589.628906	10603.812500	29.212336
492.883423	1527.495972	31597.392578	10317.104492	29.230591
493.234985	1525.290405	30630.853516	10041.752930	29.260603
493.586487	1528.047363	29768.414063	9795.182617	29.274176
493.937988	1528.929443	29037.640625	9603.418945	29.352482
494.289429	1532.788818	28473.484375	9447.052734	29.376612
494.640869	1531.686157	28000.085938	9326.304688	29.448771
494.992218	1531.686157	27623.722656	9222.757813	29.476702
495.343567	1529.149902	27261.039063	9121.857422	29.506996
495.694855	1530.362915	26811.238281	8989.090820	29.503441
496.046112	1533.230103	26245.205078	8823.460938	29.500803
496.397339	1532.899292	25526.890625	8611.626953	29.502083
496.748535	1534.663574	24699.515625	8366.051758	29.490316
497.099670	1534.994385	23875.558594	8133.045410	29.533949
497.450806	1536.097046	23117.435547	7942.052734	29.682848
497.801880	1540.177124	22517.664063	7779.952148	29.745104
498.152924	1536.648560	22015.919922	7659.093750	29.895817
498.503937	1535.766357	21626.441406	7560.950195	29.989950
498.854889	1541.279907	21339.951172	7488.389648	30.037924
499.205841	1537.089600	21112.789063	7428.843750	30.097284
499.556702	1541.941650	20926.869141	7377.235840	30.102222
499.907562	1539.956787	20761.572266	7342.941406	30.189890
500.258362	1540.838867	20609.949219	7307.322754	30.239922
500.609161	1544.588257	20483.576172	7259.685059	30.176357
500.959900	1543.926636	20330.847656	7227.705566	30.253912
501.310608	1543.595703	20167.863281	7189.110352	30.312679
501.661255	1540.949097	19978.414063	7144.339844	30.391329
502.011902	1544.257324	19809.808594	7099.900879	30.415966
502.362488	1545.249756	19609.330078	7051.160645	30.479887
502.713043	1546.352539	19430.138672	7001.538086	30.503529
503.063568	1541.279907	19261.421875	6956.436035	30.559326
503.414063	1538.523071	19106.378906	6909.680176	30.573778
503.764496	1541.059204	18964.458984	6870.533691	30.588028
504.114899	1539.295166	18838.527344	6845.611816	30.673710
504.465271	1538.743774	18744.794922	6828.188965	30.741774
504.815613	1535.656128	18675.433594	6812.750977	30.788584
505.165894	1529.701416	18602.212891	6800.510254	30.873070
505.516174	1527.716553	18584.128906	6803.708984	30.932602
505.866394	1527.937012	18570.455078	6798.966309	30.928701
506.216583	1523.305664	18563.177734	6802.936523	30.983984
506.566711	1523.856934	18600.339844	6820.360352	31.016361
506.916840	1523.085083	18640.369141	6834.475586	31.029402
507.266907	1521.872070	18704.107422	6863.366699	31.087311
507.616882	1518.674072	18761.666016	6882.884766	31.109512
507.966858	1516.689209	18802.027344	6907.364746	31.186407
508.316803	1516.248169	18854.185547	6934.602051	31.251434
508.666748	1516.579102	18909.541016	6953.568359	31.259710
509.016632	1515.145508	18965.890625	6972.866211	31.275000
509.366486	1513.932373	19011.984375	6998.669434	31.344843
509.716309	1512.940063	19094.466797	7023.701660	31.344044
510.066040	1512.609253	19168.130859	7057.224609	31.404427
510.415771	1515.476318	19257.892578	7100.893066	31.480589
510.765503	1514.263428	19336.626953	7132.761719	31.524988
511.115173	1516.248169	19421.427734	7158.345215	31.510977
511.464752	1516.578979	19503.468750	7188.781250	31.535202
511.814270	1518.012451	19575.478516	7211.497070	31.529806
512.163818	1518.563843	19630.283203	7230.021484	31.534597
512.513306	1516.578857	19691.484375	7248.217285	31.536001
512.862793	1520.328003	19720.816406	7256.598145	31.517122
513.212219	1519.887085	19769.556641	7281.410156	31.570560
513.561646	1518.563721	19808.925781	7295.855469	31.586538
513.911011	1515.255615	19836.164063	7303.133789	31.591654
514.260315	1513.932251	19890.197266	7325.518066	31.625500
514.609558	1514.593994	19954.156250	7340.625977	31.595285
514.958801	1517.460938	20057.042969	7376.684570	31.603861
515.308044	1517.019897	20201.500000	7427.740234	31.634384
515.657227	1518.894531	20392.933594	7476.591309	31.565563
516.006348	1520.989746	20606.861328	7544.520020	31.560154
516.355408	1523.415771	20836.009766	7622.262695	31.579636
516.704529	1523.856812	21066.146484	7687.984375	31.542505
517.053467	1523.415649	21249.308594	7748.082520	31.555819
517.402466	1526.062256	21397.183594	7795.059570	31.548281
517.751404	1523.084961	21517.271484	7824.943359	31.518452
518.100281	1525.290405	21624.896484	7862.986816	31.531446
518.449219	1520.548950	21691.941406	7902.465820	31.638454
518.798035	1517.571411	21757.333984	7917.462891	31.620390
519.146851	1516.689331	21826.916016	7947.346191	31.662161
519.495544	1517.020020	21905.869141	7969.841309	31.648775
519.844299	1522.313110	21994.197266	7999.725586	31.640530
520.192932	1520.218018	22093.333984	8043.172852	31.706209
520.541626	1522.313110	22156.630859	8071.732910	31.740423
520.890198	1527.937012	22260.949219	8108.453125	31.739317
521.238770	1530.583496	22355.783203	8149.144531	31.781502
521.587280	1531.796387	22446.537109	8183.879395	31.805717
521.935791	1530.693726	22546.884766	8224.790039	31.852091
522.284180	1532.788940	22645.027344	8273.971680	31.930212
522.632629	1534.994385	22760.375000	8312.898438	31.933016
522.981018	1530.693726	22887.296875	8372.555664	32.036282
523.329346	1530.693848	23058.660156	8429.788086	32.047123
523.677551	1525.731567	23236.419922	8488.011719	32.068447
524.025818	1523.415771	23458.398438	8569.172852	32.121098
524.374023	1521.100098	23722.173828	8659.817383	32.154827
524.722229	1520.438477	24090.261719	8769.648438	32.119038
525.070374	1520.548584	24555.941406	8925.904297	32.147728
525.418457	1519.556274	25200.154297	9131.783203	32.145416
525.766541	1524.849365	26106.705078	9433.709961	32.173569
526.114563	1525.621338	27271.955078	9817.348633	32.205467
526.462585	1522.974854	28579.017578	10247.412109	32.245800
526.810547	1526.172729	29825.097656	10646.047852	32.226929
527.158447	1526.172607	30890.884766	10990.539063	32.230408
527.506348	1528.157593	31764.574219	11240.305664	32.120701
527.854065	1528.598633	32475.056641	11449.272461	32.057545
528.201904	1522.202759	33035.906250	11625.487305	32.059971
528.549622	1520.879639	33462.882813	11756.932617	32.045742
528.897339	1520.879517	33790.281250	11855.294922	32.025429
529.245056	1519.997314	34014.574219	11920.687500	32.007465
529.592712	1516.027466	34193.992188	11970.861328	31.993528
529.940369	1515.365845	34378.804688	12037.245117	32.016975
530.287903	1517.571289	34558.000000	12092.381836	32.005669
530.635437	1514.704346	34745.679688	12168.469727	32.059742
530.982910	1517.020020	35013.753906	12254.261719	32.054592
531.330383	1518.233032	35248.523438	12329.908203	32.053310
531.677795	1521.651489	35370.593750	12364.645508	32.033482
532.025208	1522.643921	35337.398438	12353.397461	32.029671
532.372498	1521.320801	35142.769531	12280.617188	32.001289
532.719788	1522.643921	34723.730469	12147.077148	32.000259
533.067078	1520.659180	34028.792969	11904.807617	31.943232
533.414307	1523.195435	33081.554688	11606.079102	31.949963
533.761536	1525.290649	32011.136719	11250.560547	31.900934
534.108643	1523.085083	31022.433594	10946.870117	31.945742
534.455811	1523.856934	30247.216797	10701.182617	31.950741
534.802856	1527.275635	29614.585938	10519.232422	32.014305
535.149902	1524.408447	29126.521484	10376.982422	32.072090
535.496887	1523.195313	28710.240234	10251.822266	32.105831
535.843811	1522.864624	28364.095703	10135.706055	32.088104
536.190796	1520.328247	28066.687500	10061.161133	32.173275
536.537659	1526.613892	27817.033203	9987.167969	32.181129
536.884460	1527.826782	27578.732422	9908.763672	32.171383
537.231323	1525.180298	27296.324219	9825.397461	32.207405
537.578064	1525.952148	27017.113281	9734.863281	32.202972
537.924805	1524.518677	26697.654297	9629.222656	32.195847
538.271423	1526.062500	26405.654297	9539.791992	32.210052
538.618164	1527.275391	26236.941406	9504.394531	32.283394
538.964783	1526.062378	26303.761719	9542.879883	32.354973
539.311279	1525.290405	26509.308594	9637.164063	32.468250
539.657776	1529.811523	26777.714844	9739.385742	32.515865
540.004333	1534.001831	27009.066406	9801.800781	32.454475
540.350769	1530.914307	27213.953125	9873.807617	32.484058
540.697144	1534.773926	27352.234375	9917.254883	32.468262
541.043518	1534.773926	27429.089844	9941.845703	32.466862
541.389893	1532.788940	27431.296875	9928.281250	32.416897
541.736145	1533.009521	27319.259766	9885.827148	32.392525
542.082458	1531.465698	27184.619141	9855.501953	32.448391
542.428711	1530.032104	27028.029297	9813.708008	32.487553
542.774902	1534.443115	26874.091797	9784.044922	32.556103
543.121033	1534.001953	26771.865234	9762.431641	32.603512
543.467102	1535.766357	26708.130859	9741.258789	32.597225
543.813171	1530.473389	26658.839844	9732.327148	32.639820
544.159180	1527.826782	26623.990234	9731.223633	32.687851
544.505127	1527.275269	26580.546875	9703.766602	32.636421
544.851135	1525.510986	26465.642578	9668.919922	32.651829
545.197021	1529.039673	26279.062500	9609.593750	32.648674
545.542908	1529.811523	25915.710938	9500.423828	32.685333
545.888733	1528.598633	25382.431641	9314.173828	32.638676
546.234558	1529.701416	24666.982422	9077.087891	32.620026
546.580322	1529.370483	23875.119141	8810.337891	32.583233
546.926025	1522.754150	23061.306641	8553.844727	32.644211
547.271667	1516.799438	22344.753906	8343.002930	32.774239
547.617371	1515.917236	21688.521484	8133.816406	32.806374
547.962952	1510.513916	21087.759766	7944.037109	32.862251
548.308533	1506.985229	20539.593750	7773.115234	32.923126
548.654053	1510.513916	20035.978516	7625.900879	33.010704
548.999573	1510.072876	19574.046875	7485.744629	33.080605
549.344971	1509.631836	19205.074219	7368.304199	33.108372
549.690430	1511.727051	18895.871094	7270.492676	33.126541
550.035767	1514.704468	18655.806641	7187.016602	33.091877
550.381104	1517.461182	18424.896484	7121.514160	33.145493
550.726440	1517.350952	18201.921875	7047.521484	33.145416
551.071655	1521.872070	17961.861328	6975.954590	33.175709
551.416931	1523.305664	17699.191406	6892.808594	33.194492
551.762085	1523.305664	17417.554688	6815.837891	33.298409
552.107178	1526.393188	17137.240234	6735.450195	33.368191
552.452332	1527.937012	16865.531250	6647.672852	33.380306
552.797424	1528.488281	16617.859375	6578.752930	33.469021
553.142395	1529.039551	16403.378906	6515.566406	33.524357
553.487366	1531.906494	16235.324219	6470.464844	33.587826
553.832336	1533.450439	16092.630859	6431.428711	33.641857
554.177185	1538.192261	15982.911133	6400.000977	33.658035
554.522095	1537.199707	15885.650391	6372.874023	33.701717
554.866943	1540.508057	15797.429688	6353.355469	33.757973
555.211731	1540.177246	15707.779297	6331.080566	33.815910
555.556396	1542.162109	15630.037109	6314.870605	33.878128
555.901123	1536.758667	15550.971680	6300.314941	33.990894
556.245789	1533.891602	15491.977539	6288.184570	34.061211
556.590454	1533.340454	15421.841797	6264.255859	34.063541
556.934998	1535.656006	15336.601563	6238.561523	34.076691
557.279541	1531.135010	15230.741211	6208.457031	34.142017
557.624023	1529.260376	15136.675781	6181.219727	34.186943
557.968567	1528.488403	15005.562500	6152.329102	34.308937
558.312988	1526.393188	14903.338867	6125.421875	34.380260
558.657349	1528.267822	14807.733398	6096.199707	34.398460
559.001770	1528.708862	14752.045898	6079.107422	34.411877
559.346069	1524.628784	14695.036133	6064.000488	34.466450
559.690308	1524.187622	14652.139648	6058.596680	34.540112
560.034485	1519.445923	14622.696289	6038.416504	34.487404
560.378723	1517.681519	14593.473633	6034.447266	34.542961
560.722900	1515.365845	14547.491211	6022.758301	34.586781
561.067017	1513.380981	14502.721680	6012.282227	34.635334
561.411072	1513.932251	14474.269531	6005.224121	34.654129
561.755127	1513.380859	14445.488281	6003.239746	34.718693
562.099182	1512.057617	14444.275391	6012.171387	34.797695
562.443115	1513.711914	14463.792969	6020.882813	34.804192
562.787048	1512.609131	14476.474609	6026.286133	34.817368
563.130920	1517.020142	14514.077148	6041.062988	34.808212
563.474792	1519.997437	14593.033203	6066.977051	34.781357
563.818604	1519.887085	14671.437500	6094.214355	34.781654
564.162354	1516.689209	14778.511719	6139.866699	34.860802
564.506042	1522.202881	14880.733398	6176.698730	34.842876
564.849731	1525.290405	14948.110352	6201.178711	34.835361
565.193420	1526.723999	15022.654297	6212.206055	34.717739
565.537048	1527.054688	15072.498047	6225.769531	34.688526
565.880615	1524.959595	15111.315430	6233.930176	34.659557
566.224121	1526.723877	15117.048828	6236.246582	34.653492
566.567627	1533.781372	15125.760742	6239.885254	34.624126
566.911072	1532.788940	15127.083008	6242.420898	34.644180
567.254517	1536.758789	15147.593750	6251.133301	34.636925
567.597839	1535.104858	15172.957031	6257.087891	34.624096
567.941223	1534.002075	15221.255859	6265.467773	34.568409
568.284485	1532.678833	15281.576172	6280.023926	34.528915
568.627808	1534.663696	15341.895508	6300.975586	34.520405
568.970947	1535.876709	15414.675781	6323.802246	34.498127
569.314148	1538.633545	15486.792969	6339.020020	34.415916
569.657288	1534.774048	15551.301758	6364.933594	34.460461
570.000366	1534.112305	15612.943359	6391.839844	34.503769
570.343445	1532.348022	15662.568359	6408.822266	34.510956
570.686462	1528.378174	15679.879883	6418.636230	34.556458
571.029419	1526.723999	15675.358398	6414.776855	34.547874
571.372314	1526.613770	15632.462891	6395.369141	34.515862
571.715210	1521.651367	15592.434570	6375.409180	34.495293
572.058105	1520.989990	15575.562500	6364.603516	34.462902
572.400879	1521.872070	15552.845703	6368.352051	34.541294
572.743713	1518.563843	15550.087891	6366.477539	34.550156
573.086426	1520.328125	15549.425781	6373.755859	34.595436
573.429077	1521.982178	15559.351563	6377.174316	34.587624
573.771790	1517.902100	15557.585938	6378.938477	34.623547
574.114441	1517.571289	15556.593750	6376.402344	34.609470
574.457031	1516.248047	15535.863281	6373.093750	34.643215
574.799561	1519.115112	15488.666992	6360.963379	34.660011
575.142029	1518.674072	15425.588867	6348.282227	34.728107
575.484436	1520.438477	15341.343750	6326.338379	34.772686
575.826904	1518.674194	15231.954102	6289.948730	34.793095
576.169250	1519.666626	15101.721680	6247.273926	34.807747
576.511597	1518.012573	14939.840820	6201.290039	34.892990
576.853943	1521.320679	14764.176758	6141.301758	34.886589
577.196167	1524.518555	14579.801758	6078.005371	34.878498
577.538391	1523.526123	14387.044922	6014.157227	34.909817
577.880554	1526.503296	14197.925781	5956.374023	34.959538
578.222717	1527.606079	14013.992188	5906.751465	35.071362
578.564819	1527.936890	13843.730469	5848.416992	35.080807
578.906860	1531.906860	13668.176758	5798.243164	35.153606
579.248901	1529.039795	13486.114258	5741.783203	35.232224
579.590942	1528.488525	13311.665039	5682.235840	35.251503
579.932861	1530.473267	13130.047852	5631.621094	35.356022
580.274780	1531.576050	12965.851563	5581.777344	35.421581
580.616638	1528.929443	12799.669922	5525.869629	35.462978
580.958496	1528.267822	12642.088867	5468.968750	35.457661
581.300232	1525.400757	12493.443359	5421.881836	35.525764
581.641968	1525.841919	12354.940430	5380.199219	35.592598
581.983704	1524.187744	12222.283203	5345.132813	35.716122
582.325317	1525.841919	12101.534180	5307.199219	35.755177
582.666992	1527.275391	11995.232422	5265.295410	35.709164
583.008606	1529.591187	11896.317383	5238.940430	35.781296
583.350098	1530.693970	11814.714844	5213.467773	35.810642
583.691589	1529.039917	11735.871094	5185.458496	35.823250
584.033081	1530.473511	11675.662109	5166.270996	35.837654
584.374512	1529.150146	11635.742188	5150.060547	35.827217
584.715881	1530.804199	11580.606445	5129.439941	35.808025
585.057190	1531.245361	11526.683594	5115.214355	35.856045
585.398499	1526.613770	11487.756836	5099.114746	35.864368
585.739807	1531.355469	11463.937500	5100.989258	35.938629
586.081055	1531.134888	11458.313477	5089.631836	35.846004
586.422180	1532.347900	11440.449219	5090.513184	35.911674
586.763367	1531.134888	11435.597656	5089.190918	35.923767
587.104431	1532.237671	11436.257813	5086.764648	35.889736
587.445496	1529.370483	11437.471680	5084.889648	35.884968
587.786499	1529.039795	11440.559570	5089.080078	35.918209
588.127502	1532.237671	11449.160156	5097.901855	35.955349
588.468445	1533.340332	11450.815430	5102.312988	35.986710
588.809326	1533.560913	11456.659180	5097.460449	35.915188
589.150208	1536.207520	11464.377930	5089.961914	35.794659
589.491028	1537.751343	11463.717773	5090.513184	35.792603
589.831848	1533.450562	11459.858398	5098.784180	35.917660
590.172546	1529.591187	11462.835938	5094.593262	35.889599
590.513245	1527.385620	11457.653320	5092.167969	35.898148
590.853943	1526.723999	11469.452148	5092.277832	35.860916
591.194458	1523.084961	11473.973633	5090.624023	35.851463
591.535095	1526.282837	11476.620117	5093.491211	35.850128
591.875610	1528.819214	11484.891602	5104.849121	35.918079
592.216125	1524.739014	11512.017578	5105.180176	35.850018
592.556580	1528.819214	11542.123047	5114.442383	35.808590
592.897034	1527.385620	11559.435547	5119.404785	35.805435
593.237366	1524.408203	11564.838867	5131.093750	35.921623
593.577698	1529.260254	11603.103516	5138.151367	35.824371
593.918030	1530.252686	11650.410156	5153.368652	35.800983
594.258301	1531.686401	11705.215820	5173.989746	35.801765
594.598511	1533.450684	11771.158203	5205.307129	35.866005
594.938721	1535.325317	11857.501953	5229.567383	35.789371
595.278809	1534.443115	11935.464844	5248.203613	35.705730
595.618958	1537.861328	11997.327148	5269.486328	35.677013
595.958984	1535.876587	12031.291016	5289.004395	35.759693
596.299011	1534.663574	12048.934570	5297.385254	35.786804
596.638977	1534.112305	12065.916992	5305.545410	35.809940
596.978943	1536.317749	12067.018555	5309.956055	35.834633
597.318848	1538.302490	12054.998047	5310.397461	35.867683
597.658630	1541.720947	12036.031250	5307.088867	35.880089
597.998474	1541.941650	12002.398438	5304.663574	35.970913
598.338257	1541.610718	11959.060547	5300.914551	36.086601
598.677979	1536.648438	11904.476563	5295.951660	36.259312
599.017700	1535.986938	11873.490234	5284.593750	36.262211
599.357361	1536.317749	11823.316406	5275.881836	36.352333
599.696960	1537.530640	11767.958984	5265.406250	36.439095
600.036560	1535.104736	11732.892578	5251.953125	36.447594
600.376038	1537.420532	11709.957031	5237.506836	36.373295
600.715576	1535.215088	11680.955078	5231.883301	36.435669
601.055054	1530.473267	11653.055664	5220.745605	36.455841
601.394409	1530.142456	11614.680664	5211.813477	36.508076
601.733826	1529.260376	11593.729492	5205.086914	36.522808
602.073120	1523.195435	11560.426758	5211.592773	36.747158
602.412415	1519.335693	11560.868164	5218.540039	36.839043
602.751587	1515.366089	11583.473633	5222.069336	36.816284
603.090820	1516.578979	11618.099609	5232.104004	36.781837
603.429993	1518.563843	11665.185547	5250.960449	36.784622
603.769104	1517.902100	11700.142578	5263.090332	36.781574
604.108154	1517.240479	11724.841797	5271.250977	36.776615
604.447205	1517.571289	11761.012695	5274.118164	36.672703
604.786194	1516.358276	11777.001953	5284.373047	36.722984
605.125183	1519.666504	11801.591797	5290.217773	36.671646
605.464111	1522.423340	11833.351563	5302.237305	36.658329
605.802979	1524.849121	11869.520508	5304.442383	36.536617
606.141846	1523.415527	11894.111328	5313.264160	36.543823
606.480652	1525.621338	11927.525391	5321.424316	36.491425
606.819336	1524.187622	11986.520508	5326.496582	36.342842
607.158020	1522.202759	12036.363281	5351.087891	36.416462
607.496765	1518.453491	12074.296875	5374.686035	36.531731
607.835388	1515.255615	12102.967773	5383.728516	36.537384
608.173950	1520.328369	12105.945313	5392.881348	36.583157
608.512512	1522.313110	12089.955078	5386.485352	36.566082
608.851013	1523.415771	12038.128906	5362.776855	36.514179
609.189514	1528.708862	11961.158203	5326.938477	36.407841
609.527893	1531.575928	11846.584961	5293.856934	36.473850
609.866333	1536.428101	11725.615234	5254.269043	36.488098
610.204712	1538.082153	11597.809570	5212.034668	36.521393
610.542969	1536.317749	11477.282227	5170.902344	36.561687
610.881226	1535.545898	11375.941406	5136.497070	36.593563
611.219482	1536.538330	11296.544922	5105.180176	36.563927
611.557678	1534.774048	11222.221680	5086.543457	36.663628
611.895813	1534.001953	11170.172852	5065.591797	36.649307
612.233948	1529.370605	11119.116211	5049.271484	36.704838
612.571960	1530.693848	11067.949219	5022.806641	36.615490
612.910034	1530.693848	11004.432617	5005.604004	36.679398
613.247986	1530.032227	10945.435547	4980.351074	36.645470
613.585938	1525.510986	10878.611328	4957.304199	36.691502
613.923828	1526.723877	10775.286133	4925.876953	36.753311
614.261658	1528.708740	10655.861328	4883.311035	36.754097
614.599487	1530.583374	10533.898438	4841.076172	36.769707
614.937317	1532.899170	10426.493164	4807.113281	36.815422
615.275024	1529.921753	10327.688477	4775.244141	36.888023
615.612732	1525.951904	10242.007813	4742.383789	36.902378
615.950378	1524.297852	10159.083008	4723.306152	37.047920
616.288025	1523.856812	10087.185547	4703.016602	37.125278
616.625549	1523.415649	10036.679688	4676.660645	37.039204
616.963074	1522.092407	9979.669922	4665.854004	37.170948
617.300537	1521.761597	9949.125000	4661.111816	37.251865
617.638000	1521.761597	9913.396484	4654.165039	37.327690
617.975464	1523.636230	9882.080078	4648.430664	37.384884
618.312744	1525.952026	9843.483398	4642.806641	37.473312
618.650024	1523.746582	9816.908203	4636.741211	37.536884
618.987305	1523.526001	9787.244141	4621.303223	37.486485
619.324585	1529.370483	9754.933594	4612.371582	37.480728
619.661743	1528.267822	9729.902344	4607.188477	37.540329
619.998901	1531.465820	9711.817383	4604.321289	37.563854
620.336060	1534.001953	9686.896484	4599.249023	37.597042
620.673096	1539.184814	9661.203125	4589.655273	37.558033
621.010193	1538.633423	9631.980469	4590.096191	37.703350
621.347168	1535.766357	9616.762695	4570.136719	37.549461
621.684082	1534.773926	9601.544922	4566.167480	37.578773
622.020996	1535.545898	9580.703125	4553.044922	37.507023
622.357849	1540.397827	9554.568359	4543.892578	37.477299
622.694641	1540.397827	9528.212891	4537.606934	37.522263
623.031433	1541.941650	9508.142578	4526.800293	37.469036
623.368164	1542.162231	9502.850586	4524.374023	37.461735
623.704895	1541.059570	9505.497070	4531.211426	37.543793
624.041504	1537.971924	9534.609375	4535.401367	37.483624
624.378174	1534.663818	9550.929688	4538.158691	37.467506
624.714783	1534.994629	9583.019531	4541.687500	37.359386
625.051331	1531.906982	9605.955078	4548.965332	37.367359
625.387756	1531.024780	9641.573242	4554.699219	37.280762
625.724304	1531.906860	9667.598633	4565.285645	37.284832
626.060669	1535.656128	9673.332031	4574.217773	37.339428
626.397034	1532.678955	9680.831055	4577.856934	37.372620
626.733337	1532.568604	9681.161133	4576.312500	37.353001
627.069641	1527.716553	9676.640625	4575.981934	37.406967
627.405884	1528.267944	9668.479492	4574.327148	37.419903
627.742126	1527.937012	9663.517578	4576.863770	37.476448
628.078308	1523.526123	9658.775391	4578.628906	37.553894
628.414429	1523.526123	9645.101563	4582.267578	37.661922
628.750488	1524.959595	9631.758789	4574.437500	37.616302
629.086548	1526.062256	9595.479492	4566.938965	37.683971
629.422546	1523.526123	9564.051758	4556.463379	37.720634
629.758545	1525.069824	9526.228516	4544.222656	37.733944
630.094421	1524.187744	9472.195313	4527.791992	37.790657
630.430298	1525.290405	9417.831055	4511.361328	37.834087
630.766113	1526.282959	9351.777344	4492.173828	37.900364
631.101929	1529.260254	9271.388672	4469.899414	37.982307
631.437622	1531.575928	9189.014648	4448.395996	38.091328
631.773376	1529.149902	9111.272461	4426.010254	38.206455
632.109070	1529.149902	9044.116211	4396.788086	38.159031
632.444641	1525.510864	8975.857422	4375.947754	38.259121
632.780273	1528.378052	8906.606445	4348.158691	38.217587
633.115784	1525.069946	8849.706055	4328.750977	38.277412
633.451294	1521.872070	8788.946289	4303.057129	38.271042
633.786682	1520.438477	8727.304688	4281.443359	38.310757
634.122131	1521.982178	8668.307617	4254.316406	38.234116
634.457458	1520.107666	8613.833008	4235.129883	38.273571
634.792847	1519.997314	8549.323242	4211.862305	38.294781
635.128113	1524.739136	8485.807617	4192.123047	38.318600
635.463318	1526.613770	8434.750000	4183.191406	38.455780
635.798584	1525.841919	8377.078125	4162.569824	38.485435
636.133728	1525.952148	8329.109375	4146.139160	38.514278
636.468872	1525.290527	8283.125000	4128.385254	38.519657
636.803955	1524.739136	8240.559570	4117.357910	38.604645
637.139038	1526.613770	8204.279297	4103.132324	38.584122
637.473999	1525.069946	8163.147949	4083.834717	38.546768
637.808899	1525.400757	8111.651855	4062.662598	38.523613
638.143799	1522.202759	8053.869141	4042.041260	38.578796
638.478638	1523.415771	7994.541504	4020.759033	38.592098
638.813538	1528.047363	7933.230469	4001.571533	38.617538
639.148315	1530.252808	7868.169434	3982.494141	38.691597
639.483032	1530.583496	7802.336914	3958.785400	38.716476
639.817749	1529.150024	7742.680176	3941.693359	38.827259
640.152405	1527.165161	7685.999023	3919.418213	38.842628
640.487000	1529.480835	7628.216309	3901.113037	38.887280
640.821594	1528.819214	7575.727539	3886.336426	38.987148
641.156128	1528.598511	7530.735840	3870.347168	39.015244
641.490662	1528.267822	7483.979980	3857.445313	39.108295
641.825134	1524.959595	7437.886230	3845.866455	39.251404
642.159546	1522.092651	7393.886719	3826.679199	39.248421
642.493896	1519.666626	7349.887695	3808.153564	39.252144
642.828186	1517.902222	7319.563477	3796.795410	39.280010
643.162537	1516.358398	7284.606934	3786.650391	39.358429
643.496765	1515.696777	7244.688477	3772.094482	39.385597
643.830994	1516.027588	7218.002441	3755.994873	39.284061
644.165100	1513.380981	7196.499023	3746.069824	39.286339
644.499268	1510.293457	7173.011230	3743.093018	39.429821
644.833313	1509.301025	7158.014160	3743.423340	39.550999
645.167358	1515.035156	7139.157715	3739.122803	39.545506
645.501343	1513.491211	7132.981934	3731.514160	39.470177
645.835327	1509.962524	7123.058105	3725.008301	39.462109
646.169189	1508.529053	7114.456055	3717.509766	39.404381
646.503052	1512.057617	7104.311035	3715.193848	39.396217
646.836914	1513.932251	7088.541504	3711.224365	39.416073
647.170654	1516.578979	7080.492676	3711.003662	39.440311
647.504395	1517.461182	7083.359375	3713.980713	39.463882
647.838074	1520.107666	7085.785156	3711.554688	39.374306
648.171753	1518.563965	7084.130859	3708.908203	39.355278
648.505371	1519.666626	7081.926270	3709.680176	39.372734
648.838928	1519.666626	7087.440430	3704.828125	39.246593
649.172424	1521.982300	7097.144531	3708.798096	39.224258
649.505920	1522.754150	7098.687500	3713.319580	39.286076
649.839294	1523.526245	7092.181641	3714.201660	39.339394
650.172729	1525.070068	7090.195801	3713.319580	39.320755
650.506104	1525.731567	7093.063965	3713.319092	39.293278
650.839355	1524.959595	7090.638184	3712.767822	39.308918
651.172668	1528.157593	7082.256836	3711.995850	39.319397
651.505859	1533.671265	7068.252441	3707.916016	39.284718
651.839111	1538.082153	7056.342773	3707.474609	39.312977
652.172241	1535.876709	7041.786621	3701.519775	39.333061
652.505371	1535.435547	7022.710449	3697.329346	39.398315
652.838379	1536.648560	7007.603516	3690.161865	39.362656
653.171387	1536.758789	6991.062500	3684.758545	39.381741
653.504333	1537.310181	6964.927734	3679.135010	39.461597
653.837280	1534.001953	6946.622559	3669.761475	39.458881
654.170227	1533.781494	6934.712891	3662.262939	39.409523
654.503052	1535.214966	6922.582520	3655.646240	39.359318
654.835876	1537.751221	6907.695801	3653.771484	39.404884
655.168579	1542.713379	6891.927246	3650.463623	39.402992
655.501343	1541.279907	6883.436035	3651.014893	39.492195
655.833984	1544.477783	6877.039551	3659.064697	39.654243
656.166626	1543.044312	6878.804199	3659.616455	39.667683
656.499268	1544.588013	6896.999023	3658.955078	39.503078
656.831787	1545.580444	6924.126465	3662.373535	39.356232
657.164307	1540.287598	6959.083496	3679.796387	39.483105
657.496765	1539.625854	6995.473145	3695.676025	39.518158
657.829224	1541.059448	7031.642090	3709.570801	39.495102
658.161621	1538.302612	7066.819336	3718.943359	39.443504
658.493958	1535.986938	7092.732910	3727.103516	39.431652
658.826233	1532.568604	7112.912109	3725.228516	39.292561
659.158508	1530.032227	7145.002441	3728.536865	39.154343
659.490723	1530.914429	7156.470215	3730.411377	39.098309
659.822876	1531.576050	7165.181641	3740.446045	39.208817
660.154968	1531.245239	7168.710449	3741.769775	39.211319
660.487061	1529.921875	7173.231934	3742.982422	39.215649
660.819153	1531.906860	7170.034180	3742.320801	39.204754
661.151123	1530.473267	7159.007324	3741.438721	39.281368
661.483093	1531.134888	7142.245605	3735.704346	39.289356
661.815002	1528.708740	7124.049805	3730.631592	39.352791
662.146851	1524.077393	7100.892090	3727.875488	39.517151
662.478760	1521.320557	7082.146484	3715.083252	39.450302
662.810486	1519.666504	7055.461426	3703.835449	39.455379
663.142212	1519.004883	7017.968750	3687.405029	39.432884
663.473938	1521.430908	6967.243164	3672.297607	39.495792
663.805603	1521.320557	6898.985352	3660.498779	39.778942
664.137207	1523.967041	6828.961914	3629.843018	39.696095
664.468689	1525.400635	6759.269531	3610.765625	39.843658
664.800293	1526.172607	6684.834961	3585.843750	39.926460
665.131775	1529.921875	6612.826660	3564.451172	40.026901
665.463196	1529.480713	6554.823730	3550.666992	40.219868
665.794617	1531.906860	6497.812500	3533.354248	40.303772
666.125916	1537.530640	6446.314941	3520.782715	40.402103
666.457275	1537.971802	6413.785156	3514.056152	40.528301
666.788574	1536.979370	6383.789551	3500.603516	40.513744
667.119812	1539.295044	6353.906250	3496.633545	40.654133
667.450928	1540.397827	6330.308105	3492.001953	40.744064
667.782104	1540.177368	6313.988281	3488.032471	40.802937
668.113159	1540.397827	6295.461914	3486.047363	40.917419
668.444214	1535.876709	6287.633301	3480.203125	40.918053
668.775208	1536.758789	6277.928711	3474.578857	40.872192
669.106201	1540.067017	6267.453125	3469.616699	40.816418
669.437134	1543.044312	6245.729004	3463.441162	40.836182
669.768005	1546.904053	6219.263184	3453.406738	40.803852
670.098877	1548.999146	6209.559570	3446.790527	40.720238
670.429688	1548.227295	6190.813477	3443.702637	40.828007
670.760437	1550.101929	6188.717773	3432.674805	40.584801
671.091187	1550.542969	6176.477539	3430.580078	40.641239
671.421814	1549.109375	6162.472656	3417.898926	40.508183
671.752441	1546.573120	6143.506836	3409.297363	40.521015
672.083008	1542.934204	6130.383789	3403.232178	40.551899
672.413574	1544.367798	6119.577148	3388.676025	40.310902
672.744080	1539.846558	6102.816406	3377.097900	40.264378
673.074524	1536.758911	6089.362793	3366.952637	40.201031
673.404968	1535.876709	6066.977539	3356.366699	40.177654
673.735352	1536.869019	6040.401855	3340.818359	40.056316
674.065613	1533.560913	6016.141602	3331.775635	40.115616
674.395935	1531.355469	6001.144531	3324.387695	40.114471
674.726196	1528.819214	5980.192871	3315.234863	40.131786
675.056335	1529.150024	5964.313965	3305.972168	40.062153
675.386536	1531.796509	5940.384766	3301.230225	40.136063
675.716614	1528.929443	5925.387695	3294.834473	40.166538
676.046692	1526.503296	5913.808594	3292.077637	40.242798
676.376770	1526.834229	5913.698730	3293.401123	40.269466
676.706726	1523.856812	5920.866699	3293.511475	40.246777
677.036621	1524.518555	5919.323242	3299.355713	40.384892
677.366516	1525.290405	5932.114746	3301.892090	40.314785
677.696411	1521.210327	5936.635254	3306.854492	40.441051
678.026184	1518.343384	5951.631836	3312.808838	40.477074
678.355957	1517.902100	5965.967285	3319.536133	40.503765
678.685669	1519.997314	5992.542969	3329.570801	40.459583
679.015320	1519.666626	6014.707520	3336.627930	40.421463
679.344971	1521.210449	6027.168945	3347.324463	40.526649
679.674561	1522.313232	6048.010254	3358.793213	40.578941
680.004150	1517.240723	6064.110352	3371.143555	40.773170
680.333618	1518.453735	6078.115234	3379.414551	40.813572
680.663086	1517.791992	6094.435059	3394.742188	41.011505
680.992493	1519.997437	6107.778320	3393.418945	40.835026
681.321899	1521.761719	6110.093750	3390.551270	40.729172
681.651184	1523.746704	6108.219238	3396.065186	40.840431
681.980530	1526.393188	6103.146973	3393.749512	40.800888
682.309753	1526.723999	6094.655762	3392.867188	40.853134
682.638977	1527.385498	6081.533691	3394.190186	40.991302
682.968079	1528.929199	6066.426270	3382.612061	40.852543
683.297241	1531.024414	6046.797852	3373.018311	40.790218
683.626343	1532.678589	6027.499512	3364.747314	40.759548
683.955383	1530.803955	5996.403320	3357.248779	40.900326
684.284363	1533.340332	5959.351563	3344.236572	40.914860
684.613281	1533.119751	5924.835938	3333.098877	40.985779
684.942139	1531.355469	5886.681641	3322.072266	41.115562
685.271057	1532.348022	5854.041016	3313.360596	41.210995
685.599792	1529.260376	5815.224121	3302.664063	41.377010
685.928589	1530.363037	5784.348633	3291.967529	41.410686
686.257324	1527.716553	5753.692871	3277.632324	41.408554
686.585999	1528.488525	5724.580566	3266.164063	41.411762
686.914612	1531.024780	5680.582031	3249.843750	41.421745
687.243164	1531.024780	5642.647949	3232.751221	41.388191
687.571777	1531.245117	5601.516602	3219.187500	41.470020
687.900269	1530.363037	5560.385254	3211.689453	41.720028
688.228699	1528.378052	5526.420898	3201.654053	41.852375
688.557129	1530.362915	5496.758301	3185.002930	41.716465
688.885498	1526.393188	5467.314941	3180.481689	41.972122
689.213867	1525.510986	5442.834473	3170.777832	41.999771
689.542114	1524.628906	5421.772461	3161.184082	41.993710
689.870361	1523.636475	5396.079102	3159.640625	42.247345
690.198608	1522.313110	5375.126465	3155.670654	42.393890
690.526794	1522.533813	5343.258301	3149.274902	42.576771
690.854858	1522.313110	5320.982910	3139.239990	42.565605
691.182922	1516.248169	5299.259277	3132.072266	42.712643
691.510986	1516.358398	5276.433105	3124.022217	42.756168
691.838928	1521.320679	5241.477051	3113.325928	42.794041
692.166931	1522.974731	5200.455566	3098.990234	42.855843
692.494812	1526.282837	5167.484375	3087.632324	42.880062
692.822632	1525.841797	5120.288086	3078.038574	43.183197
693.150452	1527.495850	5083.236328	3067.893555	43.321434
693.478149	1525.952148	5042.655762	3061.828613	43.673752
693.805908	1527.826782	5017.734375	3053.668457	43.721546
694.133606	1527.606079	4996.671875	3046.280029	43.777603
694.461243	1529.039673	4976.712402	3035.031982	43.681416
694.788818	1530.583496	4963.038086	3031.172607	43.717667
695.116333	1532.458130	4961.714844	3031.834473	43.723068
695.443848	1532.347900	4954.547363	3034.812012	43.903465
695.771301	1534.663452	4967.780273	3035.142578	43.706032
696.098755	1536.869019	4989.614258	3045.729004	43.700302
696.426147	1538.302612	5020.049316	3057.969238	43.646675
696.753418	1537.751343	5064.489258	3071.973877	43.502598
697.080688	1537.530640	5103.635742	3086.750488	43.442913
697.407898	1537.199829	5152.597168	3102.519043	43.295910
697.735107	1537.310059	5187.553223	3123.030029	43.441490
698.062317	1540.066895	5222.729980	3133.726563	43.274654
698.389404	1541.831421	5252.503906	3147.510498	43.271915
698.716492	1540.949097	5280.292480	3155.670410	43.181950
699.043457	1536.427979	5295.730957	3166.587402	43.363342
699.370483	1534.884155	5303.449219	3173.534668	43.482082
699.697388	1536.207397	5314.476563	3172.101074	43.297436
700.024292	1536.648438	5318.777832	3173.865234	43.288227
700.351135	1538.192261	5310.507324	3171.439453	43.295620
700.677917	1537.309937	5302.567383	3170.778320	43.382648
701.004639	1538.192139	5290.989258	3171.439697	43.520805
701.331299	1538.853760	5274.338379	3173.093750	43.749077
701.658020	1535.876465	5256.915039	3165.043945	43.782600
701.984619	1535.435303	5223.171387	3158.096680	44.001560
702.311218	1537.640747	5193.177246	3149.826172	44.102566
702.637756	1539.074341	5146.642578	3133.837158	44.206032
702.964233	1536.207275	5091.506348	3113.877441	44.375175
703.290649	1532.678711	5023.027344	3091.712646	44.666996
703.617065	1532.237671	4950.688477	3066.460449	44.880646
703.943481	1531.024658	4864.344727	3039.884521	45.265976
704.269775	1528.708862	4791.344238	3011.985596	45.462536
704.596008	1528.267822	4730.583984	2977.690430	45.261696
704.922241	1525.510986	4663.869141	2958.172363	45.650028
705.248474	1526.503418	4603.991211	2937.110107	45.836304
705.574585	1524.959717	4556.352539	2919.356201	45.998543
705.900696	1525.400757	4518.529297	2905.241455	46.100285
706.226746	1526.503540	4489.969238	2890.685547	46.033329
706.552734	1525.621338	4460.085449	2878.335449	46.097485
706.878723	1523.526245	4434.391602	2866.756592	46.145397
707.204651	1522.533813	4421.049316	2856.170410	46.011021
707.530518	1526.282959	4410.683105	2846.245850	45.762127
707.856323	1523.526123	4401.089844	2841.283936	45.794220
708.182068	1521.761719	4400.096680	2834.667236	45.613369
708.507813	1526.282837	4397.781250	2839.078369	45.718132
708.833496	1525.841797	4395.465332	2839.519043	45.778732
709.159180	1522.092407	4407.264648	2842.717041	45.772816
709.484802	1519.335693	4415.645020	2849.885010	45.939476
709.810303	1521.982178	4421.489746	2854.406006	45.953453
710.135864	1522.643799	4431.855469	2861.243164	46.012444
710.461304	1523.415771	4434.281738	2865.433350	46.103722
710.786743	1522.754150	4447.514648	2866.756592	45.952564
711.112122	1522.974731	4447.183594	2872.049561	46.134693
711.437500	1524.739136	4451.043457	2874.696045	46.131805
711.762817	1526.723999	4454.351074	2875.578125	46.073292
712.088013	1525.952148	4456.335938	2875.688477	46.060055
712.413269	1532.017090	4455.343262	2873.372803	45.884571
712.738403	1533.009521	4461.628906	2870.174561	45.658546
713.063538	1530.142578	4457.989746	2870.064697	45.764755
713.388611	1526.282959	4458.431152	2871.939209	45.893188
713.713623	1523.085083	4456.666992	2875.688477	46.107571
714.038574	1522.533691	4455.343750	2875.578613	46.134762
714.363525	1517.571411	4444.757813	2885.062012	46.716892
714.688477	1518.784424	4438.692871	2885.723633	46.814453
715.013306	1518.233032	4424.467285	2885.282471	47.038513
715.338135	1517.240479	4405.832031	2876.239990	47.047134
715.662842	1516.799438	4392.268066	2872.049561	47.131451
715.987549	1514.704346	4365.250977	2862.014648	47.264980
716.312195	1515.586548	4337.020996	2849.884766	47.291481
716.636841	1510.072876	4309.893555	2836.872559	47.388737
716.961426	1512.940063	4277.473633	2819.559814	47.263657
717.285950	1510.624390	4246.596680	2809.635010	47.478943
717.610474	1510.513916	4219.910645	2799.269531	47.566147
717.934937	1511.616699	4188.042480	2788.132080	47.694778
718.259277	1510.293579	4158.048828	2782.397949	48.044632
718.583679	1511.065308	4126.400391	2772.363037	48.227005
718.908020	1511.506470	4098.060059	2759.902344	48.264835
719.232239	1507.205811	4065.860107	2756.042480	48.808338
719.556519	1505.882568	4031.344971	2751.962646	49.340672
719.880737	1508.529053	4001.350830	2739.832520	49.393963
720.204834	1513.270752	3963.527588	2732.995850	49.779480
720.528931	1516.248047	3929.343262	2721.196533	49.933731
720.852966	1519.335693	3900.341797	2715.131592	50.222294
721.176941	1523.305542	3871.340088	2701.126953	50.162010
721.500916	1525.069824	3841.566650	2683.814453	50.021420
721.824829	1525.510986	3815.542480	2671.353516	50.036102
722.148743	1523.967041	3794.039063	2663.083252	50.179737
722.472534	1524.849243	3771.322266	2650.953613	50.127659
722.796326	1528.047241	3750.590820	2646.432129	50.320045
723.119995	1527.716553	3727.654297	2638.161621	50.476204
723.443665	1531.796631	3714.201172	2634.632813	50.533077
723.767334	1531.686279	3707.695801	2633.309570	50.625851
724.090942	1534.774048	3705.820801	2629.008789	50.401249
724.414551	1535.435547	3699.424561	2624.928711	50.346519
724.737976	1536.207520	3699.755615	2624.046387	50.280319
725.061462	1539.405396	3692.477783	2619.855957	50.181808
725.384888	1539.405518	3692.257324	2616.657959	50.038391
725.708252	1540.949341	3693.801270	2620.076416	50.125465
726.031616	1539.736206	3705.379883	2620.407471	49.900700
726.354858	1541.390381	3719.053223	2615.555420	49.326508
726.678162	1537.751343	3719.604980	2621.951172	49.691689
727.001404	1536.317749	3735.263428	2619.415283	49.255310
727.324463	1538.964355	3741.769775	2626.582764	49.374237
727.647583	1536.758911	3746.511230	2628.567627	49.408646
727.970642	1536.648682	3750.922363	2630.772949	49.412331
728.293701	1536.758789	3754.451172	2636.617676	49.594746
728.616699	1534.002075	3762.831543	2642.792725	49.747665
728.939575	1531.465820	3774.961670	2650.511963	49.879574
729.262512	1528.929443	3786.760742	2655.694824	49.904762
729.585266	1530.473267	3800.875732	2656.025391	49.575008
729.908142	1531.796631	3818.629883	2664.516602	49.532249
730.230896	1532.678711	3826.128418	2667.273438	49.471096
730.553467	1533.450562	3835.611572	2667.273438	49.250370
730.876160	1534.773926	3837.927002	2667.604004	49.186054
731.198792	1536.097290	3846.527832	2671.684082	49.150436
731.521362	1536.758911	3854.026855	2678.410645	49.267139
731.843872	1535.656128	3861.084473	2682.490723	49.317135
732.166321	1532.678711	3866.487793	2688.445801	49.522778
732.488770	1532.017212	3865.495117	2687.122314	49.501434
732.811157	1530.032227	3856.783447	2686.240234	49.691948
733.133484	1528.378174	3843.440918	2686.681396	50.033340
733.455811	1530.693848	3832.854248	2681.719238	49.997620
733.778015	1531.576172	3824.032715	2684.806885	50.305454
734.100281	1528.157593	3820.725098	2676.536377	50.091385
734.422424	1527.385742	3806.279053	2671.904785	50.222580
734.744507	1525.511108	3792.605713	2664.847412	50.255344
735.066589	1524.077515	3784.444824	2665.398926	50.492744
735.388611	1525.511108	3774.409912	2660.877686	50.485443
735.710571	1528.598755	3754.340820	2648.857910	50.331936
736.032532	1531.576172	3740.666748	2646.652344	50.476707
736.354431	1531.024780	3725.558838	2646.211182	50.816544
736.676270	1527.165161	3713.097900	2642.682373	51.031639
736.998108	1525.070068	3704.386475	2642.131348	51.257416
737.319824	1523.967407	3695.013428	2643.895752	51.584740
737.641541	1519.225586	3684.647949	2646.983154	52.080257
737.963135	1520.107788	3675.936768	2643.123779	52.092068
738.284790	1520.218018	3657.190430	2635.625000	52.195667
738.606323	1518.894775	3644.950439	2632.096436	52.359947
738.927856	1519.776978	3628.299072	2624.487549	52.392651
739.249390	1520.659180	3611.537598	2617.650635	52.465580
739.570740	1524.518677	3597.863770	2609.490479	52.329529
739.892212	1525.731567	3585.733643	2608.498047	52.561428
740.213562	1527.385620	3582.977051	2606.512939	52.497173
740.534790	1527.054810	3572.390625	2602.873779	52.598648
740.856079	1529.701416	3558.496582	2600.999268	52.804634
741.177246	1532.458130	3555.850098	2598.021973	52.662254
741.498413	1534.222534	3552.652588	2595.927002	52.600510
741.819580	1531.245117	3538.096436	2587.987061	52.656712
742.140625	1531.796509	3528.392578	2586.774170	52.838814
742.461670	1531.796509	3519.239502	2588.207764	53.154293
742.782654	1530.032104	3500.052002	2579.716797	53.282948
743.103577	1527.275146	3486.708984	2569.902588	53.210648
743.424438	1528.488159	3469.396484	2561.080811	53.201515
743.745300	1528.929443	3453.737305	2552.148682	53.159554
744.066101	1529.260132	3436.093750	2544.760498	53.255844
744.386902	1534.442871	3418.780762	2535.828369	53.142567
744.707581	1532.899048	3395.182617	2533.733398	53.742317
745.028198	1531.906616	3382.722168	2525.242432	53.670170
745.348816	1530.693726	3369.268555	2519.287598	53.769573
745.669373	1530.583374	3360.998535	2516.420654	53.858669
745.989929	1529.921753	3352.176758	2520.169922	54.341911
746.310364	1530.804077	3345.119141	2516.641113	54.336594
746.630798	1530.583496	3336.958740	2510.686523	54.257996
746.951172	1528.378052	3327.034180	2505.173096	54.306938
747.271545	1526.393066	3320.858887	2501.644287	54.347717
747.591858	1525.621216	3316.999268	2500.321045	54.410614
747.912109	1525.621216	3315.676025	2500.210449	54.444660
748.232300	1522.533569	3319.976563	2492.491455	53.963207
748.552429	1526.834229	3321.961426	2491.939941	53.762524
748.872559	1528.267822	3316.889160	2486.205811	53.557339
749.192627	1528.488403	3319.645752	2479.699463	53.105946
749.512695	1530.362915	3321.299805	2479.368652	52.989346
749.832642	1533.781494	3316.337891	2482.235840	53.207535
750.152588	1536.538208	3315.455322	2480.030273	53.037437
750.472473	1537.310181	3308.948975	2479.589355	53.186867
750.792358	1538.854126	3300.789551	2477.384033	53.266987
751.112122	1539.515747	3296.157715	2474.958008	53.251732
751.431824	1540.397827	3291.968018	2470.105957	53.078552
751.751587	1542.162109	3293.952393	2469.775146	52.952290
752.071228	1546.021606	3284.909912	2469.995605	53.135902
752.390869	1547.786133	3282.925537	2468.782715	53.079113
752.710327	1550.542847	3281.712402	2463.378906	52.729443
753.029846	1546.793579	3276.198730	2464.702393	53.076565
753.349304	1546.793579	3271.787598	2461.945801	53.052486
753.668762	1546.793579	3271.125732	2462.607178	53.111206
753.988098	1547.786011	3263.627197	2462.055908	53.284061
754.307434	1547.786011	3258.113770	2460.181396	53.346230
754.626770	1548.006470	3243.006348	2455.880859	53.561916
754.946045	1548.557861	3226.465820	2461.504395	54.409809
755.265259	1546.462646	3212.791748	2460.401855	54.847462
755.584351	1544.698242	3212.901855	2461.173828	54.937874
755.903442	1543.816162	3206.836670	2467.018311	55.513577
756.222534	1541.059204	3204.521484	2467.128418	55.671188
756.541565	1536.097046	3203.859863	2467.128418	55.825165
756.860535	1534.553223	3199.559082	2467.239014	56.016968
757.179443	1535.104614	3201.985107	2470.767578	56.132576
757.498291	1532.237549	3200.220703	2472.862793	56.392971
757.817139	1529.260254	3202.977295	2471.539551	56.298603
758.135925	1529.811523	3206.947510	2469.775391	56.045776
758.454651	1529.370483	3203.639160	2470.106201	56.187859
758.773376	1526.944580	3206.837158	2466.246582	55.914410
759.092041	1526.282959	3200.110596	2460.953613	55.840317
759.410645	1522.864502	3200.110596	2458.968750	55.811981
759.729187	1524.628784	3204.411133	2456.101563	55.451992
760.047607	1525.841797	3205.844971	2456.211914	55.379070
760.366089	1527.716431	3206.396240	2451.139160	55.008865
760.684509	1528.047119	3214.887207	2448.823242	54.585857
761.002869	1528.157471	3226.245117	2450.808105	54.334690
761.321228	1526.834229	3258.114258	2460.181152	53.910801
761.639465	1523.415771	3301.450928	2475.509033	53.547493
761.957642	1524.628784	3355.594971	2493.483643	52.914951
762.275879	1524.297974	3392.095215	2510.575684	52.804325
762.593994	1528.047241	3424.294678	2521.272217	52.378448
762.912109	1529.811646	3457.266357	2532.299561	52.010971
763.230103	1533.781494	3481.416016	2538.584961	51.590965
763.548157	1530.914429	3510.197266	2545.091064	51.239601
763.866150	1530.142578	3521.555176	2548.951172	51.160095
764.184021	1533.671265	3534.346680	2551.376953	50.868107
764.501892	1533.561157	3543.609863	2559.206055	51.025871
764.819702	1535.545898	3548.902832	2566.594482	51.210423
765.137451	1534.443115	3551.218262	2570.012939	51.347809
765.455200	1535.215088	3557.062988	2573.652100	51.360786
765.772888	1536.317749	3558.386230	2577.070313	51.469700
766.090515	1535.215088	3556.290527	2580.378418	51.713226
766.408081	1536.758789	3554.195313	2582.804199	51.850227
766.725586	1537.310181	3549.674805	2582.804199	51.953506
767.043091	1536.207397	3542.837891	2584.017334	52.217384
767.360535	1533.671143	3533.905518	2581.701660	52.395386
767.677917	1533.560791	3512.953613	2577.731934	52.752094
767.995239	1531.686157	3482.959473	2561.962891	52.800228
768.312500	1535.104614	3428.705322	2541.783203	53.162136
768.629822	1532.678711	3368.716797	2522.485596	53.909931
768.947021	1531.576050	3315.345703	2501.754395	54.389217
769.264160	1528.378174	3279.175537	2483.338867	54.544331
769.581299	1528.488281	3238.375000	2468.782715	54.991623
769.898376	1523.856812	3201.103027	2454.006104	55.456932
770.215393	1529.260132	3163.059082	2442.758301	55.912521
770.532349	1530.252563	3136.483643	2431.951416	56.137554
770.849304	1527.495850	3109.136230	2420.593262	56.466530
771.166199	1529.590942	3082.450195	2410.007080	56.696453
771.483032	1529.921753	3060.395264	2399.641357	56.826832
771.799866	1530.031982	3043.634033	2389.496338	56.782715
772.116577	1529.590942	3022.461670	2381.887695	57.091129
772.433350	1529.591064	3013.529541	2376.043457	57.040936
772.749939	1528.929443	2994.341797	2371.080811	57.468559
773.066589	1530.583374	2978.242188	2370.970947	58.051495
773.383057	1531.245117	2968.758545	2368.214111	58.223385
773.699646	1533.671021	2958.282959	2363.803467	58.270779
774.016113	1537.089478	2946.924561	2358.069092	58.232315
774.332520	1537.971680	2943.947266	2352.334961	57.921581
774.648804	1539.625610	2932.699463	2350.901611	58.236397
774.965149	1537.751099	2931.486328	2344.726074	57.900162
775.281433	1539.956543	2928.178223	2339.653564	57.605858
775.597656	1539.846313	2922.885010	2337.117676	57.646351
775.913879	1540.838867	2908.549561	2334.360596	58.018246
776.229980	1539.625854	2895.647949	2332.044922	58.437031
776.546082	1542.603149	2887.598145	2325.649170	58.219250
776.862122	1539.515503	2881.974121	2318.922363	58.058167
777.178162	1536.979248	2869.513428	2314.511230	58.349873
777.494141	1540.728516	2869.292725	2314.621582	58.250332
777.809998	1537.971680	2867.638672	2310.982422	58.135666
778.125854	1533.340332	2864.220215	2314.952393	58.728970
778.441711	1534.332642	2860.581299	2314.290527	58.809326
778.757446	1531.796509	2852.420898	2310.210938	58.942909
779.073181	1534.112183	2842.276123	2308.336182	59.184021
779.388855	1534.222412	2846.466309	2306.461426	58.848740
779.704468	1531.465576	2844.040283	2301.609619	58.674301
780.020020	1532.568359	2835.549561	2296.978027	58.666210
780.335571	1528.488403	2833.233887	2297.419189	58.933392
780.651062	1527.385620	2824.853271	2298.742432	59.450947
780.966553	1523.856934	2813.605225	2298.411377	60.054699
781.281860	1524.298096	2804.231934	2296.646973	60.342876
781.597290	1525.511108	2792.984131	2294.993164	60.709934
781.912476	1522.754272	2783.169922	2292.346436	61.058601
782.227722	1523.746704	2773.355713	2287.273926	61.101292
782.542908	1521.651611	2765.857178	2286.171143	61.446400
782.858093	1520.769409	2761.225586	2279.885498	61.196526
783.173218	1522.313232	2755.491455	2281.760498	61.584549
783.488281	1521.982422	2742.258789	2284.296631	62.470619
783.803345	1523.305664	2738.840332	2283.635010	62.551022
784.118225	1517.902100	2726.930908	2279.775391	63.015312
784.433167	1519.335693	2714.801025	2275.916016	63.287518
784.748047	1521.761719	2708.625732	2267.425293	62.826370
785.062866	1518.674072	2699.252441	2267.314941	63.413059
785.377686	1521.210327	2698.039551	2265.660645	63.258991
785.692444	1517.791870	2690.100098	2262.021973	63.484165
786.007141	1519.114990	2681.057861	2259.265137	63.699356
786.321716	1519.666504	2675.654297	2252.648682	63.407433
786.636353	1516.358276	2677.639160	2253.200195	63.450790
786.950928	1516.137695	2676.205566	2254.633545	63.659710
787.265442	1519.115112	2677.087891	2256.067139	63.641567
787.579834	1520.659058	2684.365967	2254.854248	63.091076
787.894226	1519.776978	2687.784424	2258.272461	63.226952
788.208618	1517.681885	2688.776611	2260.257324	63.408657
788.522949	1519.887207	2689.327881	2263.455078	63.583206
788.837219	1519.556396	2690.871582	2263.455078	63.509693
789.151367	1519.887329	2689.438232	2262.131592	63.464043
789.465515	1520.218140	2688.004639	2261.139404	63.446636
789.779602	1521.100220	2684.806641	2262.241943	63.688034
790.093689	1523.967407	2684.475830	2261.801270	63.578503
790.407776	1522.644043	2679.623779	2261.029297	63.820068
790.721741	1523.636475	2679.403076	2257.500488	63.495865
791.035645	1523.415771	2679.072266	2256.948975	63.473289
791.349548	1525.510986	2671.573730	2254.633301	63.619755
791.663391	1529.921875	2665.619141	2248.678467	63.287693
791.977173	1531.134888	2654.701904	2244.488281	63.490063
792.290894	1533.560791	2648.195801	2243.385498	63.682255
792.604614	1532.899170	2638.381592	2237.430908	63.730705
792.918274	1532.127319	2627.244141	2233.130127	64.011696
793.231812	1534.112305	2614.783447	2229.270752	64.326546
793.545410	1535.876587	2603.315186	2222.102783	64.287186
793.858948	1531.796387	2591.957275	2212.178467	64.177246
794.172363	1531.575928	2579.827148	2208.429199	64.569756
794.485840	1531.906738	2572.990234	2203.797607	64.537651
794.799194	1533.009521	2566.925293	2201.371582	64.643761
795.112488	1534.442871	2563.065674	2194.534668	64.172386
795.425781	1536.427856	2558.434326	2195.637207	64.501488
795.738953	1536.538086	2551.928223	2193.983154	64.748024
796.052185	1540.177124	2545.752930	2187.918457	64.414970
796.365234	1536.868896	2541.672852	2184.279297	64.431511
796.678284	1533.671143	2542.995850	2180.861084	64.121086
796.991333	1533.671021	2542.113770	2180.860840	64.177147
797.304382	1533.009521	2535.828369	2179.537598	64.471077
797.617310	1534.553345	2533.402588	2177.222168	64.340919
797.930115	1532.678711	2533.733154	2175.567871	64.221199
798.242981	1527.054810	2533.402588	2171.708252	64.058716
798.555786	1524.849365	2534.505127	2167.848633	63.685001
798.868530	1521.430908	2532.189697	2166.635498	63.833687
799.181213	1523.084961	2532.300293	2164.319824	63.537964
799.493896	1520.879517	2529.984619	2167.628174	64.091309
799.806519	1518.343262	2528.661377	2167.297363	64.232651
800.119080	1519.004883	2524.360596	2166.635986	64.418106
800.431580	1520.989868	2521.603516	2166.966553	64.558052
800.744080	1523.526123	2519.287842	2163.548096	64.274612
801.056458	1525.180298	2511.678955	2162.004395	64.553978
801.368835	1527.716309	2504.952393	2160.129639	64.714485
801.681152	1525.731567	2493.814697	2157.813965	65.292160
801.993408	1522.423218	2482.677002	2149.653809	65.319252
802.305664	1521.982178	2479.148193	2146.235596	65.218925
802.617798	1516.909668	2470.877930	2147.669189	66.119553
802.929993	1518.673950	2462.607422	2145.463623	66.401894
803.242065	1518.012329	2452.241943	2144.471191	67.056198
803.554016	1519.886963	2452.241699	2141.162842	66.635139
803.865967	1521.541138	2451.249512	2143.147705	66.860382
804.177979	1520.438477	2448.823730	2141.162842	66.860641
804.489807	1519.887207	2439.670898	2140.831787	67.509850
804.801697	1522.202881	2436.583252	2144.581055	68.065567
805.113464	1522.974854	2436.031738	2152.079590	68.900932
805.425232	1525.952148	2434.598145	2153.843994	69.101921
805.736938	1523.526123	2427.981689	2154.284912	69.739059
806.048584	1525.400879	2424.673584	2151.748779	69.650497
806.360168	1529.150146	2425.004395	2150.866699	69.399300
806.671753	1527.937134	2423.239990	2146.235352	69.060234
806.983276	1526.172729	2419.160156	2146.125000	69.424522
807.294739	1525.290405	2412.654053	2146.786621	70.038506
807.606140	1521.431030	2407.360840	2140.721436	69.902878
807.917542	1521.541260	2403.611816	2135.759277	69.633659
808.228760	1522.864624	2400.524170	2130.907471	69.280037
808.540100	1523.526245	2402.068115	2131.238281	69.172806
808.851318	1523.967407	2397.877686	2129.583984	69.299629
809.162476	1525.952148	2394.900146	2127.158447	69.187836
809.473633	1524.849487	2395.230957	2124.070801	68.845825
809.784668	1525.731689	2395.010498	2121.424072	68.527191
810.095703	1526.503540	2388.614502	2116.241699	68.406296
810.406738	1527.165161	2381.226074	2110.066162	68.250519
810.717590	1526.282959	2371.742676	2108.743164	68.892723
811.028503	1521.761841	2368.103760	2104.662842	68.872993
811.339294	1521.761841	2361.046387	2097.825928	68.637520
811.650085	1522.423462	2352.776123	2093.635498	68.791496
811.960876	1523.085083	2351.121826	2087.239502	68.131569
812.271545	1523.415894	2351.232178	2083.490234	67.656837
812.582153	1522.202881	2341.197266	2078.307373	67.900894
812.892761	1516.689209	2333.809326	2073.896484	68.191597
813.203308	1519.556396	2328.626221	2072.793701	68.379425
813.513855	1520.218018	2325.428467	2070.147217	68.296333
813.824280	1516.248291	2323.884766	2067.610840	68.268654
814.134705	1519.446045	2318.701904	2066.838867	68.487808
814.445068	1518.233032	2317.819580	2067.941895	68.749138
814.755371	1517.350952	2321.458740	2074.558105	69.295082
815.065613	1516.689209	2320.466064	2073.896240	69.323601
815.375854	1513.932373	2315.172852	2073.676025	69.859634
815.686035	1514.263184	2316.496094	2075.770996	69.993118
815.996155	1515.255737	2312.085205	2076.873779	70.481583
816.306152	1518.674194	2304.807373	2076.763672	70.991722
816.616211	1516.579102	2302.822266	2076.653564	71.234253
816.926208	1518.674316	2306.020508	2082.277588	71.582649
817.236145	1520.659058	2308.997803	2082.498047	71.268730
817.546021	1525.841797	2317.157959	2087.570801	70.986671
817.855774	1526.503540	2324.105225	2095.620361	71.353516
818.165588	1525.400879	2339.763916	2100.692871	70.643188
818.475281	1524.629028	2349.908936	2110.727783	71.018181
818.784973	1525.290527	2366.339600	2126.165771	71.443542
819.094604	1526.062500	2396.885010	2138.405762	70.317802
819.404175	1527.275513	2419.821533	2146.566162	69.384727
819.713684	1526.172729	2456.762939	2162.114502	68.337463
820.023254	1524.298096	2534.284180	2188.690186	65.782303
820.332642	1524.187866	2684.475342	2243.936768	62.031944
820.642090	1523.636475	2922.443848	2336.455566	58.108006
820.951416	1522.974854	3194.376465	2458.196533	55.954338
821.260681	1523.967285	3454.178467	2574.864990	54.444702
821.569946	1525.400879	3665.019775	2673.558838	53.661797
821.879150	1529.150024	3838.809082	2750.639404	52.886131
822.188293	1528.929443	3977.311768	2812.502197	52.425339
822.497437	1528.708862	4100.045410	2863.668701	51.916965
822.806458	1526.613647	4208.553711	2908.990723	51.543922
823.115479	1529.480835	4293.243164	2947.696533	51.314678
823.424438	1529.370483	4370.543945	2975.815918	50.910145
823.733337	1527.165039	4440.566895	3006.141113	50.764576
824.042236	1525.952148	4501.988770	3031.503662	50.589146
824.351013	1526.944458	4551.832031	3049.367676	50.329910
824.659790	1526.944458	4587.119141	3061.277100	50.138725
824.968445	1522.202881	4637.402832	3074.840820	49.840714
825.277100	1523.195313	4701.140625	3094.028320	49.429203
825.585693	1521.871826	4773.699707	3123.250488	49.245491
825.894287	1523.084961	4851.772949	3159.971436	49.175125
826.202820	1521.100098	4899.300781	3186.657471	49.303093
826.511292	1524.959595	4891.250977	3190.186035	49.467686
826.819702	1528.488281	4792.556641	3161.515137	50.030411
827.128113	1529.260376	4605.093750	3091.381592	50.786922
827.436401	1532.678711	4370.654297	2986.291748	51.220070
827.744751	1533.230103	4138.199707	2883.187012	51.822365
828.052917	1533.340210	3952.059082	2794.527832	52.142799
828.361145	1528.819092	3805.065918	2726.158691	52.601482
828.669312	1527.054688	3683.545410	2672.566162	53.119240
828.977356	1525.400635	3573.272705	2624.928711	53.691250
829.285400	1525.841675	3477.335938	2582.142822	54.127811
829.593384	1523.856812	3398.711426	2548.509766	54.652393
829.901306	1522.312988	3322.182373	2517.192627	55.275101
830.209167	1524.849243	3253.482178	2487.308350	55.677471
830.517029	1525.731323	3192.501465	2455.660645	55.792294
830.824829	1524.518311	3135.821533	2434.488037	56.474144
831.132568	1527.606079	3096.564453	2417.837158	56.740261
831.440247	1530.252563	3047.713623	2400.414307	57.343266
831.747925	1528.157471	2990.372070	2379.683105	58.235340
832.055481	1528.488159	2934.133301	2355.863770	58.860916
832.363037	1530.693604	2880.430176	2332.375732	59.395451
832.670532	1532.678589	2841.614502	2315.173096	59.780964
832.977966	1532.568359	2810.517578	2301.609619	60.177765
833.285400	1533.009521	2791.440674	2289.038330	60.077091
833.592712	1533.009399	2771.150391	2281.429199	60.447060
833.900085	1531.355347	2757.917725	2270.843262	60.289467
834.207275	1529.811523	2743.692627	2258.603027	60.038128
834.514526	1529.811523	2728.254395	2253.971680	60.425087
834.821716	1531.465576	2712.705811	2251.545898	60.959686
835.128784	1532.678711	2701.347900	2247.245117	61.143600
835.435852	1535.986816	2698.260254	2240.408203	60.607201
835.742798	1532.568359	2687.894531	2238.754395	61.124386
836.049805	1535.545776	2679.734131	2234.784424	61.112198
836.356750	1536.207520	2666.501465	2227.506348	61.160976
836.663574	1530.031982	2653.048096	2222.544189	61.665386
836.970398	1527.495850	2640.036133	2216.589355	61.938747
837.277161	1529.039673	2629.339355	2212.509033	62.116653
837.583923	1527.385498	2611.916504	2210.634766	62.999516
837.890564	1527.937012	2592.287842	2201.592285	63.292595
838.197205	1528.267822	2561.301270	2187.477295	63.812984
838.503784	1532.237671	2521.272217	2170.054199	64.488800
838.810303	1530.693970	2469.223633	2149.212891	65.902969
839.116699	1530.252808	2421.255127	2128.812256	67.178215
839.423096	1531.024658	2384.203613	2112.050781	68.101318
839.729492	1529.591064	2343.182373	2099.479736	70.046059
840.035828	1528.929443	2307.123535	2083.710693	71.290855
840.342102	1526.723999	2272.056641	2071.801270	73.132080
840.648315	1525.952148	2245.150391	2061.546143	74.470985
840.954529	1526.613892	2223.205811	2054.047363	75.716278
841.260620	1527.606201	2202.033203	2039.381348	75.882957
841.566711	1527.385620	2181.963867	2033.206055	77.274254
841.872803	1526.944458	2162.004395	2031.992920	79.527687
842.178772	1525.731445	2151.308105	2023.722412	79.605110
842.484680	1522.974609	2137.193115	2016.775269	80.394951
842.790588	1521.872070	2127.158203	2015.893188	81.617783
843.096436	1525.841675	2118.667236	2013.467041	82.254440
843.402222	1526.944458	2110.837891	2016.113647	83.777138
843.707947	1523.415771	2102.346924	2009.828125	84.019035
844.013611	1522.423218	2091.429932	2001.667969	84.224800
844.319275	1526.172485	2078.527832	1998.911133	85.585960
844.624817	1527.936890	2068.162598	1992.514893	85.997017
844.930359	1527.826538	2049.857422	1987.993652	88.149406
845.235901	1526.613647	2036.955566	1977.959229	88.439842
845.541321	1525.841797	2020.855713	1966.601196	89.039803
845.846680	1525.510864	2005.638062	1959.213013	90.330681
846.152039	1528.047119	1993.287598	1948.295898	90.329369
846.457275	1528.378052	1981.929443	1943.664429	91.563248
846.762512	1530.032104	1968.806885	1940.577026	93.566208
847.067749	1533.891602	1959.543945	1936.606934	94.611328
847.372925	1534.332764	1948.736938	1927.674805	94.917488
847.677979	1535.325317	1941.789795	1928.557129	96.744446
847.983032	1537.861572	1936.937866	1916.868530	94.971054
848.288025	1535.656006	1930.211548	1909.590454	94.773590
848.592957	1541.390259	1925.138916	1909.810791	96.005684
848.897888	1539.956665	1923.926025	1910.362305	96.467499
849.202759	1540.618286	1920.617798	1907.826050	96.633743
849.507507	1541.831299	1917.199463	1904.518066	96.621613
849.812317	1539.295044	1913.560303	1901.981812	96.906342
850.117004	1541.169678	1907.936401	1898.783813	97.504524
850.421631	1541.941650	1902.863892	1897.901611	98.625114
850.726257	1541.390137	1901.540527	1894.703735	98.101685
851.030823	1540.397827	1898.673584	1893.490723	98.553391
851.335327	1539.736084	1893.821411	1891.064575	99.221420
851.639771	1540.177246	1885.881836	1892.939209	102.041443
851.944153	1540.177124	1881.470825	1895.034424	103.974174
852.248535	1538.964233	1874.854492	1893.270142	105.482635
852.552856	1535.325317	1873.641602	1893.159790	105.769211
852.857056	1534.663696	1873.089844	1890.403076	105.115807
853.161255	1537.861572	1875.515991	1891.616211	104.768257
853.465393	1536.317749	1874.192505	1889.521240	104.536812
853.769531	1532.568359	1873.310669	1895.034546	106.375458
854.073547	1527.165039	1870.884644	1891.946777	106.127708
854.377563	1524.408203	1868.458496	1894.041992	107.435974
854.681580	1520.548828	1865.150269	1892.608398	107.968086
854.985474	1517.681519	1855.446411	1892.608398	111.002327
855.289307	1517.571289	1853.020264	1890.733643	111.242661
855.593140	1517.791870	1852.910156	1889.520874	110.924713
855.896851	1516.137817	1852.469116	1886.984375	110.262283
856.200623	1517.902100	1850.153687	1885.220215	110.554207
856.504272	1518.453613	1852.800049	1885.881714	109.894424
856.807922	1515.917358	1854.454102	1884.117432	108.762222
857.111389	1513.711914	1852.579468	1885.881836	109.827545
857.414978	1516.248169	1844.419312	1884.448486	112.197655
857.718445	1516.358398	1844.419434	1884.227905	112.134468
858.021790	1517.350952	1843.978394	1880.257813	111.107277
858.325195	1517.681763	1841.993530	1878.052490	111.118607
858.628479	1515.917358	1841.000977	1875.515991	110.617271
858.931763	1516.468750	1837.141357	1871.987549	110.866592
859.234985	1515.476318	1831.297119	1872.208008	112.953827
859.538147	1512.609131	1827.547607	1872.649048	114.320717
859.841248	1511.065308	1827.988647	1872.538818	114.057083
860.144287	1514.924927	1826.996094	1864.930054	112.155548
860.447266	1520.989990	1828.098755	1868.568848	113.177773
860.750305	1525.180298	1825.121460	1870.223022	115.036804
861.053223	1529.150146	1825.011353	1870.223267	115.281464
861.356018	1530.804199	1831.076294	1867.245728	112.045555
861.658813	1531.245239	1826.555054	1865.591675	113.218872
861.961609	1528.378296	1823.247070	1865.922607	114.472725
862.264343	1529.370605	1821.813599	1870.994995	116.817429
862.567017	1529.701416	1819.718384	1868.238037	116.729935
862.869629	1529.480957	1819.608032	1866.804688	116.267578
863.172180	1532.017212	1819.497803	1870.443604	117.721474
863.474670	1527.385742	1816.961304	1872.208130	119.078552
863.777161	1522.643921	1821.151733	1874.634155	117.916588
864.079590	1521.541138	1821.151733	1874.193115	117.703438
864.381958	1521.982300	1821.703369	1875.626465	117.991096
864.684265	1520.107666	1823.688110	1873.752075	116.491173
864.986511	1518.784302	1824.680420	1874.854858	116.402443
865.288757	1520.217896	1824.901001	1879.375977	117.879227
865.590942	1520.438477	1827.106445	1880.258057	117.331970
865.893066	1519.556396	1829.532593	1875.736816	114.905731
866.195068	1517.791992	1828.429932	1874.964844	114.980431
866.497131	1518.894775	1829.311890	1876.288086	115.133247
866.799133	1514.263062	1824.459961	1874.082764	115.997192
867.100952	1509.852295	1821.703125	1870.112915	115.523376
867.402832	1512.939819	1822.364746	1876.398438	117.462616
867.704651	1513.491211	1821.372192	1875.626465	117.621834
868.006409	1515.696533	1822.364624	1875.405884	117.295982
868.308105	1519.335571	1826.775635	1878.383179	116.786217
868.609802	1517.681519	1830.524902	1875.626343	114.416618
868.911438	1515.696655	1832.620361	1880.037354	114.961639
869.213013	1517.571411	1829.863281	1882.683838	116.913841
869.514465	1518.343384	1829.311768	1879.044800	115.992958
869.815979	1522.423340	1833.281616	1873.972412	113.089821
870.117371	1526.834351	1834.825562	1873.421143	112.531387
870.418701	1529.370605	1835.487183	1875.185303	112.968300
870.720093	1530.914429	1839.015991	1878.052246	112.669930
871.021301	1533.671265	1839.787964	1882.242798	113.868843
871.322571	1535.656128	1838.133911	1884.337769	115.275124
871.623718	1534.553467	1840.339233	1885.661255	114.821495
871.924805	1534.222656	1845.191406	1885.661255	113.014122
872.225891	1536.207397	1847.837769	1890.733765	113.765022
872.526917	1541.279907	1846.845459	1894.703491	115.662117
872.827881	1541.831299	1848.389282	1898.452881	116.330872
873.128784	1544.808594	1851.476807	1898.673584	115.390175
873.429626	1546.462646	1858.203491	1902.753540	114.290733
873.730408	1542.603149	1858.313599	1902.312500	113.936470
874.031189	1541.279907	1857.651978	1902.643188	114.220978
874.331848	1539.956543	1858.534180	1903.084229	113.984047
874.632568	1537.530640	1857.431396	1902.202026	113.995163
874.933167	1537.640869	1854.123169	1903.856201	115.714317
875.233704	1539.956665	1853.130737	1903.194580	115.985947
875.534241	1538.082031	1853.902710	1901.650879	115.118759
875.834717	1537.751221	1853.351318	1901.540527	115.269073
876.135071	1536.427979	1851.256104	1904.187134	116.812675
876.435425	1533.450684	1851.035767	1902.533081	116.215279
876.735779	1531.355469	1852.579468	1903.304688	115.791229
877.036011	1528.488403	1853.240845	1904.407593	115.755615
877.336182	1526.172729	1851.586914	1902.091919	115.520226
877.636353	1526.944580	1856.659424	1901.209839	113.511803
877.936462	1525.841797	1863.276001	1902.532959	111.633957
878.236511	1527.937012	1868.348633	1905.179443	110.819496
878.536560	1527.165161	1875.295776	1905.620483	108.710724
878.836487	1523.415771	1889.961914	1912.898438	106.257469
879.136414	1521.431030	1918.963745	1922.161255	100.804337
879.436279	1522.313232	1970.460938	1939.474121	93.085579
879.736084	1522.313110	2053.055176	1974.761353	85.248238
880.035828	1522.864502	2156.711426	2017.988037	78.114052
880.335510	1523.967285	2274.923584	2074.668457	73.333321
880.635193	1523.305664	2391.922607	2126.937744	69.493469
880.934753	1524.518555	2499.879639	2174.685791	66.659134
881.234314	1524.959717	2592.508545	2215.376465	64.673080
881.533752	1523.415771	2675.213135	2247.135010	62.833904
881.833252	1523.085083	2748.654541	2279.003662	61.678967
882.132629	1521.320679	2812.833252	2309.990234	61.065575
882.431946	1519.776855	2872.160156	2331.272949	60.004890
882.731323	1522.864502	2918.805176	2353.327393	59.491276
883.030579	1526.613647	2956.518555	2372.845459	59.180984
883.329712	1526.723877	2991.364746	2385.416748	58.628220
883.628845	1526.282837	3021.027832	2399.421387	58.413879
883.927979	1529.480713	3040.325439	2410.338135	58.302315
884.226990	1530.693604	3058.410156	2416.182617	57.961605
884.526001	1530.803833	3066.460205	2420.152588	57.913265
884.824951	1530.142212	3073.297119	2421.916992	57.789063
885.123840	1530.473145	3074.620361	2415.080078	57.287731
885.422729	1530.473145	3053.227539	2410.117920	57.766689
885.721497	1530.914307	3009.008301	2394.238770	58.407955
886.020203	1532.899292	2928.619141	2364.465088	59.579708
886.318909	1532.678711	2828.602051	2322.781982	60.968365
886.617554	1529.149902	2714.249512	2271.174072	62.612812
886.916138	1528.047241	2597.140137	2216.699707	64.414650
887.214661	1524.408203	2491.829590	2168.841309	66.613487
887.513184	1524.518677	2402.067871	2126.827393	68.635323
887.811523	1527.495850	2321.127686	2097.053711	71.766006
888.109924	1514.483765	2151.307861	1935.945557	66.181824
888.408264	1528.378052	2035.521729	2012.364502	95.433792
888.706543	1546.903931	1977.628662	1945.208496	92.473114
889.004761	1565.429688	1931.314087	1996.154419	117.721535
889.302979	1509.852295	1919.735474	1970.681396	112.429375
889.601135	1470.484985	1905.841187	1966.050049	113.829796
889.899170	1489.010742	1859.526611	1831.738037	92.500031
890.197205	1468.169312	1882.683960	1898.894043	103.910614
890.495178	1528.378052	1875.736694	1880.368164	101.333336
890.793091	1560.798218	1901.209717	1935.945557	110.204071
>>>>>End Processed Spectral Data<<<<<
