Jaz Data File
++++++++++++++++++++++++++++++++++++
Date: Fri Jun 21 02:31:34 2019
User: jaz
Dark Spectrum Present: Yes
Reference Spectrum Present: Yes
Processed Spectrum Present: Yes
Spectrometers: JAZA3541
Integration Time (usec): 119000 (JAZA3541)
Spectra Averaged: 1 (JAZA3541)
Boxcar Smoothing: 10 (JAZA3541)
Correct for Electrical Dark: No (JAZA3541)
Strobe/Lamp Enabled: Yes (JAZA3541)
Correct for Detector Non-linearity: No (JAZA3541)
Correct for Stray Light: No (JAZA3541)
Number of Pixels in Processed Spectrum: 2048
>>>>>Begin Processed Spectral Data<<<<<
W	D	R	S	P
190.543274	0.000000	0.000000	0.000000	0.000000
190.921555	0.000000	0.000000	0.000000	0.000000
191.299805	1558.482544	1405.644653	1683.531616	-81.818108
191.678024	1533.009521	1440.380615	1792.370605	-280.000153
192.056229	1539.956665	1535.325317	1769.213379	-4950.107910
192.434387	1519.115234	1551.535278	1713.635986	600.001526
192.812531	1604.796997	1597.849854	1695.110229	-1300.005249
193.190659	1556.166748	1542.272461	1817.843628	-1883.341553
193.568741	1623.322754	1530.693848	1722.898926	-107.500107
193.946793	0.000000	0.000000	0.000000	0.000000
194.324829	1410.165894	1403.770142	1586.270996	-2753.469971
194.702835	1483.938232	1477.322021	1669.857666	-2810.059082
195.080811	1555.725708	1551.645752	1755.760010	-4902.854492
195.458755	1552.307251	1560.467407	1761.273682	2560.813965
195.836685	1553.520386	1565.540039	1760.281250	1720.189941
196.214569	1554.953857	1568.627808	1759.729858	1497.562866
196.592422	1551.425171	1571.164063	1763.258423	1073.177002
196.970261	1549.219727	1570.833130	1764.581787	996.428284
197.348068	1548.999146	1571.274170	1759.509277	945.050049
197.725861	1545.690796	1573.810425	1761.604492	767.839783
198.103622	1539.625854	1573.589844	1763.920410	660.389343
198.481323	1540.287598	1569.399536	1759.509277	753.030151
198.859039	1539.846436	1568.958374	1760.942871	759.469971
199.236694	1536.758789	1568.296631	1761.715088	713.290100
199.614334	1539.295166	1566.201660	1759.509521	818.443115
199.991959	1540.728760	1571.604858	1758.627197	705.718811
200.369553	1537.751465	1570.502075	1755.870483	665.999878
200.747101	1536.759033	1571.935669	1752.562256	613.484558
201.124619	1535.215210	1570.502197	1752.893188	616.878906
201.502136	1531.796631	1571.274048	1754.216309	563.409912
201.879623	1529.922119	1568.517334	1753.113647	578.288086
202.257065	1525.621216	1569.730225	1750.577393	510.000519
202.634476	1525.621216	1573.589600	1749.474365	466.668121
203.011871	1524.187744	1573.258911	1746.938110	453.933289
203.389221	1524.408203	1571.715088	1740.211670	456.177704
203.766571	1523.415649	1570.722656	1738.998657	455.710510
204.143875	1523.305542	1567.635010	1740.652710	490.299530
204.521164	1526.613770	1564.878296	1736.131470	547.550720
204.898392	1524.408203	1563.444702	1737.013794	544.632813
205.275620	1523.856812	1563.665405	1737.344727	536.286011
205.652817	1524.297852	1562.783081	1732.823486	541.832886
206.029984	1529.370483	1566.422241	1733.705688	551.485840
206.407135	1528.378052	1568.848267	1738.447388	519.071472
206.784225	1530.473389	1569.950928	1733.044067	513.128967
207.161301	1530.252808	1570.281616	1731.389893	502.480804
207.538376	1528.929443	1571.274170	1736.021362	489.061890
207.915405	1529.260376	1568.517456	1738.116577	532.021729
208.292404	1529.480835	1568.737671	1741.535156	540.171692
208.669373	1525.952148	1570.833008	1740.652954	478.379456
209.046310	1524.628784	1571.053589	1738.226929	460.094879
209.423218	1528.267822	1569.509644	1735.359985	502.141174
209.800095	1530.032227	1570.612549	1738.006348	512.499939
210.176956	1530.032227	1570.833130	1738.006470	509.729492
210.553787	1531.686279	1566.201660	1737.896240	597.443665
210.930603	1535.435425	1566.091553	1737.675415	659.704956
211.307358	1536.648438	1565.760620	1742.527344	707.191589
211.684113	1538.412842	1570.391968	1740.652588	632.411743
212.060837	1534.773804	1573.920776	1738.447144	520.278625
212.437531	1533.340210	1574.802856	1740.983398	500.795776
212.814178	1532.458130	1578.772705	1742.858276	454.284943
213.190826	1532.788940	1580.426758	1748.261719	452.314545
213.567413	1530.914307	1580.095947	1752.010986	449.551239
213.943985	1528.267822	1576.015869	1749.033813	462.356079
214.320541	1528.488281	1577.669800	1749.033813	448.431732
214.697052	1527.716431	1577.228760	1753.003540	455.012146
215.073563	1529.591064	1581.198486	1751.459595	429.915924
215.449997	1529.921875	1582.852661	1751.018799	417.709503
215.826431	1528.708862	1588.586670	1748.261475	366.667755
216.202850	1529.370483	1590.792236	1746.717651	353.860260
216.579224	1533.119751	1588.807495	1745.173950	380.791504
216.955582	1533.560791	1588.586914	1749.364258	392.183655
217.331894	1531.135010	1586.932861	1748.592407	389.723602
217.708191	1532.017090	1588.035400	1746.938477	383.662750
218.084442	1537.420532	1591.674438	1745.284424	383.131653
218.460678	1534.443115	1598.180420	1745.505005	331.143433
218.836899	1532.678711	1603.694214	1746.166504	300.621399
219.213074	1532.127563	1606.892090	1745.504883	285.399139
219.589233	1531.024658	1605.348389	1747.710205	291.542877
219.965347	1533.891846	1609.869385	1748.592651	282.584564
220.341431	1535.987061	1615.713867	1746.607666	264.177917
220.717499	1535.435669	1614.721558	1744.071655	263.143921
221.093552	1534.002075	1619.242554	1742.527710	244.632172
221.469543	1535.104858	1625.197510	1739.991089	227.417252
221.845535	1536.207642	1630.380249	1740.763184	217.213425
222.221466	1537.310303	1634.350098	1739.439941	208.295609
222.597397	1535.435547	1642.069214	1740.322144	192.140625
222.973297	1537.420532	1647.362183	1745.394775	189.167831
223.349167	1536.979492	1655.853271	1744.843384	174.861008
223.725006	1537.530640	1662.359375	1745.725464	166.784378
224.100800	1538.082153	1671.952881	1743.299316	153.295029
224.476578	1538.854004	1682.097900	1747.489990	145.650879
224.852325	1537.971680	1701.726563	1746.497192	127.340027
225.228058	1541.279907	1724.332397	1747.489624	112.650597
225.603760	1540.838867	1750.246460	1750.025879	99.894661
225.979416	1536.317749	1779.248169	1755.208740	90.104401
226.355057	1535.325195	1813.322388	1762.266357	81.634338
226.730652	1533.671143	1852.028076	1763.589478	72.220299
227.106232	1534.773926	1886.543335	1770.206055	66.927971
227.481796	1531.575928	1920.286865	1774.286133	62.439766
227.857315	1528.378052	1946.972900	1775.829956	59.114895
228.232788	1528.819214	1971.673950	1780.020264	56.723125
228.608246	1531.465698	1999.903687	1781.233276	53.319241
228.983704	1534.112305	2022.950684	1780.902588	50.485046
229.359100	1531.575928	2040.263428	1788.401001	50.487789
229.734482	1528.378052	2061.546143	1789.172852	48.914181
230.109833	1529.039795	2075.881592	1787.739258	47.307919
230.485153	1528.488403	2087.349609	1786.084961	46.093117
230.860443	1521.541260	2101.575195	1788.511108	46.026592
231.235703	1520.879517	2121.534668	1788.511108	44.556614
231.610931	1519.225464	2137.523926	1790.826660	43.927200
231.986145	1517.240479	2152.079834	1796.340210	43.963837
232.361313	1516.468506	2165.532959	1795.237671	42.949383
232.736465	1519.115112	2169.833984	1796.891968	42.687691
233.111572	1517.571289	2172.921387	1800.751099	43.210464
233.486664	1518.894653	2171.708252	1800.310059	43.108078
233.861725	1517.350586	2169.944092	1802.074585	43.629608
234.236755	1520.107422	2156.931885	1794.465820	43.082264
234.611771	1522.313110	2138.516357	1794.796631	44.219749
234.986740	1523.415771	2132.671875	1790.165161	43.782803
235.361679	1526.062256	2128.922607	1790.495850	43.863159
235.736588	1526.393188	2124.952881	1789.282959	43.920395
236.111496	1527.936890	2122.196045	1790.495850	44.182568
236.486343	1528.819092	2122.857666	1792.701294	44.421730
236.861160	1527.716309	2128.371582	1792.811523	44.134335
237.235962	1529.370483	2138.626465	1791.047485	42.950256
237.610733	1532.016968	2152.962158	1795.568604	42.443623
237.985474	1532.016968	2177.111572	1801.854004	41.829063
238.360199	1533.009521	2207.988037	1809.573242	40.973709
238.734879	1534.994385	2240.628662	1809.573242	38.912346
239.109543	1532.347900	2281.539551	1813.212280	37.488991
239.484177	1533.450562	2334.360352	1819.718140	35.742798
239.858749	1535.325195	2397.105469	1824.680420	33.576450
240.233322	1530.804199	2464.923096	1836.038452	32.676167
240.607864	1528.709106	2528.660889	1843.536987	31.484306
240.982391	1529.370728	2583.025391	1846.624634	30.109856
241.356857	1527.826904	2627.685547	1851.145874	29.396412
241.731308	1533.340454	2665.288574	1853.461670	28.280556
242.105728	1529.150024	2699.583252	1863.275879	28.547195
242.480118	1528.708984	2736.414307	1867.356079	28.040541
242.854492	1529.480957	2770.378418	1872.428589	27.637064
243.228836	1527.606323	2818.898193	1875.295532	26.925688
243.603134	1531.245361	2883.187256	1883.896973	26.084820
243.977402	1529.150146	2971.956787	1891.505737	25.114634
244.351654	1526.724121	3079.692871	1900.989014	24.099962
244.725861	1527.495972	3195.809814	1912.898682	23.101332
245.100067	1529.260376	3309.391113	1920.838135	21.997135
245.474213	1530.693970	3406.872070	1930.762817	21.323606
245.848343	1529.150146	3476.453857	1940.687134	21.133682
246.222443	1528.378174	3532.362061	1944.657227	20.772575
246.596512	1530.252808	3565.884766	1949.178223	20.579624
246.970566	1530.804077	3581.543457	1953.699585	20.621613
247.344574	1531.134888	3573.714355	1951.053223	20.558237
247.718567	1528.157471	3552.431641	1950.611938	20.869429
248.092529	1533.561035	3529.936035	1946.090820	20.663942
248.466431	1533.891724	3510.307617	1945.428955	20.822401
248.840332	1534.002197	3506.668945	1942.120850	20.688677
249.214203	1533.891846	3516.923828	1946.531860	20.808540
249.588043	1529.811768	3538.868408	1947.744751	20.802448
249.961838	1525.952148	3566.656982	1948.075684	20.685183
250.335617	1524.629028	3592.460938	1949.068115	20.525801
250.709381	1522.423584	3603.377930	1950.060669	20.550047
251.083084	1521.320801	3591.468262	1947.414307	20.582762
251.456787	1521.982422	3561.474365	1940.467041	20.519062
251.830460	1521.762085	3509.425293	1934.953491	20.787798
252.204071	1522.203125	3429.367188	1928.116455	21.283607
252.577667	1521.761963	3337.069092	1922.712769	22.087215
252.951248	1521.541260	3250.725830	1917.860718	22.919443
253.324799	1517.020142	3177.835449	1912.126465	23.789902
253.698303	1516.248169	3130.969482	1905.951294	24.134390
254.071793	1518.233032	3092.374268	1901.319702	24.336233
254.445236	1520.769287	3078.479736	1902.532959	24.507999
254.818665	1521.541260	3072.855957	1901.650635	24.502403
255.192062	1521.320801	3089.396729	1908.156982	24.669479
255.565430	1525.511108	3120.272949	1909.369751	24.069967
255.938782	1522.092651	3155.891113	1911.685425	23.845829
256.312103	1523.636475	3214.445801	1918.412231	23.348331
256.685364	1522.202881	3288.438721	1927.895874	22.969357
257.058594	1520.107666	3374.341064	1941.348999	22.717815
257.431793	1523.195435	3472.593750	1953.809692	22.089598
257.804993	1527.716431	3583.969238	1963.513794	21.193762
258.178162	1529.150024	3682.222412	1973.107544	20.619722
258.551270	1530.032227	3768.455322	1981.488281	20.168486
258.924377	1529.370483	3840.132080	1988.766235	19.880707
259.297485	1525.290405	3899.569580	2000.234619	20.003721
259.670502	1529.149780	3942.906982	2003.763184	19.662848
260.043518	1533.891602	3992.750732	2009.387085	19.338053
260.416473	1530.362793	4040.167725	2010.600098	19.134447
260.789459	1527.606079	4078.542725	2018.539429	19.245220
261.162354	1530.803955	4110.521484	2020.524414	18.983492
261.535278	1529.149902	4134.229980	2021.516968	18.900267
261.908142	1529.370483	4159.372070	2020.303955	18.666662
262.280975	1526.613647	4174.479004	2018.098633	18.561556
262.653717	1530.583374	4190.909668	2020.634888	18.420731
263.026520	1530.914307	4200.062012	2017.767822	18.240036
263.399261	1525.952148	4207.781250	2017.106079	18.314140
263.771973	1526.834351	4219.911133	2019.973267	18.311357
264.144653	1523.084961	4213.735840	2020.303955	18.479506
264.517334	1525.290405	4186.388184	2021.186401	18.635017
264.889954	1525.952148	4137.316406	2008.615112	18.483173
265.262543	1526.393188	4074.020508	1997.146606	18.478111
265.635071	1529.480835	3996.830078	1989.978760	18.663671
266.007599	1528.047363	3930.997070	1985.016602	19.017012
266.380127	1524.408325	3887.770752	1979.613281	19.260904
266.752594	1526.503418	3869.796143	1978.510742	19.289410
267.125031	1525.952148	3869.355225	1976.856812	19.241447
267.497437	1520.879517	3888.873535	1979.944336	19.386230
267.869843	1518.674072	3911.148438	1982.811401	19.399887
268.242218	1521.430908	3946.104980	1990.971680	19.365108
268.614532	1521.872070	4017.010498	1995.933960	18.999422
268.986816	1519.004883	4098.060547	2006.189575	18.890041
269.359100	1521.871948	4188.152832	2015.341919	18.507803
269.731354	1522.092407	4275.819824	2025.817749	18.292490
270.103516	1523.084961	4346.615234	2031.992798	18.023813
270.475708	1518.784424	4407.816406	2035.190674	17.874716
270.847839	1522.092529	4464.496094	2038.829590	17.561733
271.219971	1526.944702	4510.920898	2045.225464	17.368797
271.592041	1529.921875	4535.180664	2042.909790	17.069675
271.964081	1532.237671	4553.485840	2044.233032	16.946486
272.336151	1532.237671	4574.547852	2043.240723	16.796547
272.708130	1531.686279	4593.956055	2043.130615	16.701479
273.080109	1530.804077	4614.908203	2046.218140	16.711954
273.452026	1530.252686	4644.680664	2047.872192	16.620050
273.823914	1533.560913	4678.535156	2050.188232	16.427076
274.195770	1535.435425	4714.483887	2054.488770	16.327318
274.567627	1536.979126	4748.447754	2057.355713	16.203695
274.939423	1537.420288	4784.065918	2062.207764	16.163990
275.311249	1538.853882	4807.002441	2067.169922	16.165607
275.682983	1536.979370	4827.954590	2068.052002	16.137243
276.054688	1534.443115	4832.806641	2068.934082	16.204731
276.426422	1536.648560	4815.052734	2066.066895	16.148659
276.798065	1537.530640	4785.389648	2064.082031	16.212261
277.169708	1537.199951	4757.159668	2060.663574	16.256838
277.541321	1539.515625	4739.075195	2060.663574	16.288115
277.912903	1539.074585	4743.375977	2061.656250	16.308756
278.284424	1539.736206	4756.277344	2066.728760	16.383829
278.655945	1535.656250	4777.670410	2071.250000	16.520401
279.027435	1538.523315	4811.523926	2077.535645	16.468447
279.398865	1537.971924	4872.173828	2091.319580	16.596106
279.770294	1538.412964	4936.683105	2094.958496	16.377319
280.141663	1538.082275	4996.009766	2101.685303	16.298868
280.513031	1541.500610	5055.887695	2110.396484	16.187626
280.884369	1538.523193	5092.829102	2118.998047	16.331594
281.255676	1540.177368	5132.637207	2124.842285	16.274778
281.626953	1538.412964	5166.601074	2130.245850	16.312078
281.998199	1539.736206	5202.770996	2133.554199	16.211094
282.369385	1540.508057	5250.519043	2140.611572	16.175249
282.740540	1542.603271	5308.743164	2151.418213	16.165489
283.111694	1540.397827	5362.334961	2156.601074	16.122799
283.482819	1541.059326	5430.263184	2168.841064	16.141651
283.853912	1542.382813	5511.203613	2173.803467	15.909528
284.224945	1538.743774	5583.652832	2182.735596	15.921045
284.595978	1542.272461	5653.455566	2186.926025	15.680488
284.966980	1541.941650	5715.318359	2193.101318	15.602704
285.337952	1537.861450	5756.670410	2195.306641	15.583668
285.708893	1539.405273	5777.953613	2201.151123	15.612558
286.079803	1540.949097	5798.574219	2204.128662	15.576280
286.450684	1543.154785	5811.917480	2208.980957	15.597638
286.821533	1537.861572	5818.423340	2210.414307	15.711787
287.192322	1536.097412	5819.305176	2210.193604	15.738114
287.563110	1538.082275	5831.985840	2217.250977	15.817047
287.933868	1538.854126	5849.850098	2223.095703	15.872006
288.304596	1538.523315	5884.034668	2230.263184	15.918492
288.675262	1538.743896	5930.018555	2235.115234	15.858069
289.045929	1537.641113	5962.328613	2241.400391	15.905288
289.416565	1536.869141	5990.999023	2243.826416	15.871950
289.787170	1538.302734	5998.938477	2251.435303	15.987241
290.157745	1535.545898	6001.916016	2253.420166	16.072880
290.528259	1536.317749	5993.204102	2252.207031	16.062544
290.898773	1539.736084	6004.672852	2259.154297	16.112619
291.269226	1537.751221	6002.908691	2257.500488	16.119236
291.639679	1538.192261	5995.741211	2260.257324	16.198702
292.010101	1540.397827	6016.803223	2261.801270	16.115686
292.380463	1537.199829	6050.877441	2269.409912	16.222029
292.750824	1539.625854	6085.503418	2272.718262	16.126534
293.121155	1537.640869	6131.597168	2282.422363	16.212204
293.491455	1534.884155	6201.399414	2287.494873	16.127895
293.861725	1532.458130	6279.141602	2299.734863	16.164480
294.231964	1532.458130	6366.808594	2312.305908	16.131386
294.602142	1535.766235	6463.296875	2320.466064	15.924809
294.972321	1533.009399	6543.686035	2328.626221	15.878430
295.342468	1527.716309	6605.217773	2334.139893	15.882292
295.712555	1525.731445	6647.011230	2340.756348	15.914477
296.082672	1529.370483	6671.602051	2343.402832	15.830333
296.452728	1529.811523	6675.351074	2342.520752	15.794441
296.822693	1528.378052	6675.020020	2342.630859	15.821050
297.192657	1527.495850	6668.844727	2343.513184	15.871659
297.562622	1525.510986	6691.009766	2342.520752	15.816667
297.932556	1531.355469	6707.330566	2344.615967	15.712218
298.302460	1530.693848	6710.307129	2345.167480	15.724603
298.672333	1529.260376	6708.653320	2339.984375	15.652877
299.042145	1529.260376	6706.778809	2340.756348	15.673453
299.411957	1527.716553	6705.897461	2336.896729	15.626727
299.781677	1527.716553	6663.441406	2336.124512	15.740874
300.151428	1527.496094	6619.552734	2329.839355	15.756763
300.521149	1524.629028	6556.917969	2328.185059	15.968002
300.890839	1525.842041	6491.747559	2321.348145	16.019358
301.260468	1526.503662	6415.769531	2316.495850	16.157686
301.630096	1525.621338	6328.434570	2303.925049	16.205162
301.999695	1525.290527	6236.907715	2291.243652	16.256693
302.369232	1523.526245	6126.966309	2283.855225	16.516539
302.738739	1525.952148	6024.302246	2275.695313	16.667070
303.108246	1529.922119	5926.270020	2265.329590	16.727692
303.477692	1530.363159	5852.166504	2254.523438	16.755976
303.847137	1526.724121	5775.858398	2249.119873	17.001011
304.216553	1530.363037	5724.691406	2242.834717	16.986551
304.585876	1531.465820	5688.742188	2241.290527	17.074272
304.955231	1535.215088	5666.687988	2241.069824	17.084822
305.324493	1534.443115	5638.126953	2243.495605	17.278440
305.693787	1530.252686	5612.212891	2243.826660	17.481159
306.063049	1530.032227	5607.581055	2243.165039	17.489252
306.432251	1528.708740	5606.588379	2245.039551	17.566257
306.801422	1529.260132	5598.097656	2247.245117	17.645948
307.170593	1532.568481	5595.450684	2250.553467	17.671814
307.539673	1528.819092	5608.573730	2252.648926	17.741995
307.908783	1531.575928	5615.080078	2255.074707	17.717596
308.277832	1531.355347	5644.522949	2262.021484	17.764074
308.646851	1534.773926	5681.133301	2266.101563	17.637825
309.015839	1536.207520	5715.649414	2270.733154	17.574730
309.384796	1538.082153	5746.415039	2278.011230	17.582474
309.753723	1535.766357	5771.998047	2280.326904	17.576012
310.122620	1533.891724	5793.611816	2284.517334	17.621477
310.491486	1532.899292	5812.357422	2286.061035	17.599466
310.860352	1530.914307	5821.179199	2293.228760	17.768471
311.229126	1534.332886	5826.031250	2297.639893	17.785664
311.597931	1529.701416	5843.123535	2299.183350	17.839247
311.966675	1526.613892	5869.699219	2310.321289	18.044945
312.335388	1526.834351	5896.274414	2311.864990	17.966391
312.704071	1522.974854	5922.739746	2321.237793	18.143311
313.072723	1524.959717	5931.230957	2316.275391	17.958849
313.441345	1523.526245	5931.341309	2313.077637	17.912535
313.809875	1523.195313	5911.823242	2310.982422	17.950647
314.178436	1523.195190	5885.688477	2303.263672	17.881254
314.546967	1521.982178	5851.614258	2297.750000	17.917639
314.915466	1519.446045	5811.254883	2294.662354	18.062695
315.283936	1523.967163	5773.100586	2287.825439	17.976803
315.652374	1523.195557	5733.402344	2283.414795	18.056576
316.020752	1523.416016	5692.822266	2276.798340	18.069296
316.389130	1525.842041	5654.116699	2273.931396	18.121115
316.757416	1525.621460	5628.202637	2270.071533	18.145895
317.125732	1523.085205	5605.376465	2266.322266	18.206369
317.494019	1524.739258	5578.800781	2262.904053	18.208031
317.862274	1526.062378	5549.468262	2255.515869	18.130249
318.230469	1529.922119	5524.436523	2251.104736	18.054325
318.598663	1533.671265	5506.020996	2246.694092	17.949650
318.966797	1531.245239	5488.487793	2240.849609	17.931787
319.334930	1533.781494	5473.932129	2236.328613	17.830463
319.703003	1532.678711	5446.804688	2229.050293	17.791241
320.071045	1530.583374	5422.875000	2227.285645	17.899540
320.439056	1532.127197	5403.687988	2216.810059	17.684931
320.807037	1537.199829	5414.494629	2218.463867	17.570601
321.175049	1538.192261	5435.997559	2224.639404	17.611120
321.542969	1539.074463	5475.586426	2228.167725	17.505175
321.910828	1539.956665	5513.740234	2242.613770	17.682320
322.278717	1543.375122	5567.442871	2249.891846	17.557276
322.646515	1543.375122	5607.582031	2253.310059	17.467981
323.014313	1543.595581	5643.199707	2264.557861	17.586143
323.382111	1542.492798	5687.860352	2270.402344	17.559589
323.749817	1541.941650	5724.360840	2277.680420	17.591227
324.117523	1535.876587	5743.216797	2281.319336	17.717672
324.485199	1533.781372	5748.399414	2283.083740	17.778654
324.852814	1537.971680	5759.096191	2279.555176	17.568388
325.220428	1539.736084	5759.537598	2284.517334	17.649673
325.588013	1537.751221	5774.203125	2288.707520	17.726067
325.955536	1536.317627	5782.694336	2293.449463	17.830067
326.323059	1532.678711	5803.094727	2293.339111	17.812326
326.690552	1531.465698	5815.775879	2296.426758	17.854942
327.058014	1530.914307	5817.209473	2298.191162	17.900702
327.425415	1534.773804	5825.149414	2299.073242	17.814278
327.792816	1535.986938	5825.590332	2300.947998	17.832909
328.160187	1538.082031	5828.567871	2304.366455	17.860085
328.527496	1530.032227	5812.688477	2305.358887	18.103874
328.894775	1529.039673	5795.044434	2304.807373	18.184875
329.262054	1528.929443	5777.400879	2303.043213	18.220993
329.629303	1532.678711	5770.233398	2296.978027	18.036329
329.996490	1530.473267	5766.263672	2296.316406	18.080288
330.363647	1532.237549	5787.656738	2296.206055	17.952839
330.730774	1527.826660	5805.520996	2295.323730	17.941839
331.097839	1528.157593	5829.229004	2300.947998	17.967394
331.464935	1527.936890	5850.953125	2300.396240	17.868528
331.831970	1528.488159	5875.543457	2302.160645	17.797623
332.198975	1526.503296	5903.552734	2305.137939	17.789030
332.565948	1526.613647	5927.261230	2309.218262	17.783852
332.932892	1525.069824	5965.636719	2309.328613	17.661232
333.299744	1527.716431	5998.608398	2309.549072	17.487173
333.666656	1527.936890	6036.652344	2312.306152	17.396734
334.033478	1526.062256	6062.897461	2317.378662	17.442036
334.400299	1526.282837	6098.184570	2322.781982	17.421616
334.767090	1527.385620	6137.110352	2327.634033	17.360004
335.133850	1523.746704	6170.633301	2333.809082	17.432367
335.500549	1522.423462	6201.068848	2337.447998	17.420095
335.867218	1517.681763	6233.599121	2345.166992	17.546644
336.233917	1517.791992	6266.350586	2350.129150	17.528206
336.600525	1517.902222	6286.419434	2352.334717	17.498783
336.967102	1518.453491	6298.108398	2354.098877	17.483383
337.333649	1514.814697	6301.747070	2355.753418	17.567381
337.700195	1515.365967	6302.960449	2358.179199	17.604105
338.066681	1514.814697	6287.301270	2357.958740	17.666767
338.433136	1514.924805	6274.620605	2357.848389	17.709610
338.799591	1517.791992	6256.425781	2353.658203	17.639393
339.165985	1518.674072	6243.192871	2352.886230	17.657084
339.532318	1518.233032	6246.500977	2353.437500	17.664068
339.898651	1522.864380	6259.623535	2355.091797	17.569553
340.264954	1521.320679	6270.540039	2361.928467	17.699915
340.631226	1519.446045	6293.697754	2365.126465	17.713360
340.997467	1514.042603	6324.463379	2372.184082	17.839218
341.363678	1512.278320	6352.583984	2378.028564	17.886272
341.729828	1514.704224	6393.384766	2380.013428	17.736542
342.095947	1517.902100	6440.028809	2387.070801	17.658396
342.462067	1519.335693	6484.028320	2397.326172	17.684690
342.828156	1520.769165	6534.422852	2403.280762	17.602165
343.194183	1523.526001	6589.118164	2408.243164	17.465227
343.560211	1529.811523	6630.911621	2413.205322	17.317711
343.926178	1529.590942	6675.130859	2419.601318	17.296734
344.292114	1528.598511	6720.674316	2421.916992	17.205421
344.658020	1526.723877	6756.071289	2426.548340	17.207203
345.023926	1530.252563	6774.155273	2431.841309	17.193087
345.389771	1530.473267	6798.194824	2430.628174	17.088125
345.755585	1531.024414	6824.880859	2435.480225	17.085009
346.121368	1537.089478	6843.737305	2437.906250	16.975250
346.487122	1534.443115	6866.122559	2442.647949	17.034122
346.852844	1536.869019	6899.425781	2450.256836	17.032694
347.218536	1538.853882	6923.574219	2458.306641	17.075218
347.584167	1539.184814	6951.252930	2462.276611	17.056173
347.949768	1540.177246	6975.071289	2459.299561	16.911505
348.315369	1540.838867	6981.578125	2465.144043	16.988596
348.680939	1544.477905	6995.692871	2471.980957	17.014612
349.046448	1547.786133	7005.065430	2476.612305	17.019949
349.411957	1546.793701	7011.351074	2483.669922	17.144594
349.777435	1543.706055	7011.021484	2484.110596	17.200481
350.142792	1546.903931	7013.336914	2483.889893	17.140720
350.508209	1547.675903	7017.306641	2487.418457	17.181097
350.873566	1545.911499	7036.273926	2493.152832	17.252802
351.238892	1545.470459	7057.776855	2498.004639	17.280138
351.604187	1549.109253	7084.462891	2502.966797	17.232098
351.969482	1553.079102	7127.248535	2513.442627	17.228819
352.334717	1553.851196	7176.099609	2527.227051	17.312929
352.699890	1551.535400	7256.376465	2538.364502	17.298101
353.065063	1551.976318	7340.295410	2555.677490	17.340115
353.430237	1551.314819	7438.216309	2568.800049	17.283884
353.795319	1548.778442	7545.511719	2581.701660	17.224764
354.160370	1548.668213	7656.886230	2598.242676	17.182991
354.525421	1547.014282	7778.847656	2614.342529	17.127033
354.890442	1547.786133	7926.062500	2633.750488	17.025984
355.255402	1544.367676	8060.375000	2657.018311	17.075651
355.620331	1547.345093	8211.227539	2684.586182	17.065744
355.985260	1548.006714	8359.985352	2703.883789	16.968302
356.350098	1549.440186	8488.122070	2718.880859	16.853931
356.714935	1547.455322	8615.155273	2730.680176	16.741299
357.079742	1548.116943	8735.904297	2740.935547	16.595074
357.444519	1544.588135	8862.386719	2761.225586	16.625731
357.809296	1537.530762	9007.835938	2779.972168	16.631735
358.173981	1534.663574	9175.340820	2805.004150	16.626020
358.538605	1535.104736	9362.474609	2830.035889	16.543631
358.903259	1535.104736	9576.954102	2859.699219	16.471266
359.267914	1535.214966	9815.033203	2894.766113	16.420059
359.632477	1534.001831	10056.529297	2928.729980	16.365194
359.997009	1532.237549	10270.126953	2954.423340	16.276079
360.361542	1533.671021	10432.007813	2973.610840	16.182123
360.726013	1533.009399	10550.330078	2990.592773	16.164263
361.090485	1533.119751	10621.235352	3005.810303	16.204576
361.454895	1537.640869	10669.645508	3012.537109	16.150848
361.819244	1538.081787	10689.494141	3017.830078	16.169617
362.183594	1538.964233	10671.849609	3019.483887	16.210863
362.547913	1538.523071	10616.161133	3010.993164	16.220852
362.912201	1539.515625	10574.367188	3006.030762	16.231756
363.276489	1536.097168	10510.079102	2997.319092	16.282871
363.640686	1532.568359	10443.033203	2990.482422	16.361818
364.004883	1531.686279	10386.685547	2984.748291	16.409512
364.369049	1529.701416	10336.401367	2983.976074	16.513275
364.733154	1531.024780	10286.117188	2985.630859	16.614399
365.097198	1537.200073	10230.098633	2975.706299	16.548061
365.461273	1542.272461	10137.360352	2967.215332	16.578573
365.825287	1545.580688	10013.523438	2952.438721	16.613930
366.189270	1546.132080	9845.798828	2934.905273	16.732878
366.553223	1545.690796	9649.182617	2906.123779	16.788233
366.917114	1546.132080	9422.791992	2874.034668	16.858702
367.281006	1547.014282	9187.691406	2845.473877	16.994038
367.644867	1549.991577	8990.744141	2820.000977	17.068293
368.008698	1548.337524	8831.179688	2799.931152	17.185511
368.372498	1548.999146	8707.012695	2780.082031	17.198666
368.736237	1547.124634	8622.102539	2768.062256	17.257122
369.099976	1540.728760	8559.579102	2766.518555	17.464252
369.463654	1538.854126	8522.858398	2757.586426	17.450336
369.827332	1534.994629	8489.886719	2753.506592	17.520214
370.190948	1534.884277	8472.683594	2755.712158	17.596760
370.554535	1533.450684	8443.021484	2751.190918	17.623964
370.918091	1534.002075	8424.715820	2753.286133	17.694597
371.281647	1538.854126	8421.626953	2750.860352	17.609272
371.645111	1536.427979	8420.744141	2755.160889	17.703035
372.008575	1536.648560	8415.342773	2752.183350	17.671011
372.371979	1535.876465	8419.863281	2747.772705	17.604570
372.735382	1531.906738	8436.183594	2748.544678	17.621511
373.098724	1531.686157	8473.456055	2754.278809	17.612118
373.462067	1529.149902	8530.798828	2756.483887	17.529213
373.825348	1528.708740	8601.592773	2767.290527	17.511694
374.188599	1525.731445	8696.095703	2781.074707	17.507385
374.551819	1522.643677	8812.875000	2799.490479	17.514490
374.915009	1517.130005	8930.976563	2817.354736	17.537788
375.278168	1514.152588	9048.197266	2834.777588	17.528765
375.641266	1512.829468	9160.785156	2852.200439	17.512798
376.004395	1510.624023	9243.048828	2867.969482	17.553944
376.367462	1513.491211	9303.587891	2877.673340	17.511749
376.730469	1516.689209	9354.423828	2879.548340	17.388432
377.093475	1522.092529	9382.984375	2888.370117	17.380695
377.456421	1522.864380	9423.675781	2892.560547	17.336145
377.819336	1524.298096	9463.595703	2897.191895	17.292383
378.182281	1526.172607	9498.992188	2902.264160	17.259787
378.545135	1521.872070	9540.673828	2907.446777	17.279074
378.907928	1522.864502	9571.441406	2916.158447	17.311060
379.270752	1523.305542	9599.780273	2917.041016	17.256731
379.633484	1526.282959	9631.869141	2927.075684	17.281820
379.996246	1524.077393	9659.878906	2942.183105	17.430435
380.358948	1525.069824	9686.673828	2945.932373	17.409109
380.721558	1521.430786	9715.344727	2948.909668	17.421209
381.084198	1523.305298	9733.429688	2960.819092	17.509039
381.446747	1525.951782	9744.015625	2959.826904	17.447847
381.809326	1527.275146	9746.000977	2958.062256	17.408869
382.171875	1527.495850	9729.791016	2955.415771	17.408785
382.534363	1528.488403	9709.280273	2951.004883	17.388493
382.896790	1533.229858	9671.567383	2950.453613	17.414167
383.259247	1531.245117	9648.851563	2957.290527	17.567314
383.621613	1532.017090	9663.408203	2963.024658	17.598558
383.983948	1527.716431	9692.850586	2970.302734	17.667637
384.346283	1523.195068	9736.739258	2985.409912	17.802485
384.708588	1519.225342	9811.723633	2993.018555	17.772608
385.070831	1519.887085	9891.341797	3001.178711	17.694553
385.433075	1519.335693	9960.373047	3013.308838	17.698929
385.795258	1517.020142	10042.305664	3029.518799	17.741325
386.157440	1518.784424	10104.719727	3043.302734	17.755995
386.519531	1514.042603	10178.823242	3054.660645	17.780231
386.881622	1519.335815	10246.749023	3070.209229	17.770138
387.243683	1517.350830	10314.126953	3075.061279	17.707743
387.605713	1519.556274	10383.047852	3077.597900	17.578194
387.967682	1522.643921	10443.366211	3097.115967	17.649603
388.329651	1525.069824	10513.719727	3110.789795	17.641357
388.691559	1523.746704	10610.648438	3120.824707	17.575605
389.053467	1521.431030	10715.627930	3137.255127	17.574390
389.415314	1519.887085	10810.132813	3161.515137	17.670448
389.777130	1518.784180	10914.560547	3179.269287	17.672676
390.138885	1520.328125	10994.397461	3195.920654	17.686090
390.500641	1518.012329	11088.901367	3210.365967	17.682304
390.862366	1521.872070	11165.982422	3217.423340	17.581209
391.224060	1525.510864	11220.676758	3227.127197	17.551184
391.585693	1529.921875	11295.551758	3240.249512	17.513746
391.947296	1536.317749	11367.119141	3245.543213	17.386431
392.308868	1535.766235	11409.905273	3261.642578	17.478754
392.670441	1535.656006	11454.014648	3271.346680	17.499777
393.031952	1533.119751	11484.449219	3275.757813	17.511612
393.393433	1537.310059	11495.697266	3277.853027	17.478163
393.754883	1537.089600	11506.393555	3279.948242	17.482250
394.116302	1538.523071	11496.689453	3283.256592	17.520632
394.477692	1529.701294	11492.830078	3284.358887	17.611511
394.839020	1527.936890	11479.376953	3287.777100	17.684277
395.200348	1526.834229	11463.718750	3289.762207	17.741255
395.561646	1529.480835	11443.759766	3284.910400	17.706074
395.922882	1529.150024	11409.354492	3278.624512	17.706865
396.284088	1529.480835	11337.236328	3267.487061	17.720734
396.645264	1527.275513	11269.638672	3265.281738	17.839678
397.006409	1530.914429	11181.641602	3254.695313	17.861668
397.367523	1533.450684	11090.887695	3246.865967	17.927559
397.728577	1538.964355	11024.392578	3235.287598	17.883467
398.089600	1539.074707	10949.627930	3225.252686	17.917948
398.450592	1539.625977	10886.000000	3216.871582	17.945415
398.811584	1539.074463	10829.209961	3210.916992	17.995890
399.172546	1537.971680	10760.399414	3202.426270	18.047901
399.533447	1528.819214	10692.691406	3195.037842	18.182474
399.894318	1532.127441	10638.768555	3188.311279	18.186550
400.255127	1532.237671	10596.091797	3189.414063	18.283352
400.615936	1531.355469	10585.175781	3191.398926	18.335281
400.976685	1529.150146	10593.115234	3198.456543	18.416956
401.337433	1531.575928	10626.307617	3203.088135	18.378906
401.698151	1531.355591	10702.835938	3218.085205	18.391029
402.058807	1537.861572	10785.099609	3230.766357	18.307138
402.419434	1539.736206	10877.398438	3253.261963	18.350693
402.780060	1538.633423	10977.195313	3270.023438	18.343792
403.140594	1534.663696	11064.090820	3291.085449	18.431557
403.501129	1535.986938	11144.919922	3310.714355	18.469559
403.861633	1537.420532	11224.757813	3328.247314	18.486265
404.222076	1539.625977	11293.236328	3332.437500	18.381004
404.582550	1535.986938	11374.728516	3345.119141	18.387842
404.942932	1535.656128	11422.916992	3353.279297	18.383486
405.303284	1530.804077	11480.369141	3364.306885	18.427969
405.663605	1531.245117	11533.189453	3370.923096	18.393204
406.023895	1532.568481	11582.260742	3382.612061	18.408957
406.384125	1530.914307	11629.016602	3391.102783	18.421169
406.744354	1529.811523	11684.814453	3402.129883	18.437399
407.104553	1536.317627	11746.566406	3421.427734	18.462919
407.464691	1536.868896	11813.392578	3429.808838	18.420042
407.824829	1537.420288	11876.467773	3441.497314	18.416367
408.184906	1538.522949	11926.201172	3449.216064	18.393843
408.544922	1538.633423	11974.169922	3450.980713	18.325338
408.904938	1537.971680	12007.030273	3461.125732	18.369884
409.264923	1536.317627	11999.752930	3463.000488	18.413483
409.624847	1534.112183	11979.573242	3459.140625	18.429329
409.984802	1533.560791	11956.416016	3453.627197	18.421692
410.344666	1535.656006	11935.685547	3451.752686	18.423954
410.704529	1534.774048	11906.352539	3450.649902	18.472366
411.064331	1531.355591	11896.317383	3451.973145	18.529905
411.424133	1532.017090	11892.458008	3456.825195	18.578438
411.783875	1531.245117	11887.385742	3468.293457	18.704346
412.143555	1536.317749	11895.656250	3471.932373	18.684731
412.503235	1535.986938	11932.376953	3480.312988	18.701935
412.862885	1536.317749	11957.078125	3490.347412	18.751314
413.222473	1535.876587	12000.966797	3505.234863	18.818359
413.582062	1530.473267	12055.992188	3515.380127	18.858044
413.941559	1529.480713	12132.080078	3527.289551	18.842632
414.301086	1532.237549	12203.647461	3541.514160	18.828594
414.660522	1531.796509	12282.932617	3548.020508	18.753592
415.019958	1529.150024	12364.093750	3567.208008	18.810047
415.379364	1530.142456	12462.125977	3586.836670	18.813551
415.738708	1528.708984	12566.443359	3616.058838	18.911036
416.098053	1529.591187	12702.960938	3650.573975	18.982481
416.457336	1526.503540	12866.385742	3680.016846	18.990614
416.816559	1528.047363	13056.165039	3716.406738	18.982800
417.175812	1526.834351	13278.144531	3764.485596	19.041718
417.535004	1528.488525	13530.667969	3809.807617	19.007540
417.894135	1528.157715	13808.997070	3857.996582	18.971333
418.253265	1528.047363	14142.681641	3908.721680	18.872320
418.612335	1530.583618	14503.713867	3966.614502	18.777510
418.971405	1528.378174	14871.801758	4030.131592	18.748962
419.330414	1527.054810	15239.122070	4089.237793	18.685608
419.689423	1521.871948	15591.002930	4149.116211	18.673820
420.048370	1521.210327	15940.676758	4208.884277	18.639204
420.407257	1519.997314	16263.223633	4266.005371	18.625557
420.766144	1519.887085	16600.767578	4328.530273	18.623867
421.125000	1524.518555	16922.103516	4385.982422	18.583849
421.483795	1525.180176	17245.310547	4443.544434	18.564503
421.842560	1520.769287	17599.064453	4506.399902	18.569324
422.201324	1520.328125	17935.947266	4568.263184	18.567287
422.560028	1519.887085	18241.623047	4619.760254	18.537985
422.918671	1520.769287	18531.310547	4665.964844	18.489685
423.277283	1524.077515	18778.761719	4704.669922	18.433210
423.635925	1525.841919	18955.306641	4738.082520	18.429945
423.994476	1527.385742	19096.347656	4760.467773	18.402239
424.353027	1529.921997	19197.578125	4771.936523	18.349998
424.711487	1530.914429	19260.099609	4782.082031	18.337940
425.069946	1529.701416	19272.009766	4784.948730	18.347372
425.428375	1529.701538	19241.906250	4783.184082	18.368591
425.786743	1531.576050	19143.101563	4776.567871	18.425386
426.145081	1531.796509	18994.343750	4755.395508	18.460073
426.503418	1530.914307	18822.097656	4729.040039	18.495701
426.861725	1533.561035	18640.148438	4697.612793	18.496101
427.219971	1537.751343	18467.904297	4661.884277	18.453070
427.578186	1539.405396	18302.933594	4638.506836	18.487169
427.936371	1542.051880	18152.521484	4614.577148	18.497524
428.294495	1545.249756	17946.314453	4586.126465	18.540728
428.652618	1543.485352	17745.066406	4555.691406	18.592051
429.010712	1544.477905	17538.191406	4522.940430	18.622707
429.368744	1549.991455	17290.296875	4485.447754	18.649296
429.726746	1550.432617	17043.066406	4451.042969	18.722513
430.084717	1548.999023	16817.117188	4416.086914	18.778267
430.442688	1548.337280	16581.134766	4383.777344	18.861691
430.800568	1549.660645	16415.947266	4355.988281	18.877125
431.158417	1548.668213	16272.815430	4333.162109	18.911070
431.516235	1546.903809	16145.229492	4322.575684	19.013632
431.874023	1542.492920	16049.514648	4307.247559	19.058044
432.231812	1543.816162	15953.795898	4288.832520	19.049412
432.589508	1543.706055	15895.242188	4279.349121	19.061674
432.947205	1543.595825	15808.457031	4272.953125	19.133430
433.304840	1542.052002	15756.189453	4262.146484	19.136543
433.662476	1541.831421	15700.720703	4260.933105	19.204201
434.020050	1545.029541	15676.790039	4262.917969	19.232483
434.377594	1544.147339	15649.995117	4266.336426	19.298302
434.735138	1536.869263	15624.854492	4281.994629	19.485579
435.092621	1536.648682	15592.102539	4279.569336	19.514992
435.450043	1536.979492	15602.911133	4285.082031	19.537294
435.807465	1532.789063	15644.480469	4291.036621	19.545832
436.164856	1532.017090	15690.354492	4296.881836	19.528173
436.522156	1531.576050	15735.567383	4311.327148	19.570211
436.879486	1527.936890	15802.060547	4323.567871	19.585306
437.236755	1525.510986	15877.817383	4336.800781	19.587721
437.593994	1529.701416	15964.602539	4354.333496	19.568073
437.951172	1528.267822	16095.165039	4378.924316	19.569414
438.308380	1526.944458	16181.729492	4401.860840	19.617596
438.665497	1526.503296	16304.906250	4423.143066	19.600491
439.022583	1530.252686	16441.642578	4443.103027	19.534399
439.379608	1531.906860	16545.410156	4468.135254	19.557251
439.736633	1532.568604	16637.816406	4491.512695	19.588848
440.093628	1535.104736	16715.669922	4512.905273	19.615873
440.450562	1534.773926	16800.359375	4524.925781	19.587534
440.807495	1534.222534	16869.169922	4542.899902	19.619743
441.164368	1534.773926	16950.664063	4560.323242	19.626173
441.521210	1534.773926	17015.833984	4566.608398	19.584152
441.878021	1532.899292	17084.865234	4586.788574	19.636677
442.234833	1536.979492	17175.837891	4603.439941	19.607956
442.591522	1538.854126	17250.492188	4621.854980	19.622404
442.948242	1535.766479	17338.599609	4641.483398	19.652912
443.304901	1538.082275	17434.316406	4658.244629	19.628311
443.661530	1541.169800	17547.126953	4688.458984	19.663237
444.018127	1542.382935	17676.144531	4713.491211	19.655109
444.374664	1544.367798	17807.478516	4743.596191	19.671690
444.731201	1552.197021	17927.343750	4766.091309	19.626659
445.087738	1551.535400	18043.792969	4786.271484	19.613665
445.444183	1552.307251	18093.746094	4802.481934	19.648682
445.800598	1548.888794	18151.085938	4813.950195	19.666443
446.156982	1546.352539	18172.921875	4819.243164	19.684700
446.513336	1545.359985	18160.902344	4823.984375	19.732275
446.869598	1546.793579	18160.683594	4827.624023	19.747515
447.225891	1546.021606	18175.570313	4835.672852	19.781963
447.582153	1546.352417	18179.318359	4838.099121	19.790495
447.938354	1548.999023	18181.964844	4852.435059	19.860777
448.294495	1548.006592	18183.066406	4852.324219	19.863575
448.650665	1544.147095	18170.828125	4849.898926	19.882212
449.006775	1537.971924	18154.617188	4855.743164	19.966553
449.362823	1539.405396	18162.666016	4858.169434	19.964581
449.718842	1541.610718	18152.962891	4858.058594	19.964949
450.074860	1540.838867	18172.703125	4863.020996	19.974804
450.430817	1544.918945	18136.753906	4856.184082	19.957195
450.786713	1541.831299	18068.271484	4842.620605	19.972780
451.142578	1537.861450	17979.615234	4832.916504	20.040777
451.498444	1534.001831	17847.619141	4808.656250	20.073133
451.854248	1533.119629	17694.558594	4781.308594	20.098389
452.210022	1529.039551	17510.074219	4755.284180	20.187958
452.565765	1527.385376	17293.279297	4726.172852	20.289288
452.921478	1529.370361	17109.785156	4688.900391	20.278856
453.277191	1531.796387	16919.673828	4663.648438	20.352724
453.632813	1531.906738	16753.052734	4645.674316	20.456854
453.988434	1531.245117	16601.978516	4624.722168	20.526386
454.343964	1528.819214	16476.490234	4604.211914	20.574392
454.699524	1529.591187	16350.117188	4582.708496	20.600599
455.054993	1527.385742	16251.754883	4568.152344	20.651253
455.410400	1526.282959	16187.574219	4552.604004	20.641573
455.765839	1523.636475	16166.403320	4548.523438	20.657892
456.121216	1525.400879	16186.471680	4554.037109	20.657675
456.476593	1529.591187	16245.579102	4573.996582	20.687738
456.831909	1529.480957	16359.379883	4599.249023	20.699860
457.187195	1528.267822	16504.277344	4632.882324	20.730585
457.542450	1528.157593	16688.544922	4670.816406	20.729408
457.897644	1528.267944	16878.652344	4710.403809	20.730007
458.252808	1531.024780	17079.128906	4754.071777	20.729517
458.607971	1536.317749	17244.759766	4784.396973	20.677282
458.963013	1539.956787	17343.453125	4812.406250	20.707123
459.318085	1542.934204	17441.373047	4832.586426	20.691669
459.673096	1541.831421	17513.933594	4839.092773	20.643877
460.028076	1541.610718	17581.533203	4852.766602	20.643215
460.383057	1541.059570	17632.478516	4871.622559	20.697758
460.737976	1542.272461	17654.751953	4867.101563	20.635118
461.092865	1543.265015	17668.205078	4861.147461	20.576090
461.447723	1543.375244	17674.822266	4858.169434	20.548647
461.802551	1546.573120	17650.451172	4856.736328	20.555069
462.157288	1547.786133	17647.472656	4858.059082	20.561102
462.512054	1548.337646	17629.390625	4859.161621	20.588354
462.866760	1545.911621	17608.216797	4852.986816	20.589045
463.221405	1547.676025	17561.681641	4848.244629	20.610512
463.576019	1547.896484	17482.503906	4833.688477	20.620476
463.930603	1548.447876	17383.810547	4810.310547	20.598598
464.285156	1546.242432	17249.832031	4781.419434	20.601513
464.639709	1547.345093	17084.640625	4745.911621	20.586378
464.994171	1543.706055	16863.326172	4703.015625	20.622637
465.348633	1542.603271	16613.998047	4658.134766	20.671820
465.703033	1539.295044	16373.494141	4613.143066	20.721363
466.057434	1532.899170	16159.786133	4576.643066	20.809240
466.411774	1530.032104	16020.070313	4546.648926	20.818556
466.766083	1522.864380	15879.141602	4525.476074	20.914974
467.120331	1521.100098	15783.867188	4515.661621	20.995655
467.474548	1521.430908	15706.787109	4505.296387	21.034828
467.828735	1519.997314	15633.897461	4491.953613	21.056946
468.182922	1520.438232	15605.998047	4496.695801	21.129850
468.537048	1521.871704	15567.403320	4496.805664	21.180645
468.891144	1520.879272	15539.833008	4498.791016	21.242039
469.245178	1517.571289	15543.692383	4500.886719	21.269711
469.599213	1514.483398	15538.730469	4495.041992	21.252895
469.953186	1512.278076	15543.582031	4497.027344	21.272074
470.307129	1512.719116	15539.062500	4510.590820	21.373150
470.661041	1515.255493	15572.252930	4522.500488	21.393227
471.014923	1517.019775	15620.001953	4534.960449	21.399307
471.368713	1514.483521	15633.895508	4537.717285	21.411896
471.722504	1516.799194	15624.414063	4539.922363	21.429016
472.076294	1515.696533	15594.748047	4541.025391	21.488157
472.429993	1517.571167	15538.951172	4537.937988	21.541151
472.783722	1517.681396	15533.877930	4542.568848	21.581371
473.137329	1521.210205	15559.459961	4553.265137	21.598524
473.490967	1524.628662	15589.895508	4558.227539	21.568016
473.844543	1525.069702	15655.178711	4581.164063	21.628242
474.198090	1525.731445	15736.008789	4597.815430	21.618748
474.551605	1524.849243	15840.216797	4623.729492	21.647230
474.905060	1525.400635	15973.979492	4652.952148	21.646084
475.258484	1526.834229	16111.156250	4681.292480	21.629105
475.611877	1525.180176	16262.120117	4712.389648	21.627350
475.965240	1522.974731	16434.146484	4747.897461	21.627562
476.318573	1525.731445	16599.001953	4786.382324	21.632008
476.671844	1529.149902	16778.083984	4822.882813	21.599758
477.025116	1531.024536	16965.107422	4870.630859	21.637867
477.378326	1533.340210	17172.417969	4914.409180	21.619362
477.731506	1535.435425	17399.578125	4960.282227	21.588602
478.084656	1534.773926	17628.064453	5009.574219	21.591608
478.437744	1532.788940	17876.400391	5064.379395	21.608385
478.790833	1532.347900	18179.759766	5132.969238	21.628716
479.143890	1529.149902	18532.742188	5208.616211	21.639347
479.496826	1527.606079	18959.386719	5296.613281	21.621469
479.849823	1528.488281	19549.675781	5413.833496	21.559874
480.202728	1529.039673	20281.115234	5565.678711	21.526358
480.555603	1525.952148	21176.748047	5758.766113	21.540165
480.908478	1522.974731	22400.552734	6032.572754	21.600197
481.261292	1522.974731	23963.777344	6374.417480	21.618847
481.614075	1524.628906	25732.109375	6760.812500	21.630436
481.966797	1526.834229	27496.359375	7150.075195	21.653231
482.319489	1527.606079	29080.205078	7462.587891	21.540552
482.672150	1526.393188	30462.691406	7741.797852	21.479612
483.024780	1524.739014	31572.472656	7962.342285	21.424589
483.377350	1523.636353	32530.302734	8146.607910	21.359831
483.729919	1522.313110	33403.109375	8307.826172	21.284014
484.082428	1523.856812	34220.453125	8479.411133	21.273022
484.434937	1524.187622	35104.066406	8670.072266	21.280258
484.787384	1523.636230	36042.925781	8866.026367	21.270397
485.139771	1526.503296	37078.054688	9074.993164	21.232519
485.492157	1529.921753	38098.410156	9291.126953	21.223751
485.844482	1531.355347	39044.769531	9490.058594	21.215620
486.196777	1530.693726	39872.480469	9657.783203	21.196428
486.549072	1531.796509	40529.593750	9794.961914	21.188799
486.901276	1531.134888	40987.113281	9884.723633	21.171923
487.253448	1530.363037	41207.882813	9929.825195	21.169323
487.605591	1528.047241	41187.921875	9924.972656	21.172346
487.957703	1529.039917	40949.730469	9868.182617	21.154226
488.309784	1533.450806	40448.871094	9744.676758	21.100183
488.661835	1533.450806	39685.007813	9570.556641	21.066259
489.013855	1533.560913	38832.492188	9381.439453	21.040493
489.365814	1533.340454	38064.773438	9201.364258	20.990208
489.717743	1533.009521	37422.546875	9080.286133	21.029182
490.069611	1532.017090	36896.214844	8971.335938	21.036299
490.421509	1533.561035	36463.058594	8897.455078	21.082165
490.773315	1538.633545	36034.433594	8812.654297	21.086683
491.125092	1539.625977	35581.214844	8725.428711	21.108892
491.476807	1534.553345	35043.742188	8617.582031	21.137573
491.828522	1536.317749	34357.406250	8465.405273	21.111692
492.180176	1533.230225	33541.167969	8287.867188	21.103004
492.531830	1530.804199	32589.628906	8098.528320	21.146082
492.883423	1527.495972	31597.392578	7882.835449	21.135221
493.234985	1525.290405	30630.853516	7686.660645	21.169046
493.586487	1528.047363	29768.414063	7513.092285	21.193226
493.937988	1528.929443	29037.640625	7363.011230	21.208126
494.289429	1532.788818	28473.484375	7257.149414	21.248005
494.640869	1531.686157	28000.085938	7174.114746	21.317604
494.992218	1531.686157	27623.722656	7100.563477	21.343206
495.343567	1529.149902	27261.039063	7027.782715	21.368944
495.694855	1530.362915	26811.238281	6935.374023	21.379843
496.046112	1533.230103	26245.205078	6814.625977	21.371809
496.397339	1532.899292	25526.890625	6663.332031	21.382154
496.748535	1534.663574	24699.515625	6496.599609	21.420107
497.099670	1534.994385	23875.558594	6330.749023	21.466579
497.450806	1536.097046	23117.435547	6185.079590	21.541679
497.801880	1540.177124	22517.664063	6060.250977	21.547260
498.152924	1536.648560	22015.919922	5974.899414	21.671919
498.503937	1535.766357	21626.441406	5916.344727	21.804035
498.854889	1541.279907	21339.951172	5863.524414	21.830982
499.205841	1537.089600	21112.789063	5825.700684	21.907833
499.556702	1541.941650	20926.869141	5806.513672	21.999424
499.907562	1539.956787	20761.572266	5775.967773	22.037746
500.258362	1540.838867	20609.949219	5761.411621	22.133036
500.609161	1544.588257	20483.576172	5738.034180	22.141869
500.959900	1543.926636	20330.847656	5717.192383	22.213675
501.310608	1543.595703	20167.863281	5685.543945	22.239523
501.661255	1540.949097	19978.414063	5645.845703	22.263887
502.011902	1544.257324	19809.808594	5606.147461	22.237984
502.362488	1545.249756	19609.330078	5570.529785	22.283339
502.713043	1546.352539	19430.138672	5545.717773	22.363081
503.063568	1541.279907	19261.421875	5524.104492	22.476257
503.414063	1538.523071	19106.378906	5498.301270	22.539907
503.764496	1541.059204	18964.458984	5474.923340	22.578051
504.114899	1539.295166	18838.527344	5450.552734	22.609428
504.465271	1538.743774	18744.794922	5432.799316	22.631897
504.815613	1535.656128	18675.433594	5426.182617	22.698814
505.165894	1529.701416	18602.212891	5419.787109	22.785667
505.516174	1527.716553	18584.128906	5422.103027	22.832390
505.866394	1527.937012	18570.455078	5416.919922	22.819298
506.216583	1523.305664	18563.177734	5421.000000	22.873966
506.566711	1523.856934	18600.339844	5421.000488	22.821699
506.916840	1523.085083	18640.369141	5424.970703	22.795006
507.266907	1521.872070	18704.107422	5436.218262	22.781357
507.616882	1518.674072	18761.666016	5455.625977	22.832186
507.966858	1516.689209	18802.027344	5471.174805	22.877687
508.316803	1516.248169	18854.185547	5489.479980	22.916405
508.666748	1516.579102	18909.541016	5505.469727	22.933937
509.016632	1515.145508	18965.890625	5525.870117	22.983112
509.366486	1513.932373	19011.984375	5545.608887	23.040716
509.716309	1512.940063	19094.466797	5566.229980	23.054255
510.066040	1512.609253	19168.130859	5579.903320	23.036951
510.415771	1515.476318	19257.892578	5608.132813	23.067076
510.765503	1514.263428	19336.626953	5628.312500	23.083632
511.115173	1516.248169	19421.427734	5650.808105	23.091419
511.464752	1516.578979	19503.468750	5669.554688	23.088902
511.814270	1518.012451	19575.478516	5695.138184	23.132402
512.163818	1518.563843	19630.283203	5710.024414	23.142256
512.513306	1516.578857	19691.484375	5721.603516	23.136429
512.862793	1520.328003	19720.816406	5724.029785	23.096642
513.212219	1519.887085	19769.556641	5731.749023	23.079113
513.561646	1518.563721	19808.925781	5738.695801	23.072983
513.911011	1515.255615	19836.164063	5758.324707	23.159710
514.260315	1513.932251	19890.197266	5779.606934	23.212957
514.609558	1514.593994	19954.156250	5799.566406	23.237930
514.958801	1517.460938	20057.042969	5815.445801	23.182749
515.308044	1517.019897	20201.500000	5845.660156	23.167034
515.657227	1518.894531	20392.933594	5889.548340	23.156961
516.006348	1520.989746	20606.861328	5941.707520	23.162252
516.355408	1523.415771	20836.009766	5998.276855	23.170691
516.704529	1523.856812	21066.146484	6045.694336	23.138729
517.053467	1523.415649	21249.308594	6078.334961	23.091068
517.402466	1526.062256	21397.183594	6110.314453	23.069921
517.751404	1523.084961	21517.271484	6126.413574	23.023335
518.100281	1525.290405	21624.896484	6143.285645	22.975552
518.449219	1520.548950	21691.941406	6161.149902	23.005854
518.798035	1517.571411	21757.333984	6176.918457	23.020761
519.146851	1516.689331	21826.916016	6197.649414	23.047306
519.495544	1517.020020	21905.869141	6213.639160	23.035234
519.844299	1522.313110	21994.197266	6231.282715	23.002131
520.192932	1520.218018	22093.333984	6261.056641	23.043856
520.541626	1522.313110	22156.630859	6295.461914	23.132090
520.890198	1527.937012	22260.949219	6327.771484	23.150686
521.238770	1530.583496	22355.783203	6353.906250	23.160992
521.587280	1531.796387	22446.537109	6372.542480	23.145142
521.935791	1530.693726	22546.884766	6395.919434	23.149893
522.284180	1532.788940	22645.027344	6421.833984	23.157398
522.632629	1534.994385	22760.375000	6457.672852	23.192417
522.981018	1530.693726	22887.296875	6483.035156	23.188807
523.329346	1530.693848	23058.660156	6523.505859	23.192213
523.677551	1525.731567	23236.419922	6571.253906	23.239809
524.025818	1523.415771	23458.398438	6622.420410	23.245995
524.374023	1521.100098	23722.173828	6692.994629	23.295694
524.722229	1520.438477	24090.261719	6777.243164	23.291296
525.070374	1520.548584	24555.941406	6878.804199	23.260971
525.418457	1519.556274	25200.154297	7040.243164	23.313124
525.766541	1524.849365	26106.705078	7261.339355	23.336279
526.114563	1525.621338	27271.955078	7539.667969	23.358847
526.462585	1522.974854	28579.017578	7841.373535	23.353003
526.810547	1526.172729	29825.097656	8130.177734	23.336592
527.158447	1526.172607	30890.884766	8378.291016	23.334532
527.506348	1528.157593	31764.574219	8577.553711	23.314259
527.854065	1528.598633	32475.056641	8721.790039	23.243990
528.201904	1522.202759	33035.906250	8841.876953	23.226957
528.549622	1520.879639	33462.882813	8931.969727	23.201706
528.897339	1520.879517	33790.281250	9007.726563	23.201071
529.245056	1519.997314	34014.574219	9067.164063	23.225929
529.592712	1516.027466	34193.992188	9111.051758	23.242037
529.940369	1515.365845	34378.804688	9144.794922	23.215555
530.287903	1517.571289	34558.000000	9189.676758	23.220356
530.635437	1514.704346	34745.679688	9240.070313	23.247484
530.982910	1517.020020	35013.753906	9291.898438	23.210855
531.330383	1518.233032	35248.523438	9346.263672	23.207720
531.677795	1521.651489	35370.593750	9370.854492	23.188917
532.025208	1522.643921	35337.398438	9373.059570	23.215948
532.372498	1521.320801	35142.769531	9344.388672	23.268087
532.719788	1522.643921	34723.730469	9246.576172	23.264095
533.067078	1520.659180	34028.792969	9071.794922	23.228451
533.414307	1523.195435	33081.554688	8846.067383	23.204224
533.761536	1525.290649	32011.136719	8595.085938	23.190418
534.108643	1523.085083	31022.433594	8373.658203	23.222795
534.455811	1523.856934	30247.216797	8198.986328	23.239376
534.802856	1527.275635	29614.585938	8060.264160	23.259573
535.149902	1524.408447	29126.521484	7959.696289	23.314476
535.496887	1523.195313	28710.240234	7874.565430	23.361752
535.843811	1522.864624	28364.095703	7800.352539	23.387482
536.190796	1520.328247	28066.687500	7737.717285	23.420874
536.537659	1526.613892	27817.033203	7681.920410	23.412737
536.884460	1527.826782	27578.732422	7628.437500	23.418037
537.231323	1525.180298	27296.324219	7577.602539	23.485268
537.578064	1525.952148	27017.113281	7509.012695	23.471119
537.924805	1524.518677	26697.654297	7444.502930	23.517073
538.271423	1526.062500	26405.654297	7387.491211	23.559183
538.618164	1527.275391	26236.941406	7367.532227	23.635515
538.964783	1526.062378	26303.761719	7397.416016	23.696121
539.311279	1525.290405	26509.308594	7448.141602	23.706560
539.657776	1529.811523	26777.714844	7511.768555	23.692886
540.004333	1534.001831	27009.066406	7574.844727	23.712767
540.350769	1530.914307	27213.953125	7623.915039	23.723831
540.697144	1534.773926	27352.234375	7666.921875	23.751940
541.043518	1534.773926	27429.089844	7690.630859	23.773005
541.389893	1532.788940	27431.296875	7687.212891	23.763624
541.736145	1533.009521	27319.259766	7665.488770	23.781975
542.082458	1531.465698	27184.619141	7633.179199	23.785431
542.428711	1530.032104	27028.029297	7590.393066	23.767986
542.774902	1534.443115	26874.091797	7559.517090	23.777260
543.121033	1534.001953	26771.865234	7547.828125	23.828587
543.467102	1535.766357	26708.130859	7536.028809	23.836706
543.813171	1530.473389	26658.839844	7525.332520	23.856939
544.159180	1527.826782	26623.990234	7527.868164	23.908201
544.505127	1527.275269	26580.546875	7519.598145	23.918324
544.851135	1525.510986	26465.642578	7502.726074	23.966253
545.197021	1529.039673	26279.062500	7455.640625	23.945841
545.542908	1529.811523	25915.710938	7371.943359	23.957008
545.888733	1528.598633	25382.431641	7246.232910	23.969458
546.234558	1529.701416	24666.982422	7087.771484	24.022141
546.580322	1529.370483	23875.119141	6905.821289	24.060286
546.926025	1522.754150	23061.306641	6726.186523	24.158691
547.271667	1516.799438	22344.753906	6560.447266	24.215761
547.617371	1515.917236	21688.521484	6424.260254	24.331726
547.962952	1510.513916	21087.759766	6290.500000	24.416031
548.308533	1506.985229	20539.593750	6165.340820	24.475653
548.654053	1510.513916	20035.978516	6060.582031	24.561155
548.999573	1510.072876	19574.046875	5959.461914	24.631285
549.344971	1509.631836	19205.074219	5886.460938	24.734219
549.690430	1511.727051	18895.871094	5829.339844	24.836498
550.035767	1514.704468	18655.806641	5776.739746	24.864418
550.381104	1517.461182	18424.896484	5726.896484	24.896948
550.726440	1517.350952	18201.921875	5685.103516	24.979681
551.071655	1521.872070	17961.861328	5639.119629	25.044104
551.416931	1523.305664	17699.191406	5574.831055	25.046700
551.762085	1523.305664	17417.554688	5504.917969	25.050648
552.107178	1526.393188	17137.240234	5442.614258	25.086540
552.452332	1527.937012	16865.531250	5380.199219	25.116470
552.797424	1528.488281	16617.859375	5327.268555	25.175205
553.142395	1529.039551	16403.378906	5280.072266	25.218145
553.487366	1531.906494	16235.324219	5237.506836	25.202305
553.832336	1533.450439	16092.630859	5204.535645	25.214916
554.177185	1538.192261	15982.911133	5171.343262	25.152105
554.522095	1537.199707	15885.650391	5150.942871	25.185598
554.866943	1540.508057	15797.429688	5128.337402	25.165525
555.211731	1540.177246	15707.779297	5109.480469	25.193419
555.556396	1542.162109	15630.037109	5096.578613	25.230324
555.901123	1536.758667	15550.971680	5074.523926	25.244123
556.245789	1533.891602	15491.977539	5064.929688	25.297438
556.590454	1533.340454	15421.841797	5044.529785	25.281271
556.934998	1535.656006	15336.601563	5022.475098	25.265074
557.279541	1531.135010	15230.741211	5004.169434	25.351345
557.624023	1529.260376	15136.675781	4980.130371	25.360218
557.968567	1528.488403	15005.562500	4945.174316	25.351837
558.312988	1526.393188	14903.338867	4920.252930	25.370964
558.657349	1528.267822	14807.733398	4910.218262	25.467518
559.001770	1528.708862	14752.045898	4902.609375	25.514742
559.346069	1524.628784	14695.036133	4892.905762	25.574583
559.690308	1524.187622	14652.139648	4888.384277	25.626211
560.034485	1519.445923	14622.696289	4882.980957	25.669472
560.378723	1517.681519	14593.473633	4873.938477	25.667713
560.722900	1515.365845	14547.491211	4867.101563	25.719028
561.067017	1513.380981	14502.721680	4866.991211	25.818172
561.411072	1513.932251	14474.269531	4866.770508	25.869993
561.755127	1513.380859	14445.488281	4864.454590	25.912821
562.099182	1512.057617	14444.275391	4866.219238	25.936476
562.443115	1513.711914	14463.792969	4862.689941	25.860672
562.787048	1512.609131	14476.474609	4865.888184	25.866352
563.130920	1517.020142	14514.077148	4884.083008	25.906349
563.474792	1519.997437	14593.033203	4906.137695	25.901712
563.818604	1519.887085	14671.437500	4931.059082	25.937412
564.162354	1516.689209	14778.511719	4953.334473	25.913824
564.506042	1522.202881	14880.733398	4968.110840	25.795563
564.849731	1525.290405	14948.110352	4985.423828	25.777990
565.193420	1526.723999	15022.654297	5002.625977	25.755184
565.537048	1527.054688	15072.498047	5010.675781	25.718029
565.880615	1524.959595	15111.315430	5010.675781	25.656008
566.224121	1526.723877	15117.048828	5014.866211	25.666365
566.567627	1533.781372	15125.760742	5015.197266	25.613752
566.911072	1532.788940	15127.083008	5017.733398	25.635345
567.254517	1536.758789	15147.593750	5021.372559	25.601763
567.597839	1535.104858	15172.957031	5028.430176	25.614922
567.941223	1534.002075	15221.255859	5036.700195	25.590950
568.284485	1532.678833	15281.576172	5053.902344	25.610952
568.627808	1534.663696	15341.895508	5069.010254	25.597794
568.970947	1535.876709	15414.675781	5089.851563	25.607222
569.314148	1538.633545	15486.792969	5104.738281	25.566849
569.657288	1534.774048	15551.301758	5123.264160	25.601849
570.000366	1534.112305	15612.943359	5139.805176	25.610741
570.343445	1532.348022	15662.568359	5151.935059	25.615927
570.686462	1528.378174	15679.879883	5155.133301	25.628057
571.029419	1526.723999	15675.358398	5151.273926	25.617664
571.372314	1526.613770	15632.462891	5146.752441	25.664095
571.715210	1521.651367	15592.434570	5150.281250	25.788401
572.058105	1520.989990	15575.562500	5146.642578	25.796961
572.400879	1521.872070	15552.845703	5147.524414	25.840347
572.743713	1518.563843	15550.087891	5154.692871	25.913998
573.086426	1520.328125	15549.425781	5160.536621	25.947559
573.429077	1521.982178	15559.351563	5156.125977	25.889067
573.771790	1517.902100	15557.585938	5159.434082	25.937422
574.114441	1517.571289	15556.593750	5160.757324	25.950426
574.457031	1516.248047	15535.863281	5162.852539	26.010731
574.799561	1519.115112	15488.666992	5153.479004	26.016323
575.142029	1518.674072	15425.588867	5143.665039	26.066105
575.484436	1520.438477	15341.343750	5128.116699	26.103052
575.826904	1518.674194	15231.954102	5106.062012	26.159954
576.169250	1519.666626	15101.721680	5066.915039	26.117172
576.511597	1518.012573	14939.840820	5030.415039	26.169329
576.853943	1521.320679	14764.176758	4993.474121	26.219067
577.196167	1524.518555	14579.801758	4953.444336	26.264660
577.538391	1523.526123	14387.044922	4906.138184	26.296165
577.880554	1526.503296	14197.925781	4855.963867	26.275349
578.222717	1527.606079	14013.992188	4815.713867	26.333544
578.564819	1527.936890	13843.730469	4773.148926	26.350002
578.906860	1531.906860	13668.176758	4731.466309	26.363617
579.248901	1529.039795	13486.114258	4690.003906	26.435932
579.590942	1528.488525	13311.665039	4649.975098	26.491045
579.932861	1530.473267	13130.047852	4600.021484	26.462595
580.274780	1531.576050	12965.851563	4556.794434	26.457455
580.616638	1528.929443	12799.669922	4529.446777	26.622185
580.958496	1528.267822	12642.088867	4492.836426	26.674610
581.300232	1525.400757	12493.443359	4457.769531	26.735569
581.641968	1525.841919	12354.940430	4422.592285	26.749691
581.983704	1524.187744	12222.283203	4400.096680	26.882439
582.325317	1525.841919	12101.534180	4375.947266	26.949587
582.666992	1527.275391	11995.232422	4342.313965	26.891958
583.008606	1529.591187	11896.317383	4319.597656	26.913090
583.350098	1530.693970	11814.714844	4304.380371	26.970839
583.691589	1529.039917	11735.871094	4290.706543	27.057041
584.033081	1530.473511	11675.662109	4277.474121	27.076880
584.374512	1529.150146	11635.742188	4267.770020	27.097363
584.715881	1530.804199	11580.606445	4264.682617	27.203304
585.057190	1531.245361	11526.683594	4256.963379	27.269619
585.398499	1526.613770	11487.756836	4245.935547	27.299295
585.739807	1531.355469	11463.937500	4244.612305	27.316732
586.081055	1531.134888	11458.313477	4234.577148	27.232737
586.422180	1532.347900	11440.449219	4243.730469	27.365309
586.763367	1531.134888	11435.597656	4241.083496	27.360886
587.104431	1532.237671	11436.257813	4246.045898	27.401075
587.445496	1529.370483	11437.471680	4251.449219	27.473261
587.786499	1529.039795	11440.559570	4247.148926	27.423738
588.127502	1532.237671	11449.160156	4248.361816	27.388779
588.468445	1533.340332	11450.815430	4253.213867	27.425062
588.809326	1533.560913	11456.659180	4251.890137	27.393953
589.150208	1536.207520	11464.377930	4250.457031	27.338871
589.491028	1537.751343	11463.717773	4245.825684	27.282724
589.831848	1533.450562	11459.858398	4247.038574	27.337057
590.172546	1529.591187	11462.835938	4250.897949	27.395948
590.513245	1527.385620	11457.653320	4255.088379	27.468571
590.853943	1526.723999	11469.452148	4256.411621	27.454109
591.194458	1523.084961	11473.973633	4262.696777	27.531328
591.535095	1526.282837	11476.620117	4262.035156	27.494068
591.875610	1528.819214	11484.891602	4260.822754	27.440575
592.216125	1524.739014	11512.017578	4267.659180	27.464140
592.556580	1528.819214	11542.123047	4273.283691	27.408180
592.897034	1527.385620	11559.435547	4278.466309	27.422916
593.237366	1524.408203	11564.838867	4288.500977	27.529623
593.577698	1529.260254	11603.103516	4287.949707	27.384676
593.918030	1530.252686	11650.410156	4295.999512	27.329090
594.258301	1531.686401	11705.215820	4308.459961	27.294102
594.598511	1533.450684	11771.158203	4325.552246	27.272724
594.938721	1535.325317	11857.501953	4345.070801	27.220476
595.278809	1534.443115	11935.464844	4363.817383	27.202850
595.618958	1537.861328	11997.327148	4378.152344	27.155220
595.958984	1535.876587	12031.291016	4392.377930	27.216663
596.299011	1534.663574	12048.934570	4396.127441	27.215046
596.638977	1534.112305	12065.916992	4399.545898	27.207432
596.978943	1536.317749	12067.018555	4399.104492	27.185146
597.318848	1538.302490	12054.998047	4397.670898	27.188848
597.658630	1541.720947	12036.031250	4392.598145	27.165932
597.998474	1541.941650	12002.398438	4387.194336	27.200081
598.338257	1541.610718	11959.060547	4379.254883	27.239334
598.677979	1536.648438	11904.476563	4375.064941	27.377155
599.017700	1535.986938	11873.490234	4359.736816	27.315590
599.357361	1536.317749	11823.316406	4352.899414	27.380013
599.696960	1537.530640	11767.958984	4344.959961	27.441950
600.036560	1535.104736	11732.892578	4334.814941	27.454092
600.376038	1537.420532	11709.957031	4317.282227	27.327126
600.715576	1535.215088	11680.955078	4308.019043	27.329735
601.055054	1530.473267	11653.055664	4304.931152	27.408600
601.394409	1530.142456	11614.680664	4304.159180	27.507622
601.733826	1529.260376	11593.729492	4300.410156	27.533991
602.073120	1523.195435	11560.426758	4300.079102	27.665834
602.412415	1519.335693	11560.868164	4301.623047	27.707796
602.751587	1515.366089	11583.473633	4303.607910	27.693802
603.090820	1516.578979	11618.099609	4308.680664	27.640409
603.429993	1518.563843	11665.185547	4324.449219	27.653393
603.769104	1517.902100	11700.142578	4339.336914	27.709372
604.108154	1517.240479	11724.841797	4347.386719	27.725868
604.447205	1517.571289	11761.012695	4352.348145	27.674067
604.786194	1516.358276	11777.001953	4363.375977	27.746969
605.125183	1519.666504	11801.591797	4375.175781	27.772125
605.464111	1522.423340	11833.351563	4375.175781	27.667273
605.802979	1524.849121	11869.520508	4378.262695	27.583412
606.141846	1523.415527	11894.111328	4392.487793	27.665188
606.480652	1525.621338	11927.525391	4396.127441	27.595966
606.819336	1524.187622	11986.520508	4405.058594	27.535646
607.158020	1522.202759	12036.363281	4420.938477	27.569828
607.496765	1518.453491	12074.296875	4442.882324	27.704357
607.835388	1515.255615	12102.967773	4458.321289	27.796995
608.173950	1520.328369	12105.945313	4465.930176	27.826452
608.512512	1522.313110	12089.955078	4462.842285	27.825785
608.851013	1523.415771	12038.128906	4452.586914	27.857832
609.189514	1528.708862	11961.158203	4432.627930	27.835447
609.527893	1531.575928	11846.584961	4409.139648	27.896862
609.866333	1536.428101	11725.615234	4377.602051	27.884205
610.204712	1538.082153	11597.809570	4346.835938	27.920774
610.542969	1536.317749	11477.282227	4317.393066	27.975908
610.881226	1535.545898	11375.941406	4290.375977	27.995115
611.219482	1536.538330	11296.544922	4268.210449	27.988424
611.557678	1534.774048	11222.221680	4252.441406	28.053493
611.895813	1534.001953	11170.172852	4234.136230	28.020823
612.233948	1529.370605	11119.116211	4211.530273	27.969038
612.571960	1530.693848	11067.949219	4200.393066	27.992321
612.910034	1530.693848	11004.432617	4188.594238	28.055454
613.247986	1530.032227	10945.435547	4166.429199	28.000893
613.585938	1525.510986	10878.611328	4151.983398	28.081303
613.923828	1526.723877	10775.286133	4133.126465	28.181705
614.261658	1528.708740	10655.861328	4108.755859	28.267822
614.599487	1530.583374	10533.898438	4077.769287	28.291645
614.937317	1532.899170	10426.493164	4045.900635	28.256311
615.275024	1529.921753	10327.688477	4014.914551	28.245722
615.612732	1525.951904	10242.007813	3986.243652	28.227123
615.950378	1524.297852	10159.083008	3966.836426	28.287195
616.288025	1523.856812	10087.185547	3953.603516	28.373856
616.625549	1523.415649	10036.679688	3941.363037	28.402119
616.963074	1522.092407	9979.669922	3934.305420	28.521322
617.300537	1521.761597	9949.125000	3924.270508	28.508429
617.638000	1521.761597	9913.396484	3915.228027	28.522051
617.975464	1523.636230	9882.080078	3909.162842	28.540321
618.312744	1525.952026	9843.483398	3907.839600	28.636955
618.650024	1523.746582	9816.908203	3903.980225	28.701159
618.987305	1523.526001	9787.244141	3898.246338	28.736706
619.324585	1529.370483	9754.933594	3898.687500	28.804312
619.661743	1528.267822	9729.902344	3898.025635	28.893724
619.998901	1531.465820	9711.817383	3894.938232	28.892063
620.336060	1534.001953	9686.896484	3900.121338	29.021832
620.673096	1539.184814	9661.203125	3894.055908	28.993668
621.010193	1538.633423	9631.980469	3887.880615	29.026892
621.347168	1535.766357	9616.762695	3882.256592	29.037142
621.684082	1534.773926	9601.544922	3877.845703	29.045969
622.020996	1535.545898	9580.703125	3874.868408	29.077400
622.357849	1540.397827	9554.568359	3875.860840	29.141668
622.694641	1540.397827	9528.212891	3874.206543	29.217110
623.031433	1541.941650	9508.142578	3868.582520	29.206404
623.368164	1542.162231	9502.850586	3862.848877	29.151833
623.704895	1541.059570	9505.497070	3861.194824	29.131187
624.041504	1537.971924	9534.609375	3864.392822	29.092489
624.378174	1534.663818	9550.929688	3875.861328	29.205587
624.714783	1534.994629	9583.019531	3881.264893	29.153368
625.051331	1531.906982	9605.955078	3886.667725	29.164562
625.387756	1531.024780	9641.573242	3892.732910	29.118969
625.724304	1531.906860	9667.598633	3889.534912	28.978825
626.060669	1535.656128	9673.332031	3890.306641	28.935171
626.397034	1532.678955	9680.831055	3891.188232	28.945326
626.733337	1532.568604	9681.161133	3888.210938	28.908579
627.069641	1527.716553	9676.640625	3884.572510	28.922297
627.405884	1528.267944	9668.479492	3880.382080	28.895002
627.742126	1527.937012	9663.517578	3879.610107	28.906027
628.078308	1523.526123	9658.775391	3873.986572	28.892300
628.414429	1523.526123	9645.101563	3866.708252	28.851326
628.750488	1524.959595	9631.758789	3864.833984	28.863111
629.086548	1526.062256	9595.479492	3853.034668	28.836933
629.422546	1523.526123	9564.051758	3840.683838	28.818487
629.758545	1525.069824	9526.228516	3830.208008	28.810055
630.094421	1524.187744	9472.195313	3818.077393	28.861191
630.430298	1525.290405	9417.831055	3810.138428	28.949463
630.766113	1526.282959	9351.777344	3798.559814	29.036848
631.101929	1529.260254	9271.388672	3776.725098	29.029032
631.437622	1531.575928	9189.014648	3755.001465	29.036152
631.773376	1529.149902	9111.272461	3741.989990	29.184969
632.109070	1529.149902	9044.116211	3726.551758	29.240341
632.444641	1525.510864	8975.857422	3712.326904	29.351868
632.780273	1528.378052	8906.606445	3698.432617	29.411594
633.115784	1525.069946	8849.706055	3684.207275	29.477739
633.451294	1521.872070	8788.946289	3666.784180	29.515484
633.786682	1520.438477	8727.304688	3651.566650	29.570803
634.122131	1521.982178	8668.307617	3637.341797	29.600662
634.457458	1520.107666	8613.833008	3620.911133	29.614952
634.792847	1519.997314	8549.323242	3607.126953	29.691746
635.128113	1524.739136	8485.807617	3594.445313	29.732592
635.463318	1526.613770	8434.750000	3585.071777	29.797588
635.798584	1525.841919	8377.078125	3568.200195	29.810068
636.133728	1525.952148	8329.109375	3555.519287	29.832724
636.468872	1525.290527	8283.125000	3548.792480	29.943052
636.803955	1524.739136	8240.559570	3535.780029	29.944828
637.139038	1526.613770	8204.279297	3526.848145	29.954096
637.473999	1525.069946	8163.147949	3509.094238	29.888535
637.808899	1525.400757	8111.651855	3491.561035	29.852495
638.143799	1522.202759	8053.869141	3483.290283	30.024305
638.478638	1523.415771	7994.541504	3471.602051	30.105831
638.813538	1528.047363	7933.230469	3452.635010	30.047348
639.148315	1530.252808	7868.169434	3433.888672	30.035673
639.483032	1530.583496	7802.336914	3413.157471	30.016708
639.817749	1529.150024	7742.680176	3400.034912	30.109854
640.152405	1527.165161	7685.999023	3386.251221	30.185682
640.487000	1529.480835	7628.216309	3373.348877	30.233612
640.821594	1528.819214	7575.727539	3367.063232	30.399734
641.156128	1528.598511	7530.735840	3358.462158	30.486868
641.490662	1528.267822	7483.979980	3347.103760	30.539354
641.825134	1524.959595	7437.886230	3333.098877	30.579430
642.159546	1522.092651	7393.886719	3323.505615	30.679090
642.493896	1519.666626	7349.887695	3316.117188	30.812735
642.828186	1517.902222	7319.563477	3306.854248	30.835169
643.162537	1516.358398	7284.606934	3300.568359	30.931572
643.496765	1515.696777	7244.688477	3284.027588	30.866354
643.830994	1516.027588	7218.002441	3277.411865	30.890778
644.165100	1513.380981	7196.499023	3269.802734	30.905952
644.499268	1510.293457	7173.011230	3261.091064	30.917974
644.833313	1509.301025	7158.014160	3258.775635	30.971209
645.167358	1515.035156	7139.157715	3260.208984	31.030153
645.501343	1513.491211	7132.981934	3257.011475	31.026304
645.835327	1509.962524	7123.058105	3253.813721	31.067549
646.169189	1508.529053	7114.456055	3253.923828	31.134811
646.503052	1512.057617	7104.311035	3250.174561	31.080797
646.836914	1513.932251	7088.541504	3247.638428	31.100048
647.170654	1516.578979	7080.492676	3251.497803	31.181627
647.504395	1517.461182	7083.359375	3254.144287	31.202206
647.838074	1520.107666	7085.785156	3250.946045	31.098431
648.171753	1518.563965	7084.130859	3247.748047	31.069324
648.505371	1519.666626	7081.926270	3245.212158	31.022383
648.838928	1519.666626	7087.440430	3243.447510	30.959965
649.172424	1521.982300	7097.144531	3246.204346	30.926851
649.505920	1522.754150	7098.687500	3243.447266	30.859283
649.839294	1523.526245	7092.181641	3244.219238	30.899614
650.172729	1525.070068	7090.195801	3243.667725	30.881559
650.506104	1525.731567	7093.063965	3249.512695	30.962425
650.839355	1524.959595	7090.638184	3250.946045	31.011248
651.172668	1528.157593	7082.256836	3251.938232	31.036188
651.505859	1533.671265	7068.252441	3252.489990	31.055986
651.839111	1538.082153	7056.342773	3245.432617	30.940010
652.172241	1535.876709	7041.786621	3237.934082	30.913279
652.505371	1535.435547	7022.710449	3229.112305	30.865536
652.838379	1536.648560	7007.603516	3222.937012	30.822561
653.171387	1536.758789	6991.062500	3218.967285	30.841856
653.504333	1537.310181	6964.927734	3212.791992	30.869562
653.837280	1534.001953	6946.622559	3213.122803	31.022327
654.170227	1533.781494	6934.712891	3197.022949	30.795454
654.503052	1535.214966	6922.582520	3188.311768	30.684685
654.835876	1537.751221	6907.695801	3181.143555	30.603527
655.168579	1542.713379	6891.927246	3178.056152	30.571648
655.501343	1541.279907	6883.436035	3179.379395	30.663639
655.833984	1544.477783	6877.039551	3180.041016	30.671249
656.166626	1543.044312	6878.804199	3179.710205	30.673531
656.499268	1544.588013	6896.999023	3183.349365	30.617254
656.831787	1545.580444	6924.126465	3188.421387	30.544333
657.164307	1540.287598	6959.083496	3203.859863	30.700035
657.496765	1539.625854	6995.473145	3216.982178	30.744196
657.829224	1541.059448	7031.642090	3231.869141	30.794724
658.161621	1538.302612	7066.819336	3239.146973	30.764933
658.493958	1535.986938	7092.732910	3249.071533	30.828917
658.826233	1532.568604	7112.912109	3259.326904	30.943583
659.158508	1530.032227	7145.002441	3259.877930	30.807745
659.490723	1530.914429	7156.470215	3264.399170	30.814463
659.822876	1531.576050	7165.181641	3268.700195	30.835033
660.154968	1531.245239	7168.710449	3268.810303	30.821743
660.487061	1529.921875	7173.231934	3269.471680	30.824991
660.819153	1531.906860	7170.034180	3263.186279	30.706638
661.151123	1530.473267	7159.007324	3264.179199	30.802086
661.483093	1531.134888	7142.245605	3262.414795	30.854494
661.815002	1528.708740	7124.049805	3258.555176	30.915836
662.146851	1524.077393	7100.892090	3251.387695	30.973064
662.478760	1521.320557	7082.146484	3245.983887	31.014517
662.810486	1519.666504	7055.461426	3239.808838	31.073086
663.142212	1519.004883	7017.968750	3229.884033	31.112755
663.473938	1521.430908	6967.243164	3220.621338	31.201780
663.805603	1521.320557	6898.985352	3208.601563	31.375717
664.137207	1523.967041	6828.961914	3184.341553	31.298323
664.468689	1525.400635	6759.269531	3161.294678	31.255922
664.800293	1526.172607	6684.834961	3134.498535	31.177191
665.131775	1529.921875	6612.826660	3114.208252	31.168917
665.463196	1529.480713	6554.823730	3095.902832	31.170454
665.794617	1531.906860	6497.812500	3077.487305	31.123838
666.125916	1537.530640	6446.314941	3071.091553	31.241156
666.457275	1537.971802	6413.785156	3062.710938	31.271482
666.788574	1536.979370	6383.789551	3055.212402	31.324377
667.119812	1539.295044	6353.906250	3046.611084	31.307117
667.450928	1540.397827	6330.308105	3039.884277	31.305105
667.782104	1540.177368	6313.988281	3036.906982	31.352930
668.113159	1540.397827	6295.461914	3037.237793	31.478861
668.444214	1535.876709	6287.633301	3036.135010	31.572708
668.775208	1536.758789	6277.928711	3039.443359	31.694384
669.106201	1540.067017	6267.453125	3040.545898	31.740137
669.437134	1543.044312	6245.729004	3031.944824	31.660650
669.768005	1546.904053	6219.263184	3031.504150	31.774099
670.098877	1548.999146	6209.559570	3025.108154	31.672350
670.429688	1548.227295	6190.813477	3021.910156	31.742716
670.760437	1550.101929	6188.717773	3018.602051	31.658154
671.091187	1550.542969	6176.477539	3016.176025	31.682961
671.421814	1549.109375	6162.472656	3008.015869	31.623491
671.752441	1546.573120	6143.506836	3007.574707	31.782091
672.083008	1542.934204	6130.383789	3004.928223	31.869429
672.413574	1544.367798	6119.577148	3003.494385	31.892017
672.744080	1539.846558	6102.816406	3003.825439	32.083904
673.074524	1536.758911	6089.362793	2996.767822	32.069756
673.404968	1535.876709	6066.977539	2993.018555	32.158672
673.735352	1536.869019	6040.401855	2982.983887	32.110676
674.065613	1533.560913	6016.141602	2977.359863	32.209103
674.395935	1531.355469	6001.144531	2975.595459	32.311146
674.726196	1528.819214	5980.192871	2969.861328	32.372978
675.056335	1529.150024	5964.313965	2966.112061	32.399300
675.386536	1531.796509	5940.384766	2956.628418	32.319458
675.716614	1528.929443	5925.387695	2946.483887	32.243103
676.046692	1526.503296	5913.808594	2939.757324	32.212349
676.376770	1526.834229	5913.698730	2945.160645	32.331211
676.706726	1523.856812	5920.866699	2945.932373	32.341877
677.036621	1524.518555	5919.323242	2948.689453	32.405785
677.366516	1525.290405	5932.114746	2949.902344	32.327404
677.696411	1521.210327	5936.635254	2951.556152	32.394299
678.026184	1518.343384	5951.631836	2957.951904	32.472702
678.355957	1517.902100	5965.967285	2969.530518	32.635052
678.685669	1519.997314	5992.542969	2975.154297	32.535316
679.015320	1519.666626	6014.707520	2978.021484	32.443638
679.344971	1521.210449	6027.168945	2983.645264	32.455578
679.674561	1522.313232	6048.010254	2987.725342	32.379810
680.004150	1517.240723	6064.110352	2995.554688	32.512787
680.333618	1518.453735	6078.115234	3000.737549	32.508636
680.663086	1517.791992	6094.435059	3006.692383	32.532589
680.992493	1519.997437	6107.778320	3008.236328	32.439190
681.321899	1521.761719	6110.093750	3011.103516	32.459328
681.651184	1523.746704	6108.219238	3016.065674	32.551594
681.980530	1526.393188	6103.146973	3016.065430	32.548664
682.309753	1526.723999	6094.655762	3017.609375	32.638084
682.638977	1527.385498	6081.533691	3019.815186	32.770775
682.968079	1528.929199	6066.426270	3018.491699	32.827847
683.297241	1531.024414	6046.797852	3012.978027	32.817272
683.626343	1532.678589	6027.499512	3006.913086	32.798515
683.955383	1530.803955	5996.403320	3002.281738	32.951405
684.284363	1533.340332	5959.351563	2987.835693	32.862442
684.613281	1533.119751	5924.835938	2977.690430	32.893078
684.942139	1531.355469	5886.681641	2967.324707	32.970417
685.271057	1532.348022	5854.041016	2954.863770	32.915707
685.599792	1529.260376	5815.224121	2944.278076	33.015156
685.928589	1530.363037	5784.348633	2936.118164	33.045605
686.257324	1527.716553	5753.692871	2929.612061	33.173290
686.585999	1528.488525	5724.580566	2921.782715	33.204567
686.914612	1531.024780	5680.582031	2910.314453	33.239445
687.243164	1531.024780	5642.647949	2899.397217	33.280590
687.571777	1531.245117	5601.516602	2894.876221	33.502216
687.900269	1530.363037	5560.385254	2890.354980	33.746513
688.228699	1528.378052	5526.420898	2882.966797	33.881294
688.557129	1530.362915	5496.758301	2869.623779	33.765186
688.885498	1526.393188	5467.314941	2856.060303	33.740002
689.213867	1525.510986	5442.834473	2851.098145	33.839104
689.542114	1524.628906	5421.772461	2846.245850	33.912453
689.870361	1523.636475	5396.079102	2834.336426	33.846851
690.198608	1522.313110	5375.126465	2827.940674	33.887642
690.526794	1522.533813	5343.258301	2820.442139	33.970215
690.854858	1522.313110	5320.982910	2813.164063	33.981655
691.182922	1516.248169	5299.259277	2815.479980	34.343853
691.510986	1516.358398	5276.433105	2809.855957	34.400848
691.838928	1521.320679	5241.477051	2802.908936	34.449852
692.166931	1522.974731	5200.455566	2795.079346	34.591740
692.494812	1526.282837	5167.484375	2791.219971	34.739552
692.822632	1525.841797	5120.288086	2785.927002	35.056450
693.150452	1527.495850	5083.236328	2777.215332	35.146534
693.478149	1525.952148	5042.655762	2770.157715	35.379883
693.805908	1527.826782	5017.734375	2762.438721	35.376637
694.133606	1527.606079	4996.671875	2758.909912	35.493816
694.461243	1529.039673	4976.712402	2752.183105	35.477364
694.788818	1530.583496	4963.038086	2746.559570	35.425846
695.116333	1532.458130	4961.714844	2743.251221	35.307739
695.443848	1532.347900	4954.547363	2748.434326	35.535229
695.771301	1534.663452	4967.780273	2756.925293	35.602104
696.098755	1536.869019	4989.614258	2764.975098	35.568977
696.426147	1538.302612	5020.049316	2773.135254	35.465897
696.753418	1537.751343	5064.489258	2789.455811	35.491848
697.080688	1537.530640	5103.635742	2803.680908	35.505131
697.407898	1537.199829	5152.597168	2819.339600	35.463314
697.735107	1537.310059	5187.553223	2835.990479	35.577915
698.062317	1540.066895	5222.729980	2844.922607	35.432396
698.389404	1541.831421	5252.503906	2856.501221	35.429424
698.716492	1540.949097	5280.292480	2858.927002	35.246239
699.043457	1536.427979	5295.730957	2864.219971	35.320164
699.370483	1534.884155	5303.449219	2865.763672	35.315289
699.697388	1536.207397	5314.476563	2867.969482	35.247944
700.024292	1536.648438	5318.777832	2865.543457	35.136158
700.351135	1538.192261	5310.507324	2863.668701	35.136951
700.677917	1537.309937	5302.567383	2861.794189	35.176460
701.004639	1538.192139	5290.989258	2858.155273	35.172783
701.331299	1538.853760	5274.338379	2853.854736	35.202953
701.658020	1535.876465	5256.915039	2847.789551	35.256638
701.984619	1535.435303	5223.171387	2842.606934	35.446453
702.311218	1537.640747	5193.177246	2827.609863	35.288094
702.637756	1539.074341	5146.642578	2816.361816	35.405773
702.964233	1536.207275	5091.506348	2799.269775	35.526196
703.290649	1532.678711	5023.027344	2778.979492	35.707058
703.617065	1532.237671	4950.688477	2762.769531	35.996773
703.943481	1531.024658	4864.344727	2740.384033	36.280926
704.269775	1528.708862	4791.344238	2713.918701	36.326763
704.596008	1528.267822	4730.583984	2693.738770	36.394623
704.922241	1525.510986	4663.869141	2672.456299	36.546028
705.248474	1526.503418	4603.991211	2659.995605	36.831738
705.574585	1524.959717	4556.352539	2656.466797	37.326309
705.900696	1525.400757	4518.529297	2647.424561	37.486656
706.226746	1526.503540	4489.969238	2637.720459	37.497208
706.552734	1525.621338	4460.085449	2629.560303	37.619781
706.878723	1523.526245	4434.391602	2626.693115	37.898247
707.204651	1522.533813	4421.049316	2621.951416	37.930367
707.530518	1526.282959	4410.683105	2623.164307	38.028057
707.856323	1523.526123	4401.089844	2622.061523	38.175884
708.182068	1521.761719	4400.096680	2623.053955	38.261433
708.507813	1526.282837	4397.781250	2624.046387	38.229641
708.833496	1525.841797	4395.465332	2625.810791	38.331474
709.159180	1522.092407	4407.264648	2629.008545	38.365685
709.484802	1519.335693	4415.645020	2633.970703	38.484669
709.810303	1521.982178	4421.489746	2638.051025	38.491669
710.135864	1522.643799	4431.855469	2644.115967	38.549007
710.461304	1523.415771	4434.281738	2642.020752	38.428596
710.786743	1522.754150	4447.514648	2642.572266	38.287514
711.112122	1522.974731	4447.183594	2649.188721	38.513458
711.437500	1524.739136	4451.043457	2647.975342	38.384125
711.762817	1526.723999	4454.351074	2647.093262	38.268852
712.088013	1525.952148	4456.335938	2644.115967	38.157589
712.413269	1532.017090	4455.343262	2637.940674	37.831001
712.738403	1533.009521	4461.628906	2636.617188	37.683548
713.063538	1530.142578	4457.989746	2635.624756	37.757511
713.388611	1526.282959	4458.431152	2635.625000	37.833763
713.713623	1523.085083	4456.666992	2634.742676	37.894207
714.038574	1522.533691	4455.343750	2633.860596	37.892902
714.363525	1517.571411	4444.757813	2634.191650	38.146534
714.688477	1518.784424	4438.692871	2633.750488	38.184967
715.013306	1518.233032	4424.467285	2633.530029	38.376019
715.338135	1517.240479	4405.832031	2632.537842	38.610420
715.662842	1516.799438	4392.268066	2623.715820	38.495163
715.987549	1514.704346	4365.250977	2623.274658	38.889744
716.312195	1515.586548	4337.020996	2614.011719	38.931442
716.636841	1510.072876	4309.893555	2607.285156	39.188660
716.961426	1512.940063	4277.473633	2599.235352	39.293980
717.285950	1510.624390	4246.596680	2595.927002	39.667896
717.610474	1510.513916	4219.910645	2591.516113	39.898262
717.934937	1511.616699	4188.042480	2583.466309	40.047798
718.259277	1510.293579	4158.048828	2578.834717	40.356491
718.583679	1511.065308	4126.400391	2575.085449	40.683895
718.908020	1511.506470	4098.060059	2565.822754	40.761429
719.232239	1507.205811	4065.860107	2558.985596	41.106758
719.556519	1505.882568	4031.344971	2554.023193	41.502918
719.880737	1508.529053	4001.350830	2549.281738	41.749985
720.204834	1513.270752	3963.527588	2538.254150	41.831673
720.528931	1516.248047	3929.343262	2528.219238	41.936646
720.852966	1519.335693	3900.341797	2520.830811	42.061848
721.176941	1523.305542	3871.340088	2507.708740	41.924561
721.500916	1525.069824	3841.566650	2495.248047	41.881268
721.824829	1525.510986	3815.542480	2488.631592	42.057091
722.148743	1523.967041	3794.039063	2482.015381	42.203434
722.472534	1524.849243	3771.322266	2479.920410	42.514248
722.796326	1528.047241	3750.590820	2468.451904	42.312092
723.119995	1527.716553	3727.654297	2466.356689	42.666668
723.443665	1531.796631	3714.201172	2459.299316	42.499119
723.767334	1531.686279	3707.695801	2453.675293	42.370632
724.090942	1534.774048	3705.820801	2445.294678	41.939243
724.414551	1535.435547	3699.424561	2440.332520	41.816154
724.737976	1536.207520	3699.755615	2434.928955	41.539242
725.061462	1539.405396	3692.477783	2432.723877	41.490410
725.384888	1539.405518	3692.257324	2430.628662	41.397327
725.708252	1540.949341	3693.801270	2434.929199	41.525375
726.031616	1539.736206	3705.379883	2434.377930	41.310665
726.354858	1541.390381	3719.053223	2435.260010	41.047199
726.678162	1537.751343	3719.604980	2434.598389	41.104824
727.001404	1536.317749	3735.263428	2440.884033	41.136360
727.324463	1538.964355	3741.769775	2447.059082	41.224464
727.647583	1536.758911	3746.511230	2450.587891	41.354359
727.970642	1536.648682	3750.922363	2455.329346	41.489029
728.293701	1536.758789	3754.451172	2456.211670	41.459892
728.616699	1534.002075	3762.831543	2456.432129	41.386299
728.939575	1531.465820	3774.961670	2457.204102	41.263203
729.262512	1528.929443	3786.760742	2459.299561	41.206360
729.585266	1530.473267	3800.875732	2468.010742	41.293892
729.908142	1531.796631	3818.629883	2472.973145	41.156326
730.230896	1532.678711	3826.128418	2479.148438	41.268387
730.553467	1533.450562	3835.611572	2482.566895	41.227188
730.876160	1534.773926	3837.927002	2489.183105	41.439243
731.198792	1536.097290	3846.527832	2494.365967	41.475761
731.521362	1536.758911	3854.026855	2498.335693	41.496140
731.843872	1535.656128	3861.084473	2497.233154	41.350536
732.166321	1532.678711	3866.487793	2495.799561	41.268192
732.488770	1532.017212	3865.495117	2495.358398	41.283489
732.811157	1530.032227	3856.783447	2501.533447	41.753548
733.133484	1528.378174	3843.440918	2497.122559	41.845276
733.455811	1530.693848	3832.854248	2494.255615	41.854675
733.778015	1531.576172	3824.032715	2489.072754	41.767273
734.100281	1528.157593	3820.725098	2485.764648	41.770073
734.422424	1527.385742	3806.279053	2484.662109	42.006195
734.744507	1525.511108	3792.605713	2482.015381	42.190750
735.066589	1524.077515	3784.444824	2484.000488	42.467567
735.388611	1525.511108	3774.409912	2479.920166	42.438950
735.710571	1528.598755	3754.340820	2478.707275	42.687267
736.032532	1531.576172	3740.666748	2474.958252	42.704544
736.354431	1531.024780	3725.558838	2469.113770	42.746613
736.676270	1527.165161	3713.097900	2458.196777	42.591965
736.998108	1525.070068	3704.386475	2454.667969	42.655479
737.319824	1523.967407	3695.013428	2456.652832	42.960190
737.641541	1519.225586	3684.647949	2455.109131	43.219444
737.963135	1520.107788	3675.936768	2449.154297	43.094627
738.284790	1520.218018	3657.190430	2451.580566	43.583275
738.606323	1518.894775	3644.950439	2451.690918	43.874493
738.927856	1519.776978	3628.299072	2447.831055	44.014439
739.249390	1520.659180	3611.537598	2444.302490	44.174892
739.570740	1524.518677	3597.863770	2439.009521	44.107021
739.892212	1525.731567	3585.733643	2437.134521	44.242821
740.213562	1527.385620	3582.977051	2434.157471	44.112457
740.534790	1527.054810	3572.390625	2437.796143	44.527718
740.856079	1529.701416	3558.496582	2436.693359	44.705940
741.177246	1532.458130	3555.850098	2433.826172	44.547379
741.498413	1534.222534	3552.652588	2428.202393	44.290852
741.819580	1531.245117	3538.096436	2423.901855	44.480461
742.140625	1531.796509	3528.392578	2422.578369	44.615025
742.461670	1531.796509	3519.239502	2418.498291	44.615208
742.782654	1530.032104	3500.052002	2417.395752	45.043385
743.103577	1527.275146	3486.708984	2419.821777	45.551250
743.424438	1528.488159	3469.396484	2413.205322	45.582634
743.745300	1528.929443	3453.737305	2410.117676	45.780582
744.066101	1529.260132	3436.093750	2403.170654	45.830456
744.386902	1534.442871	3418.780762	2397.767334	45.815800
744.707581	1532.899048	3395.182617	2396.113037	46.352448
745.028198	1531.906616	3382.722168	2384.975342	46.091503
745.348816	1530.693726	3369.268555	2379.572021	46.170452
745.669373	1530.583374	3360.998535	2379.131104	46.358212
745.989929	1529.921753	3352.176758	2375.051270	46.378223
746.310364	1530.804077	3345.119141	2367.883301	46.137478
746.630798	1530.583496	3336.958740	2367.111328	46.309750
746.951172	1528.378052	3327.034180	2365.567627	46.545284
747.271545	1526.393066	3320.858887	2359.833740	46.445057
747.591858	1525.621216	3316.999268	2363.141846	46.752869
747.912109	1525.621216	3315.676025	2359.502686	46.584129
748.232300	1522.533569	3319.976563	2358.730957	46.521496
748.552429	1526.834229	3321.961426	2357.738281	46.286640
748.872559	1528.267822	3316.889160	2351.894043	46.048103
749.192627	1528.488403	3319.645752	2355.753418	46.186062
749.512695	1530.362915	3321.299805	2352.776123	45.920837
749.832642	1533.781494	3316.337891	2349.688477	45.771736
750.152588	1536.538208	3315.455322	2352.004150	45.840580
750.472473	1537.310181	3308.948975	2345.718750	45.630554
750.792358	1538.854126	3300.789551	2344.174805	45.706593
751.112122	1539.515747	3296.157715	2343.733887	45.781563
751.431824	1540.397827	3291.968018	2341.417969	45.731548
751.751587	1542.162109	3293.952393	2345.056885	45.832813
752.071228	1546.021606	3284.909912	2347.262451	46.077763
752.390869	1547.786133	3282.925537	2347.262451	46.075626
752.710327	1550.542847	3281.712402	2345.277344	45.907375
753.029846	1546.793579	3276.198730	2344.726074	46.139130
753.349304	1546.793579	3271.787598	2342.961914	46.154846
753.668762	1546.793579	3271.125732	2344.284912	46.249287
753.988098	1547.786011	3263.627197	2339.653564	46.150398
754.307434	1547.786011	3258.113770	2327.744141	45.602844
754.626770	1548.006470	3243.006348	2326.310547	45.917648
754.946045	1548.557861	3226.465820	2329.618652	46.549679
755.265259	1546.462646	3212.791748	2325.759033	46.767254
755.584351	1544.698242	3212.901855	2327.634033	46.932869
755.903442	1543.816162	3206.836670	2323.553711	46.886826
756.222534	1541.059204	3204.521484	2323.112793	47.013607
756.541565	1536.097046	3203.859863	2319.363525	46.965099
756.860535	1534.553223	3199.559082	2324.766846	47.460110
757.179443	1535.104614	3201.985107	2324.546387	47.360432
757.498291	1532.237549	3200.220703	2321.458496	47.315884
757.817139	1529.260254	3202.977295	2321.458496	47.331673
758.135925	1529.811523	3206.947510	2319.032715	47.057674
758.454651	1529.370483	3203.639160	2316.275879	46.999947
758.773376	1526.944580	3206.837158	2313.849609	46.842579
759.092041	1526.282959	3200.110596	2310.320801	46.841015
759.410645	1522.864502	3200.110596	2312.085205	47.054558
759.729187	1524.628784	3204.411133	2309.438721	46.720928
760.047607	1525.841797	3205.844971	2309.879883	46.668846
760.366089	1527.716431	3206.396240	2313.077637	46.784454
760.684509	1528.047119	3214.887207	2315.724365	46.695431
761.002869	1528.157471	3226.245117	2320.466064	46.658875
761.321228	1526.834229	3258.114258	2326.641113	46.197430
761.639465	1523.415771	3301.450928	2333.588379	45.565613
761.957642	1524.628784	3355.594971	2348.916260	45.019264
762.275879	1524.297974	3392.095215	2365.788086	45.052540
762.593994	1528.047241	3424.294678	2374.719971	44.649906
762.912109	1529.811646	3457.266357	2384.203613	44.327473
763.230103	1533.781494	3481.416016	2393.355957	44.134281
763.548157	1530.914429	3510.197266	2398.649170	43.840866
763.866150	1530.142578	3521.555176	2406.809326	44.022358
764.184021	1533.671265	3534.346680	2416.954590	44.149258
764.501892	1533.561157	3543.609863	2420.152832	44.107971
764.819702	1535.545898	3548.902832	2423.240234	44.090260
765.137451	1534.443115	3551.218262	2427.430664	44.277992
765.455200	1535.215088	3557.062988	2428.202393	44.166889
765.772888	1536.317749	3558.386230	2434.487793	44.418381
766.090515	1535.215088	3556.290527	2432.613037	44.402000
766.408081	1536.758789	3554.195313	2436.583008	44.602356
766.725586	1537.310181	3549.674805	2436.582764	44.687359
767.043091	1536.207397	3542.837891	2434.267090	44.754612
767.360535	1533.671143	3533.905518	2433.164551	44.969402
767.677917	1533.560791	3512.953613	2429.194580	45.247906
767.995239	1531.686157	3482.959473	2421.475342	45.600437
768.312500	1535.104614	3428.705322	2407.912109	46.092480
768.629822	1532.678711	3368.716797	2393.687012	46.894905
768.947021	1531.576050	3315.345703	2371.522217	47.088264
769.264160	1528.378174	3279.175537	2359.723145	47.483791
769.581299	1528.488281	3238.375000	2345.828613	47.800846
769.898376	1523.856812	3201.103027	2333.919189	48.297165
770.215393	1529.260132	3163.059082	2323.994873	48.643364
770.532349	1530.252563	3136.483643	2310.982666	48.606339
770.849304	1527.495850	3109.136230	2298.962891	48.776386
771.166199	1529.590942	3082.450195	2292.346924	49.119453
771.483032	1529.921753	3060.395264	2289.810547	49.650570
771.799866	1530.031982	3043.634033	2282.642822	49.723164
772.116577	1529.590942	3022.461670	2277.349854	50.088657
772.433350	1529.591064	3013.529541	2267.314941	49.713913
772.749939	1528.929443	2994.341797	2265.991455	50.297241
773.066589	1530.583374	2978.242188	2262.241943	50.540817
773.383057	1531.245117	2968.758545	2256.838623	50.475597
773.699646	1533.671021	2958.282959	2246.583252	50.042557
774.016113	1537.089478	2946.924561	2241.951904	49.996090
774.332520	1537.971680	2943.947266	2239.635986	49.905869
774.648804	1539.625610	2932.699463	2239.305176	50.225590
774.965149	1537.751099	2931.486328	2238.753906	50.296700
775.281433	1539.956543	2928.178223	2237.871582	50.274033
775.597656	1539.846313	2922.885010	2240.187256	50.637840
775.913879	1540.838867	2908.549561	2237.430420	50.931206
776.229980	1539.625854	2895.647949	2236.327881	51.378368
776.546082	1542.603149	2887.598145	2234.232666	51.422459
776.862122	1539.515503	2881.974121	2230.373291	51.462128
777.178162	1536.979248	2869.513428	2232.468262	52.192959
777.494141	1540.728516	2869.292725	2227.175537	51.668335
777.809998	1537.971680	2867.638672	2222.654297	51.492790
778.125854	1533.340332	2864.220215	2220.228271	51.611565
778.441711	1534.332642	2860.581299	2218.574219	51.592255
778.757446	1531.796509	2852.420898	2219.345947	52.062450
779.073181	1534.112183	2842.276123	2221.441162	52.541500
779.388855	1534.222412	2846.466309	2221.000488	52.336163
779.704468	1531.465576	2844.040283	2218.133301	52.314564
780.020020	1532.568359	2835.549561	2219.015137	52.682785
780.335571	1528.488403	2833.233887	2217.912598	52.839745
780.651062	1527.385620	2824.853271	2223.757080	53.671585
780.966553	1523.856934	2813.605225	2221.110596	54.061218
781.281860	1524.298096	2804.231934	2218.794922	54.260368
781.597290	1525.511108	2792.984131	2214.494141	54.358791
781.912476	1522.754272	2783.169922	2209.973145	54.523193
782.227722	1523.746704	2773.355713	2205.121338	54.527027
782.542908	1521.651611	2765.857178	2202.254395	54.701794
782.858093	1520.769409	2761.225586	2198.394287	54.627071
783.173218	1522.313232	2755.491455	2196.188965	54.645447
783.488281	1521.982422	2742.258789	2191.667725	54.879807
783.803345	1523.305664	2738.840332	2186.926270	54.594955
784.118225	1517.902100	2726.930908	2187.808350	55.408627
784.433167	1519.335693	2714.801025	2184.389893	55.631409
784.748047	1521.761719	2708.625732	2178.655762	55.347034
785.062866	1518.674072	2699.252441	2173.472900	55.464241
785.377686	1521.210327	2698.039551	2166.415527	54.825729
785.692444	1517.791870	2690.100098	2164.871338	55.197041
786.007141	1519.114990	2681.057861	2162.666260	55.385792
786.321716	1519.666504	2675.654297	2161.122314	55.489841
786.636353	1516.358276	2677.639160	2159.247314	55.360340
786.950928	1516.137695	2676.205566	2162.555908	55.722446
787.265442	1519.115112	2677.087891	2155.829102	54.985229
787.579834	1520.659058	2684.365967	2159.247559	54.875374
787.894226	1519.776978	2687.784424	2159.798828	54.796043
788.208618	1517.681885	2688.776611	2160.901611	54.924652
788.522949	1519.887207	2689.327881	2159.357666	54.681736
788.837219	1519.556396	2690.871582	2160.901855	54.754303
789.151367	1519.887329	2689.438232	2162.004395	54.902874
789.465515	1520.218140	2688.004639	2161.563232	54.919720
789.779602	1521.100220	2684.806641	2160.350342	54.932251
790.093689	1523.967407	2684.475830	2158.586426	54.684566
790.407776	1522.644043	2679.623779	2154.616455	54.622601
790.721741	1523.636475	2679.403076	2156.160156	54.727631
791.035645	1523.415771	2679.072266	2156.821533	54.809174
791.349548	1525.510986	2671.573730	2158.916748	55.267982
791.663391	1529.921875	2665.619141	2161.011719	55.568493
791.977173	1531.134888	2654.701904	2163.989258	56.325466
792.290894	1533.560791	2648.195801	2163.548096	56.519604
792.604614	1532.899170	2638.381592	2158.145020	56.558643
792.918274	1532.127319	2627.244141	2159.137207	57.255070
793.231812	1534.112305	2614.783447	2156.490723	57.591843
793.545410	1535.876587	2603.315186	2153.182373	57.830566
793.858948	1531.796387	2591.957275	2147.668701	58.092346
794.172363	1531.575928	2579.827148	2143.147949	58.342125
794.485840	1531.906738	2572.990234	2142.155518	58.616699
794.799194	1533.009521	2566.925293	2140.060059	58.713734
795.112488	1534.442871	2563.065674	2138.075439	58.683567
795.425781	1536.427856	2558.434326	2133.443848	58.416069
795.738953	1536.538086	2551.928223	2128.702393	58.318893
796.052185	1540.177124	2545.752930	2129.364014	58.591991
796.365234	1536.868896	2541.672852	2127.268555	58.757698
796.678284	1533.671143	2542.995850	2128.261230	58.909695
796.991333	1533.671021	2542.113770	2132.230957	59.354874
797.304382	1533.009521	2535.828369	2130.687012	59.599747
797.617310	1534.553345	2533.402588	2130.687012	59.682045
797.930115	1532.678711	2533.733154	2128.922363	59.561562
798.242981	1527.054810	2533.402588	2125.834717	59.500298
798.555786	1524.849365	2534.505127	2122.636963	59.207069
798.868530	1521.430908	2532.189697	2120.541748	59.273373
799.181213	1523.084961	2532.300293	2121.424072	59.287556
799.493896	1520.879517	2529.984619	2119.880127	59.359585
799.806519	1518.343262	2528.661377	2117.785156	59.331997
800.119080	1519.004883	2524.360596	2117.895508	59.570023
800.431580	1520.989868	2521.603516	2118.336426	59.698021
800.744080	1523.526123	2519.287842	2113.263916	59.224792
801.056458	1525.180298	2511.678955	2105.103516	58.786011
801.368835	1527.716309	2504.952393	2098.707764	58.429222
801.681152	1525.731567	2493.814697	2099.369385	59.255016
801.993408	1522.423218	2482.677002	2098.707764	60.013775
802.305664	1521.982178	2479.148193	2097.494873	60.126736
802.617798	1516.909668	2470.877930	2094.186768	60.513241
802.929993	1518.673950	2462.607422	2091.981445	60.736008
803.242065	1518.012329	2452.241943	2088.342041	61.048130
803.554016	1519.886963	2452.241699	2084.262207	60.532246
803.865967	1521.541138	2451.249512	2083.490234	60.443588
804.177979	1520.438477	2448.823730	2083.269531	60.624729
804.489807	1519.887207	2439.670898	2081.505127	61.059784
804.801697	1522.202881	2436.583252	2083.159180	61.348244
805.113464	1522.974854	2436.031738	2080.623047	61.074860
805.425232	1525.952148	2434.598145	2078.968994	60.861637
805.736938	1523.526123	2427.981689	2074.778564	60.948536
806.048584	1525.400879	2424.673584	2070.478271	60.613136
806.360168	1529.150146	2425.004395	2067.610840	60.105839
806.671753	1527.937134	2423.239990	2063.861572	59.859570
806.983276	1526.172729	2419.160156	2065.625977	60.409950
807.294739	1525.290405	2412.654053	2068.272461	61.190479
807.606140	1521.431030	2407.360840	2069.816406	61.899414
807.917542	1521.541260	2403.611816	2071.911621	62.395275
808.228760	1522.864624	2400.524170	2066.618408	61.954979
808.540100	1523.526245	2402.068115	2062.427979	61.340473
808.851318	1523.967407	2397.877686	2061.104980	61.463699
809.162476	1525.952148	2394.900146	2058.899414	61.332470
809.473633	1524.849487	2395.230957	2054.819336	60.889378
809.784668	1525.731689	2395.010498	2052.173096	60.560707
810.095703	1526.503540	2388.614502	2051.511230	60.897926
810.406738	1527.165161	2381.226074	2046.548950	60.813435
810.717590	1526.282959	2371.742676	2043.461182	61.171242
811.028503	1521.761841	2368.103760	2040.373535	61.276852
811.339294	1521.761841	2361.046387	2035.080688	61.161480
811.650085	1522.423462	2352.776123	2037.506714	62.031868
811.960876	1523.085083	2351.121826	2035.742432	61.912392
812.271545	1523.415894	2351.232178	2037.176147	62.062111
812.582153	1522.202881	2341.197266	2037.837646	62.959499
812.892761	1516.689209	2333.809326	2038.940430	63.913643
813.203308	1519.556396	2328.626221	2037.506714	64.017998
813.513855	1520.218018	2325.428467	2035.301392	63.968788
813.824280	1516.248291	2323.884766	2032.213501	63.885822
814.134705	1519.446045	2318.701904	2027.251343	63.534760
814.445068	1518.233032	2317.819580	2026.920410	63.618801
814.755371	1517.350952	2321.458740	2026.479126	63.315910
815.065613	1516.689209	2320.466064	2027.471680	63.547794
815.375854	1513.932373	2315.172852	2028.023193	64.161865
815.686035	1514.263184	2316.496094	2027.582031	63.986263
815.996155	1515.255737	2312.085205	2032.213745	64.876869
816.306152	1518.674194	2304.807373	2035.521973	65.745575
816.616211	1516.579102	2302.822266	2036.845093	66.171127
816.926208	1518.674316	2306.020508	2035.962769	65.700256
817.236145	1520.659058	2308.997803	2037.175537	65.519608
817.546021	1525.841797	2317.157959	2038.388550	64.771423
817.855774	1526.503540	2324.105225	2040.704224	64.468353
818.165588	1525.400879	2339.763916	2040.483643	63.249771
818.475281	1524.629028	2349.908936	2045.225464	63.081196
818.784973	1525.290527	2366.339600	2052.172607	62.645821
819.094604	1526.062500	2396.885010	2057.686279	61.048466
819.404175	1527.275513	2419.821533	2066.508301	60.415123
819.713684	1526.172729	2456.762939	2079.299805	59.438309
820.023254	1524.298096	2534.284180	2098.707764	56.873028
820.332642	1524.187866	2684.475342	2143.478516	53.373898
820.642090	1523.636475	2922.443848	2226.955078	50.279877
820.951416	1522.974854	3194.376465	2326.862061	48.096592
821.260681	1523.967285	3454.178467	2427.540771	46.812157
821.569946	1525.400879	3665.019775	2508.591309	45.951660
821.879150	1529.150024	3838.809082	2572.659668	45.180244
822.188293	1528.929443	3977.311768	2624.046631	44.728195
822.497437	1528.708862	4100.045410	2665.950195	44.227638
822.806458	1526.613647	4208.553711	2699.583252	43.735863
823.115479	1529.480835	4293.243164	2732.775391	43.538280
823.424438	1529.370483	4370.543945	2760.784668	43.341747
823.733337	1527.165039	4440.566895	2783.831543	43.133991
824.042236	1525.952148	4501.988770	2806.106689	43.015415
824.351013	1526.944458	4551.832031	2823.639893	42.867558
824.659790	1526.944458	4587.119141	2836.210938	42.784042
824.968445	1522.202881	4637.402832	2849.995117	42.623016
825.277100	1523.195313	4701.140625	2865.543457	42.239498
825.585693	1521.871826	4773.699707	2893.001465	42.164890
825.894287	1523.084961	4851.772949	2921.120850	41.999607
826.202820	1521.100098	4899.300781	2940.418701	42.014042
826.511292	1524.959595	4891.250977	2941.741699	42.087326
826.819702	1528.488281	4792.556641	2915.607422	42.496632
827.128113	1529.260376	4605.093750	2851.097656	42.974930
827.436401	1532.678711	4370.654297	2763.431396	43.367275
827.744751	1533.230103	4138.199707	2675.874756	43.864029
828.052917	1533.340210	3952.059082	2606.623535	44.374043
828.361145	1528.819092	3805.065918	2547.627686	44.758266
828.669312	1527.054688	3683.545410	2500.872314	45.157516
828.977356	1525.400635	3573.272705	2462.497559	45.759544
829.285400	1525.841675	3477.335938	2432.503174	46.459858
829.593384	1523.856812	3398.711426	2402.839844	46.882729
829.901306	1522.312988	3322.182373	2374.720215	47.359394
830.209167	1524.849243	3253.482178	2351.122070	47.799206
830.517029	1525.731323	3192.501465	2331.162842	48.322891
830.824829	1524.518311	3135.821533	2312.747070	48.918709
831.132568	1527.606079	3096.564453	2299.514404	49.198776
831.440247	1530.252563	3047.713623	2282.091064	49.545818
831.747925	1528.157471	2990.372070	2267.865967	50.588230
832.055481	1528.488159	2934.133301	2243.716309	50.882553
832.363037	1530.693604	2880.430176	2219.235596	51.013065
832.670532	1532.678589	2841.614502	2204.679688	51.339497
832.977966	1532.568359	2810.517578	2198.945801	52.144283
833.285400	1533.009521	2791.440674	2192.660400	52.418510
833.592712	1533.009399	2771.150391	2188.249268	52.921265
833.900085	1531.355347	2757.917725	2182.735596	53.106167
834.207275	1529.811523	2743.692627	2180.640625	53.615555
834.514526	1529.811523	2728.254395	2176.450439	53.956593
834.821716	1531.465576	2712.705811	2174.906494	54.471638
835.128784	1532.678711	2701.347900	2174.795898	54.944305
835.435852	1535.986816	2698.260254	2172.700928	54.781784
835.742798	1532.568359	2687.894531	2167.958984	54.996643
836.049805	1535.545776	2679.734131	2164.099609	54.934471
836.356750	1536.207520	2666.501465	2163.768799	55.521954
836.663574	1530.031982	2653.048096	2159.909180	56.087994
836.970398	1527.495850	2640.036133	2155.277588	56.427776
837.277161	1529.039673	2629.339355	2152.079834	56.624588
837.583923	1527.385498	2611.916504	2146.896973	57.122524
837.890564	1527.937012	2592.287842	2142.706543	57.760048
838.197205	1528.267822	2561.301270	2132.120605	58.454330
838.503784	1532.237671	2521.272217	2123.629395	59.794849
838.810303	1530.693970	2469.223633	2109.845703	61.708408
839.116699	1530.252808	2421.255127	2092.422607	63.094090
839.423096	1531.024658	2384.203613	2073.345215	63.564690
839.729492	1529.591064	2343.182373	2061.876953	65.424232
840.035828	1528.929443	2307.123535	2047.541626	66.643036
840.342102	1526.723999	2272.056641	2038.278442	68.634384
840.648315	1525.952148	2245.150391	2026.589600	69.610497
840.954529	1526.613892	2223.205811	2017.106079	70.413132
841.260620	1527.606201	2202.033203	2006.189209	70.961426
841.566711	1527.385620	2181.963867	2001.888428	72.489853
841.872803	1526.944458	2162.004395	2001.668213	74.752594
842.178772	1525.731445	2151.308105	1996.926392	75.321693
842.484680	1522.974609	2137.193115	1989.979370	76.032349
842.790588	1521.872070	2127.158203	1985.127441	76.534935
843.096436	1525.841675	2118.667236	1982.039673	76.953156
843.402222	1526.944458	2110.837891	1976.746460	77.034950
843.707947	1523.415771	2102.346924	1971.453491	77.390503
844.013611	1522.423218	2091.429932	1973.217651	79.224800
844.319275	1526.172485	2078.527832	1974.209961	81.113991
844.624817	1527.936890	2068.162598	1968.034912	81.465584
844.930359	1527.826538	2049.857422	1962.410889	83.248779
845.235901	1526.613647	2036.955566	1955.132813	83.967072
845.541321	1525.841797	2020.855713	1947.854858	85.252769
845.846680	1525.510864	2005.638062	1944.656860	87.298950
846.152039	1528.047119	1993.287598	1939.143188	88.362061
846.457275	1528.378052	1981.929443	1935.835205	89.837044
846.762512	1530.032104	1968.806885	1930.872925	91.354568
847.067749	1533.891602	1959.543945	1925.028687	91.891212
847.372925	1534.332764	1948.736938	1922.271729	93.613670
847.677979	1535.325317	1941.789795	1921.279175	94.953896
847.983032	1537.861572	1936.937866	1914.773071	94.445976
848.288025	1535.656006	1930.211548	1908.597900	94.522026
848.592957	1541.390259	1925.138916	1904.848633	94.712608
848.897888	1539.956665	1923.926025	1903.745850	94.744324
849.202759	1540.618286	1920.617798	1903.304688	95.443909
849.507507	1541.831299	1917.199463	1899.004150	95.152672
849.812317	1539.295044	1913.560303	1898.893799	96.081253
850.117004	1541.169678	1907.936401	1904.848633	99.158112
850.421631	1541.941650	1902.863892	1895.806396	98.044594
850.726257	1541.390137	1901.540527	1890.844116	97.030014
851.030823	1540.397827	1898.673584	1889.190063	97.353012
851.335327	1539.736084	1893.821411	1886.984741	98.069206
851.639771	1540.177246	1885.881836	1883.786621	99.393929
851.944153	1540.177124	1881.470825	1884.779175	100.969353
852.248535	1538.964233	1874.854492	1880.258057	101.608727
852.552856	1535.325317	1873.641602	1877.832031	101.238609
852.857056	1534.663696	1873.089844	1879.045044	101.759674
853.161255	1537.861572	1875.515991	1879.045044	101.045166
853.465393	1536.317749	1874.192505	1881.250610	102.088974
853.769531	1532.568359	1873.310669	1876.949829	101.068008
854.073547	1527.165039	1870.884644	1871.987671	100.320908
854.377563	1524.408203	1868.458496	1873.090454	101.346306
854.681580	1520.548828	1865.150269	1867.135620	100.576126
854.985474	1517.681519	1855.446411	1868.899902	103.983093
855.289307	1517.571289	1853.020264	1868.569214	104.635269
855.593140	1517.791870	1852.910156	1869.671875	105.001732
855.896851	1516.137817	1852.469116	1871.105469	105.541069
856.200623	1517.902100	1850.153687	1869.230713	105.741745
856.504272	1518.453613	1852.800049	1863.165771	103.100296
856.807922	1515.917358	1854.454102	1867.135376	103.745911
857.111389	1513.711914	1852.579468	1867.686890	104.458206
857.414978	1516.248169	1844.419312	1869.120483	107.526917
857.718445	1516.358398	1844.419434	1866.914795	106.857063
858.021790	1517.350952	1843.978394	1868.679321	107.562416
858.325195	1517.681763	1841.993530	1867.686523	107.922310
858.628479	1515.917358	1841.000977	1867.355835	108.107101
858.931763	1516.468750	1837.141357	1868.017700	109.628616
859.234985	1515.476318	1831.297119	1866.473755	111.138161
859.538147	1512.609131	1827.547607	1867.245850	112.605080
859.841248	1511.065308	1827.988647	1866.473999	112.143425
860.144287	1514.924927	1826.996094	1869.671875	113.675018
860.447266	1520.989990	1828.098755	1871.987549	114.290962
860.750305	1525.180298	1825.121460	1869.230835	114.706009
861.053223	1529.150146	1825.011353	1871.987671	115.877823
861.356018	1530.804199	1831.076294	1871.215576	113.367638
861.658813	1531.245239	1826.555054	1872.097656	115.421974
861.961609	1528.378296	1823.247070	1871.766724	116.454659
862.264343	1529.370605	1821.813599	1869.671631	116.364906
862.567017	1529.701416	1819.718384	1870.333374	117.452423
862.869629	1529.480957	1819.608032	1870.553955	117.559868
863.172180	1532.017212	1819.497803	1867.466309	116.685822
863.474670	1527.385742	1816.961304	1866.473999	117.098366
863.777161	1522.643921	1821.151733	1861.952759	113.668327
864.079590	1521.541138	1821.151733	1861.401245	113.433945
864.381958	1521.982300	1821.703369	1860.078125	112.803490
864.684265	1520.107666	1823.688110	1861.622070	112.495522
864.986511	1518.784302	1824.680420	1865.481445	113.338196
865.288757	1520.217896	1824.901001	1864.488892	112.993134
865.590942	1520.438477	1827.106445	1862.724487	111.614532
865.893066	1519.556396	1829.532593	1859.747070	109.747353
866.195068	1517.791992	1828.429932	1860.629272	110.365555
866.497131	1518.894775	1829.311890	1860.077881	109.911179
866.799133	1514.263062	1824.459961	1858.754639	111.055779
867.100952	1509.852295	1821.703125	1859.747192	112.199448
867.402832	1512.939819	1822.364746	1859.636963	112.045639
867.704651	1513.491211	1821.372192	1861.621826	113.073112
868.006409	1515.696533	1822.364624	1860.739746	112.513565
868.308105	1519.335571	1826.775635	1857.651978	110.043045
868.609802	1517.681519	1830.524902	1858.423950	108.917892
868.911438	1515.696655	1832.620361	1860.739624	108.872566
869.213013	1517.571411	1829.863281	1862.504150	110.452042
869.514465	1518.343384	1829.311768	1863.055298	110.851112
869.815979	1522.423340	1833.281616	1861.621826	109.116760
870.117371	1526.834351	1834.825562	1865.040161	109.810211
870.418701	1529.370605	1835.487183	1865.701782	109.870293
870.720093	1530.914429	1839.015991	1868.568970	109.591957
871.021301	1533.671265	1839.787964	1865.150513	108.285255
871.322571	1535.656128	1838.133911	1865.371094	109.004692
871.623718	1534.553467	1840.339233	1866.915039	108.690987
871.924805	1534.222656	1845.191406	1866.694336	106.914818
872.225891	1536.207397	1847.837769	1873.531006	108.244781
872.526917	1541.279907	1846.845459	1872.428223	108.372269
872.827881	1541.831299	1848.389282	1867.466187	106.222939
873.128784	1544.808594	1851.476807	1867.025146	105.070084
873.429626	1546.462646	1858.203491	1869.782227	103.714218
873.730408	1542.603149	1858.313599	1870.112915	103.737389
874.031189	1541.279907	1857.651978	1865.260986	102.405083
874.331848	1539.956543	1858.534180	1866.584229	102.526871
874.632568	1537.530640	1857.431396	1868.899902	103.585022
874.933167	1537.640869	1854.123169	1870.664307	105.226563
875.233704	1539.956665	1853.130737	1867.576660	104.612747
875.534241	1538.082031	1853.902710	1865.481445	103.666237
875.834717	1537.751221	1853.351318	1863.165894	103.109818
876.135071	1536.427979	1851.256104	1863.386108	103.852898
876.435425	1533.450684	1851.035767	1868.238281	105.416664
876.735779	1531.355469	1852.579468	1867.025146	104.497070
877.036011	1528.488403	1853.240845	1866.142822	103.972862
877.336182	1526.172729	1851.586914	1870.553589	105.828468
877.636353	1526.944580	1856.659424	1868.568848	103.612038
877.936462	1525.841797	1863.276001	1867.355835	101.209076
878.236511	1527.937012	1868.348633	1871.436035	100.906960
878.536560	1527.165161	1875.295776	1871.325684	98.859596
878.836487	1523.415771	1889.961914	1879.375977	97.111977
879.136414	1521.431030	1918.963745	1898.342773	94.812759
879.436279	1522.313232	1970.460938	1920.507568	88.853371
879.736084	1522.313110	2053.055176	1950.832397	80.739647
880.035828	1522.864502	2156.711426	1987.553223	73.312454
880.335510	1523.967285	2274.923584	2033.978027	67.914833
880.635193	1523.305664	2391.922607	2073.676025	63.361687
880.934753	1524.518555	2499.879639	2111.279053	60.158283
881.234314	1524.959717	2592.508545	2142.927246	57.886581
881.533752	1523.415771	2675.213135	2174.685547	56.543781
881.833252	1523.085083	2748.654541	2200.599609	55.281609
882.132629	1521.320679	2812.833252	2229.711670	54.849716
882.431946	1519.776855	2872.160156	2249.891602	53.987263
882.731323	1522.864502	2918.805176	2266.211914	53.250645
883.030579	1526.613647	2956.518555	2287.825439	53.235134
883.329712	1526.723877	2991.364746	2298.190918	52.672779
883.628845	1526.282837	3021.027832	2304.917725	52.091488
883.927979	1529.480713	3040.325439	2316.606689	52.098404
884.226990	1530.693604	3058.410156	2322.892090	51.855068
884.526001	1530.803833	3066.460205	2329.729004	52.024998
884.824951	1530.142212	3073.297119	2329.839111	51.822205
885.123840	1530.473145	3074.620361	2326.200195	51.531811
885.422729	1530.473145	3053.227539	2316.496094	51.618500
885.721497	1530.914307	3009.008301	2300.837158	52.088898
886.020203	1532.899292	2928.619141	2268.086426	52.674404
886.318909	1532.678711	2828.602051	2230.704102	53.863171
886.617554	1529.149902	2714.249512	2188.028564	55.596901
886.916138	1528.047241	2597.140137	2150.425781	58.215572
887.214661	1524.408203	2491.829590	2114.807617	61.028152
887.513184	1524.518677	2402.067871	2084.593018	63.822559
887.811523	1527.495850	2321.127686	2054.488770	66.402695
888.109924	1514.483765	2151.307861	1956.787109	69.454552
888.408264	1528.378052	2035.521729	1972.997192	87.671242
888.706543	1546.903931	1977.628662	1928.998413	88.709671
889.004761	1565.429688	1931.314087	1864.158081	81.645569
889.302979	1509.852295	1919.735474	1880.368164	90.395477
889.601135	1470.484985	1905.841187	1884.999634	95.212761
889.899170	1489.010742	1859.526611	1928.998413	118.750023
890.197205	1468.169312	1882.683960	1933.629883	112.290497
890.495178	1528.378052	1875.736694	1912.788330	110.666679
890.793091	1560.798218	1901.209717	1871.105347	91.156479
>>>>>End Processed Spectral Data<<<<<
