Jaz Data File
++++++++++++++++++++++++++++++++++++
Date: Fri Jun 21 02:23:39 2019
User: jaz
Dark Spectrum Present: Yes
Reference Spectrum Present: Yes
Processed Spectrum Present: Yes
Spectrometers: JAZA3541
Integration Time (usec): 119000 (JAZA3541)
Spectra Averaged: 1 (JAZA3541)
Boxcar Smoothing: 10 (JAZA3541)
Correct for Electrical Dark: No (JAZA3541)
Strobe/Lamp Enabled: Yes (JAZA3541)
Correct for Detector Non-linearity: No (JAZA3541)
Correct for Stray Light: No (JAZA3541)
Number of Pixels in Processed Spectrum: 2048
>>>>>Begin Processed Spectral Data<<<<<
W	D	R	S	P
190.543274	0.000000	0.000000	0.000000	0.000000
190.921555	0.000000	0.000000	0.000000	0.000000
191.299805	1558.482544	1405.644653	1590.902588	-21.212046
191.678024	1533.009521	1440.380615	1583.955444	-55.000027
192.056229	1539.956665	1535.325317	1551.535278	-250.005264
192.434387	1519.115234	1551.535278	1632.585693	350.000946
192.812531	1604.796997	1597.849854	1690.478760	-1233.338013
193.190659	1556.166748	1542.272461	1611.744141	-400.001770
193.568741	1623.322754	1530.693848	1558.482544	69.999977
193.946793	0.000000	0.000000	0.000000	0.000000
194.324829	1410.165894	1403.770142	1465.743164	-868.971619
194.702835	1483.938232	1477.322021	1544.146973	-910.018433
195.080811	1555.725708	1551.645752	1623.102173	-1651.401733
195.458755	1552.307251	1560.467407	1627.402954	920.272888
195.836685	1553.520386	1565.540039	1627.182251	612.845154
196.214569	1554.953857	1568.627808	1628.726196	539.510071
196.592422	1551.425171	1571.164063	1628.946655	392.734741
196.970261	1549.219727	1570.833130	1628.726196	367.857239
197.348068	1548.999146	1571.274170	1632.585693	375.247833
197.725861	1545.690796	1573.810425	1637.106934	325.097229
198.103622	1539.625854	1573.589844	1637.658325	288.636505
198.481323	1540.287598	1569.399536	1634.570679	323.863983
198.859039	1539.846436	1568.958374	1633.909058	323.106689
199.236694	1536.758789	1568.296631	1634.460327	309.791443
199.614334	1539.295166	1566.201660	1638.540405	368.852356
199.991959	1540.728760	1571.604858	1638.981445	318.216003
200.369553	1537.751465	1570.502075	1637.547974	304.716492
200.747101	1536.759033	1571.935669	1634.239624	277.117432
201.124619	1535.215210	1570.502197	1636.665771	287.501343
201.502136	1531.796631	1571.274048	1639.422485	272.626373
201.879623	1529.922119	1568.517334	1637.327393	278.286499
202.257065	1525.621216	1569.730225	1634.901367	247.750183
202.634476	1525.621216	1573.589600	1632.806152	223.449127
203.011871	1524.187744	1573.258911	1630.710938	217.078995
203.389221	1524.408203	1571.715088	1629.056885	221.212372
203.766571	1523.415649	1570.722656	1631.703491	228.904449
204.143875	1523.305542	1567.635010	1634.019165	249.751755
204.521164	1526.613770	1564.878296	1631.262329	273.487152
204.898392	1524.408203	1563.444702	1628.395264	266.384186
205.275620	1523.856812	1563.665405	1624.204956	252.076584
205.652817	1524.297852	1562.783081	1622.991943	256.446686
206.029984	1529.370483	1566.422241	1623.653687	254.463516
206.407135	1528.378052	1568.848267	1624.315308	237.056458
206.784225	1530.473389	1569.950928	1622.771606	233.799316
207.161301	1530.252808	1570.281616	1622.220093	229.752747
207.538376	1528.929443	1571.274170	1617.919434	210.156021
207.915405	1529.260376	1568.517456	1619.683838	230.336700
208.292404	1529.480835	1568.737671	1622.220093	236.237213
208.669373	1525.952148	1570.833008	1619.353027	208.108490
209.046310	1524.628784	1571.053589	1616.927124	198.812561
209.423218	1528.267822	1569.509644	1617.478394	216.310944
209.800095	1530.032227	1570.612549	1617.478394	215.489090
210.176956	1530.032227	1570.833130	1619.353027	218.918686
210.553787	1531.686279	1566.201660	1620.676392	257.827423
210.930603	1535.435425	1566.091553	1622.881714	285.248962
211.307358	1536.648438	1565.760620	1622.109741	293.558563
211.684113	1538.412842	1570.391968	1622.550781	263.102692
212.060837	1534.773804	1573.920776	1620.896729	219.998947
212.437531	1533.340210	1574.802856	1621.007080	211.435776
212.814178	1532.458130	1578.772705	1620.786499	190.713974
213.190826	1532.788940	1580.426758	1623.874268	191.203827
213.567413	1530.914307	1580.095947	1622.550781	186.322525
213.943985	1528.267822	1576.015869	1624.645996	201.847366
214.320541	1528.488281	1577.669800	1625.087036	196.412720
214.697052	1527.716431	1577.228760	1624.315308	195.100647
215.073563	1529.591064	1581.198486	1628.064575	190.812698
215.449997	1529.921875	1582.852661	1629.498169	188.125473
215.826431	1528.708862	1588.586670	1626.851563	163.904968
216.202850	1529.370483	1590.792236	1625.087036	155.834946
216.579224	1533.119751	1588.807495	1628.174683	170.692734
216.955582	1533.560791	1588.586914	1627.954102	171.542725
217.331894	1531.135010	1586.932861	1626.189941	170.355896
217.708191	1532.017090	1588.035400	1626.079590	167.913849
218.084442	1537.420532	1591.674438	1624.866577	161.179260
218.460678	1534.443115	1598.180420	1624.315308	141.004074
218.836899	1532.678711	1603.694214	1622.991943	127.173965
219.213074	1532.127563	1606.892090	1619.573608	116.961945
219.589233	1531.024658	1605.348389	1620.345459	120.178040
219.965347	1533.891846	1609.869385	1623.432983	117.852119
220.341431	1535.987061	1615.713867	1625.528320	112.310104
220.717499	1535.435669	1614.721558	1621.889282	109.040352
221.093552	1534.002075	1619.242554	1618.691406	99.353424
221.469543	1535.104858	1625.197510	1621.007080	95.348755
221.845535	1536.207642	1630.380249	1621.337769	90.397972
222.221466	1537.310303	1634.350098	1620.565796	85.795204
222.597397	1535.435547	1642.069214	1622.330200	81.488945
222.973297	1537.420532	1647.362183	1622.109741	77.031052
223.349167	1536.979492	1655.853271	1626.630737	75.417175
223.725006	1537.530640	1662.359375	1629.056763	73.321358
224.100800	1538.082153	1671.952881	1631.923950	70.098816
224.476578	1538.854004	1682.097900	1636.004150	67.821487
224.852325	1537.971680	1701.726563	1639.091675	61.750828
225.228058	1541.279907	1724.332397	1640.084106	53.975883
225.603760	1540.838867	1750.246460	1641.628174	48.130684
225.979416	1536.317749	1779.248169	1648.575195	46.209713
226.355057	1535.325195	1813.322388	1652.324585	42.086536
226.730652	1533.671143	1852.028076	1655.853271	38.378975
227.106232	1534.773926	1886.543335	1665.777710	37.241379
227.481796	1531.575928	1920.286865	1670.298950	35.687965
227.857315	1528.378052	1946.972900	1671.732544	34.246597
228.232788	1528.819214	1971.673950	1677.907715	33.665329
228.608246	1531.465698	1999.903687	1685.406494	32.862576
228.983704	1534.112305	2022.950684	1689.265869	31.739235
229.359100	1531.575928	2040.263428	1694.228027	31.974857
229.734482	1528.378052	2061.546143	1697.977295	31.809713
230.109833	1529.039795	2075.881592	1701.175171	31.478094
230.485153	1528.488403	2087.349609	1704.152710	31.432547
230.860443	1521.541260	2101.575195	1704.152588	31.482870
231.235703	1520.879517	2121.534668	1703.270264	30.365301
231.610931	1519.225464	2137.523926	1704.593506	29.980350
231.986145	1517.240479	2152.079834	1705.144897	29.598736
232.361313	1516.468506	2165.532959	1704.593750	28.984062
232.736465	1519.115112	2169.833984	1707.460938	28.944269
233.111572	1517.571289	2172.921387	1712.202759	29.698854
233.486664	1518.894653	2171.708252	1714.187744	29.915598
233.861725	1517.350586	2169.944092	1713.856812	30.111582
234.236755	1520.107422	2156.931885	1715.510620	30.683996
234.611771	1522.313110	2138.516357	1714.407959	31.173943
234.986740	1523.415771	2132.671875	1709.114746	30.479626
235.361679	1526.062256	2128.922607	1705.586182	29.778692
235.736588	1526.393188	2124.952881	1707.460571	30.250513
236.111496	1527.936890	2122.196045	1708.232544	30.339567
236.486343	1528.819092	2122.857666	1710.658691	30.610739
236.861160	1527.716309	2128.371582	1715.069336	31.191441
237.235962	1529.370483	2138.626465	1716.392822	30.696840
237.610733	1532.016968	2152.962158	1717.716309	29.905914
237.985474	1532.016968	2177.111572	1722.458008	29.521412
238.360199	1533.009521	2207.988037	1731.279785	29.374308
238.734879	1534.994385	2240.628662	1739.770630	29.020166
239.109543	1532.347900	2281.539551	1752.562256	29.393595
239.484177	1533.450562	2334.360352	1762.707397	28.624552
239.858749	1535.325195	2397.105469	1777.814941	28.138233
240.233322	1530.804199	2464.923096	1790.275635	27.777132
240.607864	1528.709106	2528.660889	1801.964233	27.326830
240.982391	1529.370728	2583.025391	1810.234741	26.656174
241.356857	1527.826904	2627.685547	1817.182129	26.308401
241.731308	1533.340454	2665.288574	1818.946411	25.231365
242.105728	1529.150024	2699.583252	1822.916260	25.098932
242.480118	1528.708984	2736.414307	1829.642700	24.917810
242.854492	1529.480957	2770.378418	1841.331421	25.131042
243.228836	1527.606323	2818.898193	1856.549072	25.473927
243.603134	1531.245361	2883.187256	1867.797119	24.893951
243.977402	1529.150146	2971.956787	1883.455933	24.556705
244.351654	1526.724121	3079.692871	1903.415161	24.256189
244.725861	1527.495972	3195.809814	1926.020874	23.887886
245.100067	1529.260376	3309.391113	1947.744385	23.508612
245.474213	1530.693970	3406.872070	1963.513428	23.069210
245.848343	1529.150146	3476.453857	1977.518066	23.025064
246.222443	1528.378174	3532.362061	1986.781006	22.874577
246.596512	1530.252808	3565.884766	1997.477661	22.952324
246.970566	1530.804077	3581.543457	1996.154419	22.691833
247.344574	1531.134888	3573.714355	1993.728271	22.647511
247.718567	1528.157471	3552.431641	1987.001831	22.667105
248.092529	1533.561035	3529.936035	1981.708740	22.448072
248.466431	1533.891724	3510.307617	1979.062134	22.524126
248.840332	1534.002197	3506.668945	1977.077393	22.460722
249.214203	1533.891846	3516.923828	1984.355225	22.715891
249.588043	1529.811768	3538.868408	1989.979004	22.904642
249.961838	1525.952148	3566.656982	1996.485107	23.057375
250.335617	1524.629028	3592.460938	2001.006104	23.037514
250.709381	1522.423584	3603.377930	2004.314209	23.157194
251.083084	1521.320801	3591.468262	1998.800537	23.065010
251.456787	1521.982422	3561.474365	1994.720459	23.179207
251.830460	1521.762085	3509.425293	1984.244751	23.267658
252.204071	1522.203125	3429.367188	1971.012085	23.532793
252.577667	1521.761963	3337.069092	1955.353394	23.885294
252.951248	1521.541260	3250.725830	1941.128296	24.265022
253.324799	1517.020142	3177.835449	1929.219116	24.819073
253.698303	1516.248169	3130.969482	1918.853394	24.933418
254.071793	1518.233032	3092.374268	1912.237183	25.029783
254.445236	1520.769287	3078.479736	1906.613037	24.769928
254.818665	1521.541260	3072.855957	1906.061768	24.786751
255.192062	1521.320801	3089.396729	1911.134277	24.859350
255.565430	1525.511108	3120.272949	1918.743164	24.657730
255.938782	1522.092651	3155.891113	1926.572510	24.757023
256.312103	1523.636475	3214.445801	1934.071045	24.274445
256.685364	1522.202881	3288.438721	1946.752441	24.036968
257.058594	1520.107666	3374.341064	1964.175537	23.948866
257.431793	1523.195435	3472.593750	1983.803955	23.628241
257.804993	1527.716431	3583.969238	2001.999023	23.065382
258.178162	1529.150024	3682.222412	2017.326782	22.673496
258.551270	1530.032227	3768.455322	2027.692383	22.232622
258.924377	1529.370483	3840.132080	2037.506470	21.989977
259.297485	1525.290405	3899.569580	2044.343384	21.861496
259.670502	1529.149780	3942.906982	2051.621338	21.645571
260.043518	1533.891602	3992.750732	2054.488525	21.172297
260.416473	1530.362793	4040.167725	2058.348145	21.036907
260.789459	1527.606079	4078.542725	2064.082275	21.030558
261.162354	1530.803955	4110.521484	2070.919189	20.936991
261.535278	1529.149902	4134.229980	2076.433105	21.008307
261.908142	1529.370483	4159.372070	2076.984619	20.821819
262.280975	1526.613647	4174.479004	2077.645996	20.810438
262.653717	1530.583374	4190.909668	2079.851318	20.646639
263.026520	1530.914307	4200.062012	2076.984375	20.458593
263.399261	1525.952148	4207.781250	2076.653564	20.534546
263.771973	1526.834351	4219.911133	2078.417725	20.481533
264.144653	1523.084961	4213.735840	2077.756104	20.614758
264.517334	1525.290405	4186.388184	2075.991699	20.694517
264.889954	1525.952148	4137.316406	2064.523438	20.624134
265.262543	1526.393188	4074.020508	2051.069824	20.594715
265.635071	1529.480835	3996.830078	2037.616577	20.594400
266.007599	1528.047363	3930.997070	2031.772339	20.962776
266.380127	1524.408325	3887.770752	2023.171143	21.103951
266.752594	1526.503418	3869.796143	2017.988281	20.974113
267.125031	1525.952148	3869.355225	2017.988525	20.996660
267.497437	1520.879517	3888.873535	2022.289063	21.174442
267.869843	1518.674072	3911.148438	2030.118286	21.377207
268.242218	1521.430908	3946.104980	2034.859741	21.175169
268.614532	1521.872070	4017.010498	2044.674316	20.952835
268.986816	1519.004883	4098.060547	2060.001953	20.976557
269.359100	1521.871948	4188.152832	2074.888672	20.741129
269.731354	1522.092407	4275.819824	2091.209229	20.667143
270.103516	1523.084961	4346.615234	2104.110840	20.577993
270.475708	1518.784424	4407.816406	2111.389160	20.512224
270.847839	1522.092529	4464.496094	2120.321289	20.331295
271.219971	1526.944702	4510.920898	2129.143066	20.181072
271.592041	1529.921875	4535.180664	2133.774658	20.093204
271.964081	1532.237671	4553.485840	2138.516357	20.067160
272.336151	1532.237671	4574.547852	2135.759521	19.837618
272.708130	1531.686279	4593.956055	2131.900146	19.600294
273.080109	1530.804077	4614.908203	2134.987793	19.590252
273.452026	1530.252686	4644.680664	2136.641846	19.470322
273.823914	1533.560913	4678.535156	2137.634277	19.207579
274.195770	1535.435425	4714.483887	2148.220459	19.275738
274.567627	1536.979126	4748.447754	2158.255371	19.345549
274.939423	1537.420288	4784.065918	2162.004639	19.237837
275.311249	1538.853882	4807.002441	2158.255127	18.952665
275.682983	1536.979370	4827.954590	2156.490967	18.824560
276.054688	1534.443115	4832.806641	2158.696045	18.926142
276.426422	1536.648560	4815.052734	2154.064941	18.832832
276.798065	1537.530640	4785.389648	2144.691650	18.694193
277.169708	1537.199951	4757.159668	2138.185547	18.664383
277.541321	1539.515625	4739.075195	2134.767090	18.604168
277.912903	1539.074585	4743.375977	2133.223145	18.542219
278.284424	1539.736206	4756.277344	2137.302979	18.577930
278.655945	1535.656250	4777.670410	2141.493408	18.687061
279.027435	1538.523315	4811.523926	2146.676270	18.580900
279.398865	1537.971924	4872.173828	2156.160156	18.540815
279.770294	1538.412964	4936.683105	2163.989502	18.408676
280.141663	1538.082275	4996.009766	2176.891602	18.473763
280.513031	1541.500610	5055.887695	2192.550049	18.525263
280.884369	1538.523193	5092.829102	2203.356689	18.705017
281.255676	1540.177368	5132.637207	2211.406738	18.684395
281.626953	1538.412964	5166.601074	2217.030273	18.704029
281.998199	1539.736206	5202.770996	2218.905029	18.541151
282.369385	1540.508057	5250.519043	2223.426270	18.407444
282.740540	1542.603271	5308.743164	2235.115234	18.387844
283.111694	1540.397827	5362.334961	2247.135010	18.491596
283.482819	1541.059326	5430.263184	2265.109619	18.616928
283.853912	1542.382813	5511.203613	2277.018799	18.510183
284.224945	1538.743774	5583.652832	2285.950928	18.472780
284.595978	1542.272461	5653.455566	2301.389404	18.464684
284.966980	1541.941650	5715.318359	2313.519043	18.488083
285.337952	1537.861450	5756.670410	2313.629395	18.388315
285.708893	1539.405273	5777.953613	2316.385986	18.331293
286.079803	1540.949097	5798.574219	2321.238037	18.326859
286.450684	1543.154785	5811.917480	2324.876953	18.312616
286.821533	1537.861572	5818.423340	2327.412842	18.445040
287.192322	1536.097412	5819.305176	2330.169922	18.539200
287.563110	1538.082275	5831.985840	2334.580811	18.549522
287.933868	1538.854126	5849.850098	2342.299805	18.637123
288.304596	1538.523315	5884.034668	2351.673096	18.712408
288.675262	1538.743896	5930.018555	2360.825684	18.720802
289.045929	1537.641113	5962.328613	2370.970703	18.833637
289.416565	1536.869141	5990.999023	2379.020752	18.907207
289.787170	1538.302734	5998.938477	2386.408936	19.013124
290.157745	1535.545898	6001.916016	2392.363770	19.183764
290.528259	1536.317749	5993.204102	2395.230957	19.271599
290.898773	1539.736084	6004.672852	2402.619141	19.325764
291.269226	1537.751221	6002.908691	2401.516113	19.344557
291.639679	1538.192261	5995.741211	2403.390869	19.409739
292.010101	1540.397827	6016.803223	2409.455811	19.414194
292.380463	1537.199829	6050.877441	2416.182373	19.473755
292.750824	1539.625854	6085.503418	2422.578369	19.423149
293.121155	1537.640869	6131.597168	2443.199463	19.711956
293.491455	1534.884155	6201.399414	2455.108887	19.719742
293.861725	1532.458130	6279.141602	2472.642090	19.807177
294.231964	1532.458130	6366.808594	2493.594238	19.881390
294.602142	1535.766235	6463.296875	2513.994385	19.852299
294.972321	1533.009399	6543.686035	2527.888916	19.855192
295.342468	1527.716309	6605.217773	2542.996094	19.995657
295.712555	1525.731445	6647.011230	2547.627686	19.953924
296.082672	1529.370483	6671.602051	2546.966064	19.788988
296.452728	1529.811523	6675.351074	2549.171387	19.810553
296.822693	1528.378052	6675.020020	2553.361572	19.915579
297.192657	1527.495850	6668.844727	2553.141113	19.948954
297.562622	1525.510986	6691.009766	2554.905273	19.928265
297.932556	1531.355469	6707.330566	2558.985596	19.853846
298.302460	1530.693848	6710.307129	2560.750000	19.886738
298.672333	1529.260376	6708.653320	2561.080811	19.921648
299.042145	1529.260376	6706.778809	2561.411865	19.935255
299.411957	1527.716553	6705.897461	2562.734863	19.988070
299.781677	1527.716553	6663.441406	2561.963135	20.138279
300.151428	1527.496094	6619.552734	2550.825439	20.096582
300.521149	1524.629028	6556.917969	2541.342529	20.203798
300.890839	1525.842041	6491.747559	2525.904053	20.138563
301.260468	1526.503662	6415.769531	2517.964355	20.278315
301.630096	1525.621338	6328.434570	2500.982422	20.308119
301.999695	1525.290527	6236.907715	2488.521729	20.443748
302.369232	1523.526245	6126.966309	2468.121338	20.519331
302.738739	1525.952148	6024.302246	2449.815918	20.537836
303.108246	1529.922119	5926.270020	2433.826660	20.560352
303.477692	1530.363159	5852.166504	2423.681396	20.670034
303.847137	1526.724121	5775.858398	2414.197754	20.885986
304.216553	1530.363037	5724.691406	2404.383301	20.838146
304.585876	1531.465820	5688.742188	2394.569092	20.761267
304.955231	1535.215088	5666.687988	2387.070557	20.618689
305.324493	1534.443115	5638.126953	2383.431641	20.688450
305.693787	1530.252686	5612.212891	2376.815186	20.739117
306.063049	1530.032227	5607.581055	2376.373779	20.756136
306.432251	1528.708740	5606.588379	2378.028320	20.827480
306.801422	1529.260132	5598.097656	2381.557129	20.946941
307.170593	1532.568481	5595.450684	2385.085449	20.983059
307.539673	1528.819092	5608.573730	2386.960449	21.034142
307.908783	1531.575928	5615.080078	2392.694580	21.087738
308.277832	1531.355347	5644.522949	2399.531738	21.107246
308.646851	1534.773926	5681.133301	2407.470947	21.047308
309.015839	1536.207520	5715.649414	2412.212646	20.959860
309.384796	1538.082153	5746.415039	2420.593262	20.970562
309.753723	1535.766357	5771.998047	2421.916748	20.918365
310.122620	1533.891724	5793.611816	2424.894043	20.916922
310.491486	1532.899292	5812.357422	2429.304932	20.946709
310.860352	1530.914307	5821.179199	2428.753418	20.927361
311.229126	1534.332886	5826.031250	2429.304688	20.853558
311.597931	1529.701416	5843.123535	2427.871582	20.822683
311.966675	1526.613892	5869.699219	2429.966797	20.799795
312.335388	1526.834351	5896.274414	2432.172363	20.719772
312.704071	1522.974854	5922.739746	2437.134277	20.777462
313.072723	1524.959717	5931.230957	2436.583008	20.689222
313.441345	1523.526245	5931.341309	2438.568115	20.759535
313.809875	1523.195313	5911.823242	2437.134277	20.825165
314.178436	1523.195190	5885.688477	2430.076904	20.788153
314.546967	1521.982178	5851.614258	2419.711426	20.734541
314.915466	1519.446045	5811.254883	2412.543457	20.809349
315.283936	1523.967163	5773.100586	2403.942627	20.709528
315.652374	1523.195557	5733.402344	2396.333740	20.738604
316.020752	1523.416016	5692.822266	2386.739990	20.706161
316.389130	1525.842041	5654.116699	2383.431641	20.773561
316.757416	1525.621460	5628.202637	2381.226563	20.855288
317.125732	1523.085205	5605.376465	2373.286865	20.826580
317.494019	1524.739258	5578.800781	2370.640137	20.865517
317.862274	1526.062378	5549.468262	2363.472412	20.813461
318.230469	1529.922119	5524.436523	2357.076660	20.707262
318.598663	1533.671265	5506.020996	2354.430176	20.661800
318.966797	1531.245239	5488.487793	2350.239746	20.696091
319.334930	1533.781494	5473.932129	2347.923828	20.662722
319.703003	1532.678711	5446.804688	2348.916260	20.853636
320.071045	1530.583374	5422.875000	2344.836426	20.919632
320.439056	1532.127197	5403.687988	2346.049072	21.023094
320.807037	1537.199829	5414.494629	2351.783203	21.009064
321.175049	1538.192261	5435.997559	2358.068848	21.034315
321.542969	1539.074463	5475.586426	2361.266846	20.886318
321.910828	1539.956665	5513.740234	2367.552246	20.826387
322.278717	1543.375122	5567.442871	2375.491699	20.678493
322.646515	1543.375122	5607.582031	2376.594482	20.501400
323.014313	1543.595581	5643.199707	2386.298828	20.555723
323.382111	1542.492798	5687.860352	2392.253418	20.499041
323.749817	1541.941650	5724.360840	2400.413330	20.525723
324.117523	1535.876587	5743.216797	2400.854492	20.558781
324.485199	1533.781372	5748.399414	2402.398438	20.609627
324.852814	1537.971680	5759.096191	2404.824463	20.536062
325.220428	1539.736084	5759.537598	2402.949707	20.456261
325.588013	1537.751221	5774.203125	2407.691650	20.534645
325.955536	1536.317627	5782.694336	2409.015137	20.551579
326.323059	1532.678711	5803.094727	2407.912109	20.495272
326.690552	1531.465698	5815.775879	2409.786865	20.500877
327.058014	1530.914307	5817.209473	2409.015137	20.486244
327.425415	1534.773804	5825.149414	2407.361084	20.338249
327.792816	1535.986938	5825.590332	2408.133057	20.331625
328.160187	1538.082031	5828.567871	2407.140137	20.255470
328.527496	1530.032227	5812.688477	2402.398926	20.369759
328.894775	1529.039673	5795.044434	2395.451904	20.309687
329.262054	1528.929443	5777.400879	2388.724854	20.237759
329.629303	1532.678711	5770.233398	2384.424072	20.099926
329.996490	1530.473267	5766.263672	2386.739990	20.215040
330.363647	1532.237549	5787.656738	2394.238525	20.256548
330.730774	1527.826660	5805.520996	2392.253418	20.207773
331.097839	1528.157593	5829.229004	2399.200439	20.251764
331.464935	1527.936890	5850.953125	2401.405762	20.205080
331.831970	1528.488159	5875.543457	2405.375977	20.171997
332.198975	1526.503296	5903.552734	2410.558350	20.197512
332.565948	1526.613647	5927.261230	2413.866699	20.161875
332.932892	1525.069824	5965.636719	2419.601074	20.144527
333.299744	1527.716431	5998.608398	2422.137451	20.005426
333.666656	1527.936890	6036.652344	2429.746582	20.001478
334.033478	1526.062256	6062.897461	2434.377930	20.020910
334.400299	1526.282837	6098.184570	2442.207275	20.033773
334.767090	1527.385620	6137.110352	2452.793457	20.075123
335.133850	1523.746704	6170.633301	2456.101563	20.064075
335.500549	1522.423462	6201.068848	2459.850830	20.036299
335.867218	1517.681763	6233.599121	2467.239014	20.135155
336.233917	1517.791992	6266.350586	2469.554688	20.043192
336.600525	1517.902222	6286.419434	2476.942871	20.111927
336.967102	1518.453491	6298.108398	2488.301025	20.291162
337.333649	1514.814697	6301.747070	2491.278320	20.398525
337.700195	1515.365967	6302.960449	2489.072998	20.338125
338.066681	1514.814697	6287.301270	2485.985107	20.349360
338.433136	1514.924805	6274.620605	2484.882324	20.378561
338.799591	1517.791992	6256.425781	2484.000244	20.390017
339.165985	1518.674072	6243.192871	2486.426270	20.483616
339.532318	1518.233032	6246.500977	2490.506348	20.562990
339.898651	1522.864380	6259.623535	2491.278320	20.444653
340.264954	1521.320679	6270.540039	2491.498779	20.428160
340.631226	1519.446045	6293.697754	2494.145264	20.415747
340.997467	1514.042603	6324.463379	2500.541016	20.507528
341.363678	1512.278320	6352.583984	2508.039551	20.572279
341.729828	1514.704224	6393.384766	2523.587891	20.679436
342.095947	1517.902100	6440.028809	2529.542480	20.552912
342.462067	1519.335693	6484.028320	2539.026123	20.538845
342.828156	1520.769165	6534.422852	2549.942871	20.527418
343.194183	1523.526001	6589.118164	2560.308838	20.467159
343.560211	1529.811523	6630.911621	2567.807373	20.348471
343.926178	1529.590942	6675.130859	2578.944824	20.393465
344.292114	1528.598511	6720.674316	2581.701904	20.282898
344.658020	1526.723877	6756.071289	2583.135498	20.201595
345.023926	1530.252563	6774.155273	2589.200439	20.193888
345.389771	1530.473267	6798.194824	2595.596436	20.219807
345.755585	1531.024414	6824.880859	2601.219971	20.215803
346.121368	1537.089478	6843.737305	2605.630859	20.135900
346.487122	1534.443115	6866.122559	2608.167236	20.138571
346.852844	1536.869019	6899.425781	2608.608398	19.985605
347.218536	1538.853882	6923.574219	2609.821289	19.889008
347.584167	1539.184814	6951.252930	2616.327393	19.902605
347.949768	1540.177246	6975.071289	2620.848389	19.883942
348.315369	1540.838867	6981.578125	2623.053711	19.890953
348.680939	1544.477905	6995.692871	2630.111328	19.915440
349.046448	1547.786133	7005.065430	2633.419434	19.893307
349.411957	1546.793701	7011.351074	2628.236328	19.790123
349.777435	1543.706055	7011.021484	2634.081055	19.943518
350.142792	1546.903931	7013.336914	2632.868408	19.866053
350.508209	1547.675903	7017.306641	2631.655518	19.818150
350.873566	1545.911499	7036.273926	2641.028564	19.946171
351.238892	1545.470459	7057.776855	2647.314209	19.988796
351.604187	1549.109253	7084.462891	2654.702393	19.973307
351.969482	1553.079102	7127.248535	2668.596924	20.012270
352.334717	1553.851196	7176.099609	2680.395996	20.037264
352.699890	1551.535400	7256.376465	2695.062012	20.044847
353.065063	1551.976318	7340.295410	2706.420166	19.944370
353.430237	1551.314819	7438.216309	2723.512695	19.911968
353.795319	1548.778442	7545.511719	2745.787598	19.961020
354.160370	1548.668213	7656.886230	2768.944824	19.977621
354.525421	1547.014282	7778.847656	2796.512939	20.050257
354.890442	1547.786133	7926.062500	2824.301270	20.013481
355.255402	1544.367676	8060.375000	2846.576660	19.984768
355.620331	1547.345093	8211.227539	2879.548096	19.991394
355.985260	1548.006714	8359.985352	2906.123779	19.937189
356.350098	1549.440186	8488.122070	2927.185791	19.856014
356.714935	1547.455322	8615.155273	2949.020020	19.830563
357.079742	1548.116943	8735.904297	2976.808594	19.876656
357.444519	1544.588135	8862.386719	2999.635010	19.883669
357.809296	1537.530762	9007.835938	3029.408447	19.970774
358.173981	1534.663574	9175.340820	3061.166992	19.978640
358.538605	1535.104736	9362.474609	3095.020752	19.928993
358.903259	1535.104736	9576.954102	3135.380615	19.899351
359.267914	1535.214966	9815.033203	3179.710205	19.861490
359.632477	1534.001831	10056.529297	3224.921875	19.840593
359.997009	1532.237549	10270.126953	3266.494385	19.847548
360.361542	1533.671021	10432.007813	3298.473633	19.832949
360.726013	1533.009399	10550.330078	3326.041748	19.884315
361.090485	1533.119751	10621.235352	3340.487793	19.887159
361.454895	1537.640869	10669.645508	3349.419189	19.839874
361.819244	1538.081787	10689.494141	3358.020508	19.886972
362.183594	1538.964233	10671.849609	3354.271484	19.876600
362.547913	1538.523071	10616.161133	3345.119141	19.901609
362.912201	1539.515625	10574.367188	3343.685547	19.969004
363.276489	1536.097168	10510.079102	3333.651123	20.030727
363.640686	1532.568359	10443.033203	3326.372314	20.131430
364.004883	1531.686279	10386.685547	3315.566162	20.145456
364.369049	1529.701416	10336.401367	3306.634277	20.177057
364.733154	1531.024780	10286.117188	3296.930176	20.170036
365.097198	1537.200073	10230.098633	3285.020508	20.106302
365.461273	1542.272461	10137.360352	3270.244385	20.104179
365.825287	1545.580688	10013.523438	3251.828857	20.149502
366.189270	1546.132080	9845.798828	3222.937012	20.203279
366.553223	1545.690796	9649.182617	3185.774902	20.239227
366.917114	1546.132080	9422.791992	3146.076904	20.312477
367.281006	1547.014282	9187.691406	3106.048096	20.404392
367.644867	1549.991577	8990.744141	3070.209229	20.430967
368.008698	1548.337524	8831.179688	3044.295166	20.540850
368.372498	1548.999146	8707.012695	3025.659424	20.629471
368.736237	1547.124634	8622.102539	3011.434082	20.697018
369.099976	1540.728760	8559.579102	3000.737793	20.801256
369.463654	1538.854126	8522.858398	2987.174561	20.737679
369.827332	1534.994629	8489.886719	2985.189453	20.851435
370.190948	1534.884277	8472.683594	2982.873779	20.871019
370.554535	1533.450684	8443.021484	2977.359863	20.897234
370.918091	1534.002075	8424.715820	2974.272217	20.901609
371.281647	1538.854126	8421.626953	2976.146729	20.882463
371.645111	1536.427979	8420.744141	2979.234375	20.957874
372.008575	1536.648560	8415.342773	2978.462402	20.960575
372.371979	1535.876465	8419.863281	2978.462402	20.955675
372.735382	1531.906738	8436.183594	2984.527588	21.039434
373.098724	1531.686157	8473.456055	2992.467041	21.043348
373.462067	1529.149902	8530.798828	2996.106201	20.951584
373.825348	1528.708740	8601.592773	3009.890137	20.941690
374.188599	1525.731445	8696.095703	3022.571533	20.875370
374.551819	1522.643677	8812.875000	3041.538574	20.834660
374.915009	1517.130005	8930.976563	3062.931396	20.850193
375.278168	1514.152588	9048.197266	3082.008789	20.810286
375.641266	1512.829468	9160.785156	3097.446533	20.719486
376.004395	1510.624023	9243.048828	3114.759277	20.745565
376.367462	1513.491211	9303.587891	3130.528320	20.757601
376.730469	1516.689209	9354.423828	3139.681152	20.707413
377.093475	1522.092529	9382.984375	3150.708252	20.717951
377.456421	1522.864380	9423.675781	3161.625488	20.741680
377.819336	1524.298096	9463.595703	3172.321777	20.757801
378.182281	1526.172607	9498.992188	3182.025635	20.768726
378.545135	1521.872070	9540.673828	3193.053223	20.840784
378.907928	1522.864502	9571.441406	3200.000488	20.837671
379.270752	1523.305542	9599.780273	3208.270508	20.862629
379.633484	1526.282959	9631.869141	3214.335938	20.825798
379.996246	1524.077393	9659.878906	3223.047363	20.882637
380.358948	1525.069824	9686.673828	3228.781250	20.874714
380.721558	1521.430786	9715.344727	3234.405029	20.905445
381.084198	1523.305298	9733.429688	3248.189453	21.009233
381.446747	1525.951782	9744.015625	3254.254395	21.030533
381.809326	1527.275146	9746.000977	3264.509766	21.137518
382.171875	1527.495850	9729.791016	3268.259033	21.222879
382.534363	1528.488403	9709.280273	3259.436768	21.158689
382.896790	1533.229858	9671.567383	3250.725342	21.103764
383.259247	1531.245117	9648.851563	3249.512695	21.167170
383.621613	1532.017090	9663.408203	3244.219482	21.056698
383.983948	1527.716431	9692.850586	3249.843262	21.091225
384.346283	1523.195068	9736.739258	3269.141113	21.256914
384.708588	1519.225342	9811.723633	3282.484375	21.263304
385.070831	1519.887085	9891.341797	3292.739502	21.177351
385.433075	1519.335693	9960.373047	3307.847168	21.188292
385.795258	1517.020142	10042.305664	3321.520752	21.166454
386.157440	1518.784424	10104.719727	3328.909180	21.082441
386.519531	1514.042603	10178.823242	3345.449707	21.136221
386.881622	1519.335815	10246.749023	3358.682617	21.075510
387.243683	1517.350830	10314.126953	3372.687012	21.091091
387.605713	1519.556274	10383.047852	3385.699463	21.054268
387.967682	1522.643921	10443.366211	3398.490723	21.027969
388.329651	1525.069824	10513.719727	3410.289795	20.973337
388.691559	1523.746704	10610.648438	3428.705322	20.963787
389.053467	1521.431030	10715.627930	3446.238770	20.935028
389.415314	1519.887085	10810.132813	3465.205811	20.939367
389.777130	1518.784180	10914.560547	3485.716553	20.934219
390.138885	1520.328125	10994.397461	3506.888672	20.968397
390.500641	1518.012329	11088.901367	3530.045654	21.022430
390.862366	1521.872070	11165.982422	3549.233154	21.021753
391.224060	1525.510864	11220.676758	3565.443359	21.040718
391.585693	1529.921875	11295.551758	3576.581055	20.957779
391.947296	1536.317749	11367.119141	3584.409912	20.833420
392.308868	1535.766235	11409.905273	3592.570313	20.830214
392.670441	1535.656006	11454.014648	3602.384766	20.837408
393.031952	1533.119751	11484.449219	3607.567383	20.845936
393.393433	1537.310059	11495.697266	3605.582520	20.769152
393.754883	1537.089600	11506.393555	3611.537109	20.808350
394.116302	1538.523071	11496.689453	3609.662598	20.798405
394.477692	1529.701294	11492.830078	3613.522217	20.915325
394.839020	1527.936890	11479.376953	3613.853027	20.960945
395.200348	1526.834229	11463.718750	3609.772949	20.961687
395.561646	1529.480835	11443.759766	3605.251465	20.937180
395.922882	1529.150024	11409.354492	3597.422363	20.933500
396.284088	1529.480835	11337.236328	3584.630859	20.954334
396.645264	1527.275513	11269.638672	3575.147705	21.020281
397.006409	1530.914429	11181.641602	3556.401367	20.987919
397.367523	1533.450684	11090.887695	3541.183838	21.007023
397.728577	1538.964355	11024.392578	3528.061279	20.970028
398.089600	1539.074707	10949.627930	3516.151855	21.009150
398.450592	1539.625977	10886.000000	3504.353027	21.021276
398.811584	1539.074463	10829.209961	3497.185303	21.077311
399.172546	1537.971680	10760.399414	3484.944580	21.111284
399.533447	1528.819214	10692.691406	3470.498779	21.188419
399.894318	1532.127441	10638.768555	3466.749512	21.244081
400.255127	1532.237671	10596.091797	3464.875000	21.322466
400.615936	1531.355469	10585.175781	3467.080322	21.380199
400.976685	1529.150146	10593.115234	3475.901855	21.477926
401.337433	1531.575928	10626.307617	3489.906982	21.532589
401.698151	1531.355591	10702.835938	3512.181885	21.597672
402.058807	1537.861572	10785.099609	3524.973145	21.488703
402.419434	1539.736206	10877.398438	3554.747070	21.579393
402.780060	1538.633423	10977.195313	3576.581543	21.591724
403.140594	1534.663696	11064.090820	3601.613037	21.690174
403.501129	1535.986938	11144.919922	3629.622070	21.788427
403.861633	1537.420532	11224.757813	3647.816895	21.785105
404.222076	1539.625977	11293.236328	3659.064697	21.729786
404.582550	1535.986938	11374.728516	3682.663330	21.818607
404.942932	1535.656128	11422.916992	3696.337158	21.853182
405.303284	1530.804077	11480.369141	3714.863037	21.951302
405.663605	1531.245117	11533.189453	3730.521484	21.988489
406.023895	1532.568481	11582.260742	3745.298096	22.017883
406.384125	1530.914307	11629.016602	3759.854248	22.072859
406.744354	1529.811523	11684.814453	3772.756592	22.087093
407.104553	1536.317627	11746.566406	3787.643311	22.049665
407.464691	1536.868896	11813.392578	3795.031738	21.973995
407.824829	1537.420288	11876.467773	3808.264160	21.963760
408.184906	1538.522949	11926.201172	3817.085449	21.935244
408.544922	1538.633423	11974.169922	3827.120605	21.929752
408.904938	1537.971680	12007.030273	3832.523926	21.917465
409.264923	1536.317627	11999.752930	3828.113037	21.902897
409.624847	1534.112183	11979.573242	3823.150635	21.914194
409.984802	1533.560791	11956.416016	3811.792725	21.858040
410.344666	1535.656006	11935.685547	3810.248779	21.871023
410.704529	1534.774048	11906.352539	3801.647705	21.856592
411.064331	1531.355591	11896.317383	3794.590332	21.835438
411.424133	1532.017090	11892.458008	3794.921387	21.841776
411.783875	1531.245117	11887.385742	3795.803467	21.866817
412.143555	1536.317749	11895.656250	3798.780518	21.839838
412.503235	1535.986938	11932.376953	3805.948242	21.834131
412.862885	1536.317749	11957.078125	3814.108643	21.858202
413.222473	1535.876587	12000.966797	3826.128418	21.884686
413.582062	1530.473267	12055.992188	3834.509033	21.889996
413.941559	1529.480713	12132.080078	3846.307617	21.851498
414.301086	1532.237549	12203.647461	3866.928955	21.878002
414.660522	1531.796509	12282.932617	3889.424561	21.929106
415.019958	1529.150024	12364.093750	3911.258545	21.985426
415.379364	1530.142456	12462.125977	3927.248047	21.927452
415.738708	1528.708984	12566.443359	3952.169922	21.956144
416.098053	1529.591187	12702.960938	3979.407715	21.925493
416.457336	1526.503540	12866.385742	4015.466797	21.948759
416.816559	1528.047363	13056.165039	4050.863770	21.884027
417.175812	1526.834351	13278.144531	4104.566406	21.935698
417.535004	1528.488525	13530.667969	4159.261719	21.919128
417.894135	1528.157715	13808.997070	4225.204590	21.961420
418.253265	1528.047363	14142.681641	4301.513184	21.986097
418.612335	1530.583618	14503.713867	4378.152344	21.949745
418.971405	1528.378174	14871.801758	4455.563477	21.937288
419.330414	1527.054810	15239.122070	4537.606445	21.955492
419.689423	1521.871948	15591.002930	4609.063477	21.943014
420.048370	1521.210327	15940.676758	4676.660156	21.883263
420.407257	1519.997314	16263.223633	4740.177246	21.841759
420.766144	1519.887085	16600.767578	4809.097656	21.810467
421.125000	1524.518555	16922.103516	4888.274414	21.845997
421.483795	1525.180176	17245.310547	4959.289551	21.845297
421.842560	1520.769287	17599.064453	5026.666504	21.805155
422.201324	1520.328125	17935.947266	5091.506348	21.754759
422.560028	1519.887085	18241.623047	5155.244141	21.740307
422.918671	1520.769287	18531.310547	5215.452637	21.719963
423.277283	1524.077515	18778.761719	5263.200684	21.670193
423.635925	1525.841919	18955.306641	5311.389648	21.719244
423.994476	1527.385742	19096.347656	5338.626953	21.693037
424.353027	1529.921997	19197.578125	5358.255371	21.668598
424.711487	1530.914429	19260.099609	5372.700684	21.669275
425.069946	1529.701416	19272.009766	5376.229492	21.679976
425.428375	1529.701538	19241.906250	5366.856934	21.663904
425.786743	1531.576050	19143.101563	5342.817383	21.640608
426.145081	1531.796509	18994.343750	5307.750977	21.623161
426.503418	1530.914307	18822.097656	5271.250488	21.631464
426.861725	1533.561035	18640.148438	5234.750977	21.636049
427.219971	1537.751343	18467.904297	5196.375488	21.610107
427.578186	1539.405396	18302.933594	5163.514160	21.619011
427.936371	1542.051880	18152.521484	5133.079102	21.619061
428.294495	1545.249756	17946.314453	5090.624023	21.616734
428.652618	1543.485352	17745.066406	5041.332031	21.589539
429.010712	1544.477905	17538.191406	4993.804688	21.566765
429.368744	1549.991455	17290.296875	4946.166504	21.576296
429.726746	1550.432617	17043.066406	4892.464355	21.571747
430.084717	1548.999023	16817.117188	4849.788086	21.618834
430.442688	1548.337280	16581.134766	4807.223145	21.678505
430.800568	1549.660645	16415.947266	4778.331543	21.718071
431.158417	1548.668213	16272.815430	4744.808594	21.706795
431.516235	1546.903809	16145.229492	4720.218262	21.737522
431.874023	1542.492920	16049.514648	4708.860352	21.826448
432.231812	1543.816162	15953.795898	4691.105957	21.841043
432.589508	1543.706055	15895.242188	4681.402344	21.863138
432.947205	1543.595825	15808.457031	4667.397461	21.898579
433.304840	1542.052002	15756.189453	4656.370117	21.910004
433.662476	1541.831421	15700.720703	4658.575684	22.012630
434.020050	1545.029541	15676.790039	4649.643555	21.969053
434.377594	1544.147339	15649.995117	4645.784180	21.988304
434.735138	1536.869263	15624.854492	4648.541016	22.087416
435.092621	1536.648682	15592.102539	4648.320801	22.138538
435.450043	1536.979492	15602.911133	4647.879395	22.116558
435.807465	1532.789063	15644.480469	4655.708496	22.130014
436.164856	1532.017090	15690.354492	4668.500000	22.152903
436.522156	1531.576050	15735.567383	4686.144043	22.209024
436.879486	1527.936890	15802.060547	4706.213379	22.265999
437.236755	1525.510986	15877.817383	4736.869141	22.375206
437.593994	1529.701416	15964.602539	4747.455566	22.291487
437.951172	1528.267822	16095.165039	4777.229004	22.303728
438.308380	1526.944458	16181.729492	4802.150879	22.349058
438.665497	1526.503296	16304.906250	4826.961914	22.332985
439.022583	1530.252686	16441.642578	4853.206543	22.284670
439.379608	1531.906860	16545.410156	4874.158691	22.261641
439.736633	1532.568604	16637.816406	4890.919922	22.233009
440.093628	1535.104736	16715.669922	4903.491211	22.188808
440.450562	1534.773926	16800.359375	4916.283203	22.151192
440.807495	1534.222534	16869.169922	4935.250000	22.178278
441.164368	1534.773926	16950.664063	4950.467773	22.156967
441.521210	1534.773926	17015.833984	4972.301270	22.204727
441.878021	1532.899292	17084.865234	4989.834961	22.228287
442.234833	1536.979492	17175.837891	5006.816895	22.187281
442.591522	1538.854126	17250.492188	5020.159668	22.157497
442.948242	1535.766479	17338.599609	5041.111816	22.181751
443.304901	1538.082275	17434.316406	5063.938477	22.180449
443.661530	1541.169800	17547.126953	5090.072754	22.172388
444.018127	1542.382935	17676.144531	5114.442871	22.140280
444.374664	1544.367798	17807.478516	5144.546875	22.137089
444.731201	1552.197021	17927.343750	5170.130371	22.094051
445.087738	1551.535400	18043.792969	5199.572754	22.119696
445.444183	1552.307251	18093.746094	5211.923828	22.123932
445.800598	1548.888794	18151.085938	5224.383789	22.138607
446.156982	1546.352539	18172.921875	5233.426270	22.175793
446.513336	1545.359985	18160.902344	5235.852051	22.211084
446.869598	1546.793579	18160.683594	5241.145020	22.236523
447.225891	1546.021606	18175.570313	5243.571289	22.234818
447.582153	1546.352417	18179.318359	5250.077637	22.267376
447.938354	1548.999023	18181.964844	5256.473145	22.289917
448.294495	1548.006592	18183.066406	5254.598633	22.281807
448.650665	1544.147095	18170.828125	5260.112305	22.349411
449.006775	1537.971924	18154.617188	5257.796387	22.386135
449.362823	1539.405396	18162.666016	5257.906738	22.369268
449.718842	1541.610718	18152.962891	5253.826660	22.347464
450.074860	1540.838867	18172.703125	5258.678711	22.353718
450.430817	1544.918945	18136.753906	5256.252441	22.368431
450.786713	1541.831299	18068.271484	5241.807129	22.388222
451.142578	1537.861450	17979.615234	5217.105957	22.377445
451.498444	1534.001831	17847.619141	5193.728516	22.433569
451.854248	1533.119629	17694.558594	5163.734375	22.464674
452.210022	1529.039551	17510.074219	5122.271973	22.484354
452.565765	1527.385376	17293.279297	5083.014648	22.552666
452.921478	1529.370361	17109.785156	5040.560059	22.535919
453.277191	1531.796387	16919.673828	4997.884766	22.524799
453.632813	1531.906738	16753.052734	4966.677734	22.565784
453.988434	1531.245117	16601.978516	4936.683594	22.596369
454.343964	1528.819214	16476.490234	4909.997559	22.620100
454.699524	1529.591187	16350.117188	4894.890625	22.707016
455.054993	1527.385742	16251.754883	4873.276855	22.723494
455.410400	1526.282959	16187.574219	4860.595215	22.742283
455.765839	1523.636475	16166.403320	4854.089355	22.744698
456.121216	1525.400879	16186.471680	4851.332031	22.685459
456.476593	1529.591187	16245.579102	4869.196289	22.693718
456.831909	1529.480957	16359.379883	4897.095703	22.708279
457.187195	1528.267822	16504.277344	4935.580566	22.751806
457.542450	1528.157593	16688.544922	4978.586914	22.759504
457.897644	1528.267944	16878.652344	5023.578613	22.770182
458.252808	1531.024780	17079.128906	5072.980469	22.780626
458.607971	1536.317749	17244.759766	5114.111816	22.776249
458.963013	1539.956787	17343.453125	5137.158691	22.762064
459.318085	1542.934204	17441.373047	5151.604492	22.698269
459.673096	1541.831421	17513.933594	5163.844727	22.677122
460.028076	1541.610718	17581.533203	5175.092773	22.652739
460.383057	1541.059570	17632.478516	5192.074707	22.689205
460.737976	1542.272461	17654.751953	5199.572754	22.698557
461.092865	1543.265015	17668.205078	5200.234863	22.678967
461.447723	1543.375244	17674.822266	5203.653320	22.690327
461.802551	1546.573120	17650.451172	5205.307129	22.719584
462.157288	1547.786133	17647.472656	5198.800781	22.677551
462.512054	1548.337646	17629.390625	5192.957031	22.664061
462.866760	1545.911621	17608.216797	5186.120117	22.663052
463.221405	1547.676025	17561.681641	5184.907227	22.712812
463.576019	1547.896484	17482.503906	5171.454102	22.740175
463.930603	1548.447876	17383.810547	5153.479004	22.765701
464.285156	1546.242432	17249.832031	5126.241699	22.797331
464.639709	1547.345093	17084.640625	5093.711914	22.824863
464.994171	1543.706055	16863.326172	5048.058594	22.874931
465.348633	1542.603271	16613.998047	4994.907227	22.906334
465.703033	1539.295044	16373.494141	4947.159180	22.973024
466.057434	1532.899170	16159.786133	4899.080566	23.013657
466.411774	1530.032104	16020.070313	4870.189453	23.051405
466.766083	1522.864380	15879.141602	4842.400879	23.122545
467.120331	1521.100098	15783.867188	4824.756836	23.162804
467.474548	1521.430908	15706.787109	4816.155273	23.226236
467.828735	1519.997314	15633.897461	4803.253906	23.262575
468.182922	1520.438232	15605.998047	4799.173828	23.277283
468.537048	1521.871704	15567.403320	4794.100586	23.297297
468.891144	1520.879272	15539.833008	4789.910156	23.318649
469.245178	1517.571289	15543.692383	4790.241211	23.332680
469.599213	1514.483398	15538.730469	4791.233398	23.364891
469.953186	1512.278076	15543.582031	4793.770020	23.386936
470.307129	1512.719116	15539.062500	4800.716797	23.441587
470.661041	1515.255493	15572.252930	4803.032715	23.388903
471.014923	1517.019775	15620.001953	4815.383789	23.387705
471.368713	1514.483521	15633.895508	4815.604004	23.380014
471.722504	1516.799194	15624.414063	4807.113281	23.322964
472.076294	1515.696533	15594.748047	4798.181641	23.314674
472.429993	1517.571167	15538.951172	4793.219238	23.361809
472.783722	1517.681396	15533.877930	4800.055664	23.418438
473.137329	1521.210205	15559.459961	4795.755371	23.325878
473.490967	1524.628662	15589.895508	4809.428711	23.353983
473.844543	1525.069702	15655.178711	4825.970215	23.360756
474.198090	1525.731445	15736.008789	4851.442871	23.403564
474.551605	1524.849243	15840.216797	4877.908691	23.422798
474.905060	1525.400635	15973.979492	4908.013184	23.411385
475.258484	1526.834229	16111.156250	4944.733398	23.435434
475.611877	1525.180176	16262.120117	4970.757813	23.380550
475.965240	1522.974731	16434.146484	5010.125000	23.386160
476.318573	1525.731445	16599.001953	5048.279297	23.369499
476.671844	1529.149902	16778.083984	5082.574219	23.302773
477.025116	1531.024536	16965.107422	5120.838379	23.259005
477.378326	1533.340210	17172.417969	5172.556641	23.270018
477.731506	1535.435425	17399.578125	5226.700684	23.267977
478.084656	1534.773926	17628.064453	5283.711914	23.295036
478.437744	1532.788940	17876.400391	5336.972656	23.276274
478.790833	1532.347900	18179.759766	5411.075684	23.299284
479.143890	1529.149902	18532.742188	5497.639648	23.339127
479.496826	1527.606079	18959.386719	5592.584961	23.319355
479.849823	1528.488281	19549.675781	5717.192871	23.243221
480.202728	1529.039673	20281.115234	5867.935059	23.138214
480.555603	1525.952148	21176.748047	6079.437988	23.172016
480.908478	1522.974731	22400.552734	6376.511719	23.247606
481.261292	1522.974731	23963.777344	6757.173340	23.324472
481.614075	1524.628906	25732.109375	7188.008301	23.395163
481.966797	1526.834229	27496.359375	7621.600586	23.468918
482.319489	1527.606079	29080.205078	7979.986816	23.418411
482.672150	1526.393188	30462.691406	8297.791992	23.401054
483.024780	1524.739014	31572.472656	8554.064453	23.393862
483.377350	1523.636353	32530.302734	8758.510742	23.333288
483.729919	1522.313110	33403.109375	8955.567383	23.315773
484.082428	1523.856812	34220.453125	9145.898438	23.311422
484.434937	1524.187622	35104.066406	9353.762695	23.316271
484.787384	1523.636230	36042.925781	9569.345703	23.307865
485.139771	1526.503296	37078.054688	9809.298828	23.297987
485.492157	1529.921753	38098.410156	10055.537109	23.314104
485.844482	1531.355347	39044.769531	10273.325195	23.303583
486.196777	1530.693726	39872.480469	10456.267578	23.278975
486.549072	1531.796509	40529.593750	10612.745117	23.285799
486.901276	1531.134888	40987.113281	10718.826172	23.285931
487.253448	1530.363037	41207.882813	10779.476563	23.310715
487.605591	1528.047241	41187.921875	10777.381836	23.321644
487.957703	1529.039917	40949.730469	10734.926758	23.352930
488.309784	1533.450806	40448.871094	10603.811523	23.307880
488.661835	1533.450806	39685.007813	10412.268555	23.272490
489.013855	1533.560913	38832.492188	10193.377930	23.217335
489.365814	1533.340454	38064.773438	9985.624023	23.137014
489.717743	1533.009521	37422.546875	9844.364258	23.158154
490.069611	1532.017090	36896.214844	9706.854492	23.116138
490.421509	1533.561035	36463.058594	9616.541016	23.140842
490.773315	1538.633545	36034.433594	9526.999023	23.157501
491.125092	1539.625977	35581.214844	9430.070313	23.178837
491.476807	1534.553345	35043.742188	9308.879883	23.200583
491.828522	1536.317749	34357.406250	9157.366211	23.219973
492.180176	1533.230225	33541.167969	8975.416992	23.251066
492.531830	1530.804199	32589.628906	8751.894531	23.249722
492.883423	1527.495972	31597.392578	8516.463867	23.242407
493.234985	1525.290405	30630.853516	8303.526367	23.288456
493.586487	1528.047363	29768.414063	8111.431641	23.311964
493.937988	1528.929443	29037.640625	7942.493164	23.314663
494.289429	1532.788818	28473.484375	7823.839844	23.351479
494.640869	1531.686157	28000.085938	7718.639648	23.374868
494.992218	1531.686157	27623.722656	7644.537109	23.428034
495.343567	1529.149902	27261.039063	7560.619141	23.439669
495.694855	1530.362915	26811.238281	7452.221680	23.424263
496.046112	1533.230103	26245.205078	7326.620605	23.443657
496.397339	1532.899292	25526.890625	7164.520020	23.470961
496.748535	1534.663574	24699.515625	6985.327148	23.529888
497.099670	1534.994385	23875.558594	6803.487305	23.582632
497.450806	1536.097046	23117.435547	6644.363770	23.669832
497.801880	1540.177124	22517.664063	6511.816406	23.699881
498.152924	1536.648560	22015.919922	6407.387695	23.783752
498.503937	1535.766357	21626.441406	6320.825195	23.817310
498.854889	1541.279907	21339.951172	6260.947266	23.838303
499.205841	1537.089600	21112.789063	6209.449219	23.868160
499.556702	1541.941650	20926.869141	6180.888184	23.930687
499.907562	1539.956787	20761.572266	6150.674316	23.987150
500.258362	1540.838867	20609.949219	6122.444336	24.026321
500.609161	1544.588257	20483.576172	6094.324707	24.023123
500.959900	1543.926636	20330.847656	6066.535645	24.073177
501.310608	1543.595703	20167.863281	6032.682129	24.103426
501.661255	1540.949097	19978.414063	5990.778809	24.134714
502.011902	1544.257324	19809.808594	5942.368652	24.078722
502.362488	1545.249756	19609.330078	5899.692871	24.105536
502.713043	1546.352539	19430.138672	5860.877441	24.125345
503.063568	1541.279907	19261.421875	5832.427246	24.216213
503.414063	1538.523071	19106.378906	5795.596191	24.232174
503.764496	1541.059204	18964.458984	5766.814941	24.253336
504.114899	1539.295166	18838.527344	5740.349121	24.284624
504.465271	1538.743774	18744.794922	5722.595215	24.316164
504.815613	1535.656128	18675.433594	5712.561523	24.369659
505.165894	1529.701416	18602.212891	5696.681641	24.407541
505.516174	1527.716553	18584.128906	5696.681641	24.442215
505.866394	1527.937012	18570.455078	5695.468750	24.453733
506.216583	1523.305664	18563.177734	5692.822266	24.469179
506.566711	1523.856934	18600.339844	5702.967285	24.472898
506.916840	1523.085083	18640.369141	5710.244629	24.461590
507.266907	1521.872070	18704.107422	5726.455566	24.470528
507.616882	1518.674072	18761.666016	5747.187012	24.523079
507.966858	1516.689209	18802.027344	5764.830566	24.576561
508.316803	1516.248169	18854.185547	5782.805176	24.608215
508.666748	1516.579102	18909.541016	5800.779785	24.631807
509.016632	1515.145508	18965.890625	5811.586426	24.620386
509.366486	1513.932373	19011.984375	5840.808594	24.727757
509.716309	1512.940063	19094.466797	5862.753418	24.740816
510.066040	1512.609253	19168.130859	5881.058594	24.742680
510.415771	1515.476318	19257.892578	5911.934570	24.779366
510.765503	1514.263428	19336.626953	5940.164063	24.833408
511.115173	1516.248169	19421.427734	5960.785156	24.822634
511.464752	1516.578979	19503.468750	5982.398438	24.828190
511.814270	1518.012451	19575.478516	5997.836914	24.808708
512.163818	1518.563843	19630.283203	6018.788086	24.847029
512.513306	1516.578857	19691.484375	6029.153809	24.828602
512.862793	1520.328003	19720.816406	6045.584473	24.863379
513.212219	1519.887085	19769.556641	6062.786621	24.893049
513.561646	1518.563721	19808.925781	6079.878906	24.938356
513.911011	1515.255615	19836.164063	6095.758301	25.001505
514.260315	1513.932251	19890.197266	6110.093262	25.011398
514.609558	1514.593994	19954.156250	6130.272949	25.031389
514.958801	1517.460938	20057.042969	6148.688477	24.980215
515.308044	1517.019897	20201.500000	6189.930664	25.009583
515.657227	1518.894531	20392.933594	6239.442871	25.010801
516.006348	1520.989746	20606.861328	6293.808105	25.007076
516.355408	1523.415771	20836.009766	6363.610352	25.062374
516.704529	1523.856812	21066.146484	6418.967285	25.048807
517.053467	1523.415649	21249.308594	6464.289551	25.047657
517.402466	1526.062256	21397.183594	6503.987305	25.051052
517.751404	1523.084961	21517.271484	6536.296875	25.073347
518.100281	1525.290405	21624.896484	6565.851074	25.077908
518.449219	1520.548950	21691.941406	6592.867676	25.146101
518.798035	1517.571411	21757.333984	6618.560059	25.202810
519.146851	1516.689331	21826.916016	6642.049316	25.235365
519.495544	1517.020020	21905.869141	6662.890625	25.238651
519.844299	1522.313110	21994.197266	6695.751465	25.270945
520.192932	1520.218018	22093.333984	6718.577148	25.267731
520.541626	1522.313110	22156.630859	6744.932129	25.310354
520.890198	1527.937012	22260.949219	6781.873535	25.340923
521.238770	1530.583496	22355.783203	6809.772949	25.350006
521.587280	1531.796387	22446.537109	6829.181641	25.328478
521.935791	1530.693726	22546.884766	6861.491699	25.365194
522.284180	1532.788940	22645.027344	6892.036621	25.384554
522.632629	1534.994385	22760.375000	6925.669434	25.397305
522.981018	1530.693726	22887.296875	6953.789551	25.393063
523.329346	1530.693848	23058.660156	6999.441895	25.402994
523.677551	1525.731567	23236.419922	7046.308105	25.427921
524.025818	1523.415771	23458.398438	7114.236816	25.488150
524.374023	1521.100098	23722.173828	7197.160645	25.566603
524.722229	1520.438477	24090.261719	7290.561523	25.565653
525.070374	1520.548584	24555.941406	7415.941895	25.592764
525.418457	1519.556274	25200.154297	7573.411621	25.564623
525.766541	1524.849365	26106.705078	7821.524414	25.615131
526.114563	1525.621338	27271.955078	8133.485840	25.665262
526.462585	1522.974854	28579.017578	8475.330078	25.696129
526.810547	1526.172729	29825.097656	8798.428711	25.697992
527.158447	1526.172607	30890.884766	9079.073242	25.721008
527.506348	1528.157593	31764.574219	9308.660156	25.732225
527.854065	1528.598633	32475.056641	9493.367188	25.737255
528.201904	1522.202759	33035.906250	9645.101563	25.775768
528.549622	1520.879639	33462.882813	9752.286133	25.769850
528.897339	1520.879517	33790.281250	9845.247070	25.796471
529.245056	1519.997314	34014.574219	9900.935547	25.791807
529.592712	1516.027466	34193.992188	9955.960938	25.827599
529.940369	1515.365845	34378.804688	10004.811523	25.832493
530.287903	1517.571289	34558.000000	10068.989258	25.881680
530.635437	1514.704346	34745.679688	10133.830078	25.937023
530.982910	1517.020020	35013.753906	10206.831055	25.942263
531.330383	1518.233032	35248.523438	10268.142578	25.940807
531.677795	1521.651489	35370.593750	10302.436523	25.941092
532.025208	1522.643921	35337.398438	10305.633789	25.973841
532.372498	1521.320801	35142.769531	10252.041016	25.967710
532.719788	1522.643921	34723.730469	10159.413086	26.013515
533.067078	1520.659180	34028.792969	9965.112305	25.976433
533.414307	1523.195435	33081.554688	9707.847656	25.934975
533.761536	1525.290649	32011.136719	9434.923828	25.945265
534.108643	1523.085083	31022.433594	9184.604492	25.971827
534.455811	1523.856934	30247.216797	8990.525391	25.995108
534.802856	1527.275635	29614.585938	8834.709961	26.016853
535.149902	1524.408447	29126.521484	8707.896484	26.025139
535.496887	1523.195313	28710.240234	8590.345703	25.994551
535.843811	1522.864624	28364.095703	8510.288086	26.032425
536.190796	1520.328247	28066.687500	8436.625000	26.053656
536.537659	1526.613892	27817.033203	8378.841797	26.063593
536.884460	1527.826782	27578.732422	8320.838867	26.075914
537.231323	1525.180298	27296.324219	8253.573242	26.108244
537.578064	1525.952148	27017.113281	8172.632324	26.074451
537.924805	1524.518677	26697.654297	8100.845215	26.124386
538.271423	1526.062500	26405.654297	8037.879395	26.173326
538.618164	1527.275391	26236.941406	8008.105469	26.227915
538.964783	1526.062378	26303.761719	8026.300781	26.234228
539.311279	1525.290405	26509.308594	8091.913086	26.283293
539.657776	1529.811523	26777.714844	8172.191895	26.308643
540.004333	1534.001831	27009.066406	8247.507813	26.353245
540.350769	1530.914307	27213.953125	8318.193359	26.427088
540.697144	1534.773926	27352.234375	8370.903320	26.478704
541.043518	1534.773926	27429.089844	8400.125000	26.512964
541.389893	1532.788940	27431.296875	8403.542969	26.529535
541.736145	1533.009521	27319.259766	8379.723633	26.551802
542.082458	1531.465698	27184.619141	8343.995117	26.556303
542.428711	1530.032104	27028.029297	8318.412109	26.623188
542.774902	1534.443115	26874.091797	8297.791992	26.690775
543.121033	1534.001953	26771.865234	8284.338867	26.746864
543.467102	1535.766357	26708.130859	8276.950195	26.780096
543.813171	1530.473389	26658.839844	8270.775391	26.823477
544.159180	1527.826782	26623.990234	8269.672852	26.864050
544.505127	1527.275269	26580.546875	8263.607422	26.888033
544.851135	1525.510986	26465.642578	8252.469727	26.972429
545.197021	1529.039673	26279.062500	8197.443359	26.943020
545.542908	1529.811523	25915.710938	8100.514648	26.944683
545.888733	1528.598633	25382.431641	7963.555176	26.976616
546.234558	1529.701416	24666.982422	7776.091309	26.997078
546.580322	1529.370483	23875.119141	7562.935059	27.000952
546.926025	1522.754150	23061.306641	7361.136230	27.106659
547.271667	1516.799438	22344.753906	7170.254395	27.143591
547.617371	1515.917236	21688.521484	6996.686035	27.169367
547.962952	1510.513916	21087.759766	6843.295898	27.239695
548.308533	1506.985229	20539.593750	6704.683594	27.309435
548.654053	1510.513916	20035.978516	6575.664551	27.341557
548.999573	1510.072876	19574.046875	6463.186523	27.419844
549.344971	1509.631836	19205.074219	6379.269531	27.519165
549.690430	1511.727051	18895.871094	6300.204102	27.545084
550.035767	1514.704468	18655.806641	6235.805176	27.542574
550.381104	1517.461182	18424.896484	6174.934570	27.546896
550.726440	1517.350952	18201.921875	6111.748047	27.536800
551.071655	1521.872070	17961.861328	6061.022461	27.610424
551.416931	1523.305664	17699.191406	5995.852051	27.649467
551.762085	1523.305664	17417.554688	5927.262207	27.707861
552.107178	1526.393188	17137.240234	5854.261719	27.723473
552.452332	1527.937012	16865.531250	5790.854492	27.793913
552.797424	1528.488281	16617.859375	5739.688477	27.908388
553.142395	1529.039551	16403.378906	5685.324219	27.942650
553.487366	1531.906494	16235.324219	5654.447754	28.037977
553.832336	1533.450439	16092.630859	5625.887207	28.108976
554.177185	1538.192261	15982.911133	5596.003418	28.092005
554.522095	1537.199707	15885.650391	5567.222168	28.086811
554.866943	1540.508057	15797.429688	5546.601074	28.099285
555.211731	1540.177246	15707.779297	5522.561523	28.109093
555.556396	1542.162109	15630.037109	5493.670410	28.049002
555.901123	1536.758667	15550.971680	5481.871094	28.150795
556.245789	1533.891602	15491.977539	5467.645996	28.182621
556.590454	1533.340454	15421.841797	5454.192871	28.230927
556.934998	1535.656006	15336.601563	5426.845215	28.195091
557.279541	1531.135010	15230.741211	5399.828613	28.239450
557.624023	1529.260376	15136.675781	5370.496094	28.228991
557.968567	1528.488403	15005.562500	5349.764160	28.353897
558.312988	1526.393188	14903.338867	5319.109375	28.352634
558.657349	1528.267822	14807.733398	5298.487305	28.391350
559.001770	1528.708862	14752.045898	5279.300293	28.363426
559.346069	1524.628784	14695.036133	5267.390625	28.417965
559.690308	1524.187622	14652.139648	5256.474121	28.430075
560.034485	1519.445923	14622.696289	5244.454590	28.428129
560.378723	1517.681519	14593.473633	5237.837891	28.450714
560.722900	1515.365845	14547.491211	5227.583008	28.485126
561.067017	1513.380981	14502.721680	5222.289551	28.553478
561.411072	1513.932251	14474.269531	5216.224121	28.566326
561.755127	1513.380859	14445.488281	5212.144531	28.601398
562.099182	1512.057617	14444.275391	5217.989258	28.656582
562.443115	1513.711914	14463.792969	5224.604980	28.655365
562.787048	1512.609131	14476.474609	5238.940918	28.743988
563.130920	1517.020142	14514.077148	5254.158203	28.753727
563.474792	1519.997437	14593.033203	5274.668945	28.720730
563.818604	1519.887085	14671.437500	5293.415039	28.692646
564.162354	1516.689209	14778.511719	5331.569336	28.765882
564.506042	1522.202881	14880.733398	5369.833496	28.802799
564.849731	1525.290405	14948.110352	5398.283691	28.853796
565.193420	1526.723999	15022.654297	5422.654297	28.867443
565.537048	1527.054688	15072.498047	5443.605957	28.914162
565.880615	1524.959595	15111.315430	5457.280273	28.943161
566.224121	1526.723877	15117.048828	5470.402344	29.018278
566.567627	1533.781372	15125.760742	5472.717773	28.979858
566.911072	1532.788940	15127.083008	5478.672852	29.026030
567.254517	1536.758789	15147.593750	5485.619629	29.012627
567.597839	1535.104858	15172.957031	5494.001465	29.028738
567.941223	1534.002075	15221.255859	5510.431641	29.052063
568.284485	1532.678833	15281.576172	5522.561523	29.019657
568.627808	1534.663696	15341.895508	5543.292969	29.032825
568.970947	1535.876709	15414.675781	5573.397461	29.091284
569.314148	1538.633545	15486.792969	5591.922852	29.059671
569.657288	1534.774048	15551.301758	5615.300781	29.112253
570.000366	1534.112305	15612.943359	5646.177246	29.207432
570.343445	1532.348022	15662.568359	5664.923828	29.246363
570.686462	1528.378174	15679.879883	5671.208496	29.274843
571.029419	1526.723999	15675.358398	5677.825195	29.339233
571.372314	1526.613770	15632.462891	5671.319336	29.382885
571.715210	1521.651367	15592.434570	5655.660645	29.380095
572.058105	1520.989990	15575.562500	5649.154785	29.372398
572.400879	1521.872070	15552.845703	5648.382813	29.410009
572.743713	1518.563843	15550.087891	5642.538086	29.390778
573.086426	1520.328125	15549.425781	5642.979004	29.386429
573.429077	1521.982178	15559.351563	5648.602539	29.397390
573.771790	1517.902100	15557.585938	5656.763184	29.479734
574.114441	1517.571289	15556.593750	5657.094727	29.485838
574.457031	1516.248047	15535.863281	5656.873535	29.534515
574.799561	1519.115112	15488.666992	5642.317871	29.515640
575.142029	1518.674072	15425.588867	5626.659668	29.539156
575.484436	1520.438477	15341.343750	5612.544434	29.608089
575.826904	1518.674194	15231.954102	5587.512207	29.670784
576.169250	1519.666626	15101.721680	5550.350098	29.676538
576.511597	1518.012573	14939.840820	5509.549316	29.739143
576.853943	1521.320679	14764.176758	5463.786133	29.770506
577.196167	1524.518555	14579.801758	5404.790039	29.721848
577.538391	1523.526123	14387.044922	5348.771484	29.737162
577.880554	1526.503296	14197.925781	5302.788086	29.801584
578.222717	1527.606079	14013.992188	5256.252441	29.861696
578.564819	1527.936890	13843.730469	5208.835449	29.887627
578.906860	1531.906860	13668.176758	5164.395508	29.930851
579.248901	1529.039795	13486.114258	5119.735352	30.029884
579.590942	1528.488525	13311.665039	5076.949707	30.114639
579.932861	1530.473267	13130.047852	5029.312012	30.163511
580.274780	1531.576050	12965.851563	4981.233398	30.169443
580.616638	1528.929443	12799.669922	4933.706055	30.208988
580.958496	1528.267822	12642.088867	4891.691895	30.263435
581.300232	1525.400757	12493.443359	4852.324707	30.332884
581.641968	1525.841919	12354.940430	4808.215820	30.310686
581.983704	1524.187744	12222.283203	4778.993652	30.424162
582.325317	1525.841919	12101.534180	4748.668457	30.473907
582.666992	1527.275391	11995.232422	4713.270996	30.435696
583.008606	1529.591187	11896.317383	4693.973145	30.524406
583.350098	1530.693970	11814.714844	4663.979492	30.467516
583.691589	1529.039917	11735.871094	4648.100586	30.558559
584.033081	1530.473511	11675.662109	4629.684570	30.548578
584.374512	1529.150146	11635.742188	4619.649414	30.579044
584.715881	1530.804199	11580.606445	4609.394043	30.633335
585.057190	1531.245361	11526.683594	4592.191406	30.623430
585.398499	1526.613770	11487.756836	4581.605469	30.669088
585.739807	1531.355469	11463.937500	4581.605469	30.709538
586.081055	1531.134888	11458.313477	4572.342773	30.635170
586.422180	1532.347900	11440.449219	4563.741699	30.595102
586.763367	1531.134888	11435.597656	4558.338379	30.564035
587.104431	1532.237671	11436.257813	4559.220703	30.563173
587.445496	1529.370483	11437.471680	4562.417969	30.611792
587.786499	1529.039795	11440.559570	4560.433105	30.584547
588.127502	1532.237671	11449.160156	4554.699219	30.477816
588.468445	1533.340332	11450.815430	4554.147461	30.459438
588.809326	1533.560913	11456.659180	4558.116699	30.479952
589.150208	1536.207520	11464.377930	4562.307617	30.479939
589.491028	1537.751343	11463.717773	4560.322754	30.451153
589.831848	1533.450562	11459.858398	4567.601074	30.566448
590.172546	1529.591187	11462.835938	4562.749023	30.535416
590.513245	1527.385620	11457.653320	4575.430176	30.694485
590.853943	1526.723999	11469.452148	4578.627930	30.694832
591.194458	1523.084961	11473.973633	4586.567871	30.786024
591.535095	1526.282837	11476.620117	4586.788086	30.757807
591.875610	1528.819214	11484.891602	4592.522461	30.772207
592.216125	1524.739014	11512.017578	4602.777344	30.819592
592.556580	1528.819214	11542.123047	4601.895508	30.689932
592.897034	1527.385620	11559.435547	4598.366699	30.611700
593.237366	1524.408203	11564.838867	4606.967773	30.701468
593.577698	1529.260254	11603.103516	4624.500977	30.725519
593.918030	1530.252686	11650.410156	4641.703613	30.745085
594.258301	1531.686401	11705.215820	4665.522461	30.803823
594.598511	1533.450684	11771.158203	4691.987793	30.851997
594.938721	1535.325317	11857.501953	4726.502930	30.915745
595.278809	1534.443115	11935.464844	4759.143555	31.003691
595.618958	1537.861328	11997.327148	4778.772461	30.985435
595.958984	1535.876587	12031.291016	4798.731934	31.088392
596.299011	1534.663574	12048.934570	4808.215332	31.134365
596.638977	1534.112305	12065.916992	4813.729004	31.140121
596.978943	1536.317749	12067.018555	4811.964844	31.105688
597.318848	1538.302490	12054.998047	4810.090332	31.110418
597.658630	1541.720947	12036.031250	4807.774414	31.122135
597.998474	1541.941650	12002.398438	4799.283691	31.139576
598.338257	1541.610718	11959.060547	4793.880371	31.219439
598.677979	1536.648438	11904.476563	4784.837402	31.329502
599.017700	1535.986938	11873.490234	4770.722656	31.291269
599.357361	1536.317749	11823.316406	4762.121094	31.358059
599.696960	1537.530640	11767.958984	4755.174316	31.451698
600.036560	1535.104736	11732.892578	4746.683105	31.492891
600.376038	1537.420532	11709.957031	4743.154785	31.513620
600.715576	1535.215088	11680.955078	4738.302734	31.570763
601.055054	1530.473267	11653.055664	4725.621582	31.564560
601.394409	1530.142456	11614.680664	4717.461914	31.606003
601.733826	1529.260376	11593.729492	4710.183105	31.605473
602.073120	1523.195435	11560.426758	4706.213379	31.712112
602.412415	1519.335693	11560.868164	4708.859863	31.763321
602.751587	1515.366089	11583.473633	4717.571289	31.805431
603.090820	1516.578979	11618.099609	4731.906738	31.830135
603.429993	1518.563843	11665.185547	4745.580566	31.803852
603.769104	1517.902100	11700.142578	4760.025879	31.840967
604.108154	1517.240479	11724.841797	4773.148438	31.896894
604.447205	1517.571289	11761.012695	4788.036133	31.927402
604.786194	1516.358276	11777.001953	4793.218750	31.936207
605.125183	1519.666504	11801.591797	4802.922852	31.932310
605.464111	1522.423340	11833.351563	4802.040527	31.807198
605.802979	1524.849121	11869.520508	4813.840332	31.794060
606.141846	1523.415527	11894.111328	4828.175781	31.866333
606.480652	1525.621338	11927.525391	4843.724121	31.898994
606.819336	1524.187622	11986.520508	4863.573242	31.918175
607.158020	1522.202759	12036.363281	4882.871094	31.963261
607.496765	1518.453491	12074.296875	4897.206055	32.008358
607.835388	1515.255615	12102.967773	4904.594727	32.012009
608.173950	1520.328369	12105.945313	4914.408691	32.063129
608.512512	1522.313110	12089.955078	4912.312988	32.079060
608.851013	1523.415771	12038.128906	4898.749023	32.101051
609.189514	1528.708862	11961.158203	4868.424316	32.012764
609.527893	1531.575928	11846.584961	4840.415039	32.077908
609.866333	1536.428101	11725.615234	4807.002441	32.098480
610.204712	1538.082153	11597.809570	4765.650391	32.084053
610.542969	1536.317749	11477.282227	4735.986816	32.186703
610.881226	1535.545898	11375.941406	4709.411133	32.253433
611.219482	1536.538330	11296.544922	4684.599609	32.254704
611.557678	1534.774048	11222.221680	4657.362793	32.233353
611.895813	1534.001953	11170.172852	4637.293457	32.204613
612.233948	1529.370605	11119.116211	4619.429199	32.222527
612.571960	1530.693848	11067.949219	4613.695313	32.325874
612.910034	1530.693848	11004.432617	4594.728516	32.342403
613.247986	1530.032227	10945.435547	4575.981934	32.350708
613.585938	1525.510986	10878.611328	4546.318848	32.297394
613.923828	1526.723877	10775.286133	4517.647949	32.339340
614.261658	1528.708740	10655.861328	4487.322754	32.415520
614.599487	1530.583374	10533.898438	4450.711914	32.433922
614.937317	1532.899170	10426.493164	4417.740234	32.437294
615.275024	1529.921753	10327.688477	4382.783691	32.427113
615.612732	1525.951904	10242.007813	4356.097168	32.470482
615.950378	1524.297852	10159.083008	4335.696777	32.558990
616.288025	1523.856812	10087.185547	4320.810059	32.661983
616.625549	1523.415649	10036.679688	4298.424805	32.596302
616.963074	1522.092407	9979.669922	4287.066895	32.692276
617.300537	1521.761597	9949.125000	4276.040039	32.682564
617.638000	1521.761597	9913.396484	4263.689941	32.674541
617.975464	1523.636230	9882.080078	4251.560059	32.636745
618.312744	1525.952026	9843.483398	4246.157227	32.704475
618.650024	1523.746582	9816.908203	4239.981934	32.752708
618.987305	1523.526001	9787.244141	4228.072266	32.727962
619.324585	1529.370483	9754.933594	4226.859375	32.793968
619.661743	1528.267822	9729.902344	4221.786621	32.841244
619.998901	1531.465820	9711.817383	4216.052246	32.817493
620.336060	1534.001953	9686.896484	4209.766602	32.819813
620.673096	1539.184814	9661.203125	4206.017090	32.834599
621.010193	1538.633423	9631.980469	4203.590820	32.927753
621.347168	1535.766357	9616.762695	4192.563477	32.877098
621.684082	1534.773926	9601.544922	4190.027344	32.915939
622.020996	1535.545898	9580.703125	4182.418457	32.900196
622.357849	1540.397827	9554.568359	4173.155273	32.851276
622.694641	1540.397827	9528.212891	4167.090820	32.883747
623.031433	1541.941650	9508.142578	4160.363770	32.869144
623.368164	1542.162231	9502.850586	4157.386719	32.851738
623.704895	1541.059570	9505.497070	4159.371582	32.875038
624.041504	1537.971924	9534.609375	4163.121094	32.828163
624.378174	1534.663818	9550.929688	4167.421875	32.842701
624.714783	1534.994629	9583.019531	4179.110840	32.854225
625.051331	1531.906982	9605.955078	4190.579590	32.928619
625.387756	1531.024780	9641.573242	4194.769531	32.842964
625.724304	1531.906860	9667.598633	4203.260254	32.834988
626.060669	1535.656128	9673.332031	4215.059570	32.925903
626.397034	1532.678955	9680.831055	4215.280273	32.922817
626.733337	1532.568604	9681.161133	4211.861328	32.880436
627.069641	1527.716553	9676.640625	4214.287598	32.968414
627.405884	1528.267944	9668.479492	4213.956543	32.992859
627.742126	1527.937012	9663.517578	4211.310059	32.983177
628.078308	1523.526123	9658.775391	4204.032227	32.949280
628.414429	1523.526123	9645.101563	4207.561035	33.048206
628.750488	1524.959595	9631.758789	4205.907227	33.070362
629.086548	1526.062256	9595.479492	4202.819336	33.171631
629.422546	1523.526123	9564.051758	4194.217773	33.215385
629.758545	1525.069824	9526.228516	4184.513672	33.238235
630.094421	1524.187744	9472.195313	4172.494141	33.320381
630.430298	1525.290405	9417.831055	4155.732422	33.328201
630.766113	1526.282959	9351.777344	4137.758301	33.371380
631.101929	1529.260254	9271.388672	4119.673828	33.458675
631.437622	1531.575928	9189.014648	4109.528809	33.665997
631.773376	1529.149902	9111.272461	4086.922607	33.734257
632.109070	1529.149902	9044.116211	4062.442383	33.709965
632.444641	1525.510864	8975.857422	4040.497803	33.756641
632.780273	1528.378052	8906.606445	4021.090088	33.784695
633.115784	1525.069946	8849.706055	4003.225830	33.833157
633.451294	1521.872070	8788.946289	3988.449463	33.941822
633.786682	1520.438477	8727.304688	3969.703125	33.985153
634.122131	1521.982178	8668.307617	3951.397705	33.995312
634.457458	1520.107666	8613.833008	3929.343262	33.962910
634.792847	1519.997314	8549.323242	3918.536377	34.121891
635.128113	1524.739136	8485.807617	3907.950439	34.236290
635.463318	1526.613770	8434.750000	3890.968018	34.225647
635.798584	1525.841919	8377.078125	3874.537598	34.281342
636.133728	1525.952148	8329.109375	3858.107178	34.280479
636.468872	1525.290527	8283.125000	3843.551025	34.304783
636.803955	1524.739136	8240.559570	3827.451660	34.287880
637.139038	1526.613770	8204.279297	3814.328857	34.259205
637.473999	1525.069946	8163.147949	3802.639893	34.310680
637.808899	1525.400757	8111.651855	3787.422607	34.344604
638.143799	1522.202759	8053.869141	3772.866455	34.457722
638.478638	1523.415771	7994.541504	3746.842285	34.359192
638.813538	1528.047363	7933.230469	3726.110840	34.316952
639.148315	1530.252808	7868.169434	3708.798096	34.373211
639.483032	1530.583496	7802.336914	3692.256592	34.466805
639.817749	1529.150024	7742.680176	3668.989502	34.438381
640.152405	1527.165161	7685.999023	3651.125732	34.486404
640.487000	1529.480835	7628.216309	3627.306641	34.397717
640.821594	1528.819214	7575.727539	3610.876221	34.431763
641.156128	1528.598511	7530.735840	3597.753662	34.473640
641.490662	1528.267822	7483.979980	3584.962402	34.533146
641.825134	1524.959595	7437.886230	3567.979980	34.551762
642.159546	1522.092651	7393.886719	3550.115723	34.538391
642.493896	1519.666626	7349.887695	3544.491699	34.729816
642.828186	1517.902222	7319.563477	3537.985840	34.819057
643.162537	1516.358398	7284.606934	3534.236572	34.982510
643.496765	1515.696777	7244.688477	3527.619873	35.118275
643.830994	1516.027588	7218.002441	3520.893555	35.160908
644.165100	1513.380981	7196.499023	3513.725830	35.198017
644.499268	1510.293457	7173.011230	3509.755859	35.309235
644.833313	1509.301025	7158.014160	3504.352295	35.318687
645.167358	1515.035156	7139.157715	3493.655762	35.180965
645.501343	1513.491211	7132.981934	3494.097168	35.245293
645.835327	1509.962524	7123.058105	3487.811768	35.236336
646.169189	1508.529053	7114.456055	3486.047607	35.275497
646.503052	1512.057617	7104.311035	3487.811279	35.330189
646.836914	1513.932251	7088.541504	3492.443115	35.491470
647.170654	1516.578979	7080.492676	3489.686279	35.462582
647.504395	1517.461182	7083.359375	3490.899658	35.455883
647.838074	1520.107666	7085.785156	3491.230225	35.415680
648.171753	1518.563965	7084.130859	3483.069824	35.297497
648.505371	1519.666626	7081.926270	3483.952393	35.314529
648.838928	1519.666626	7087.440430	3484.173096	35.283516
649.172424	1521.982300	7097.144531	3478.880127	35.100285
649.505920	1522.754150	7098.687500	3473.035645	34.976772
649.839294	1523.526245	7092.181641	3460.244141	34.778915
650.172729	1525.070068	7090.195801	3452.745117	34.638481
650.506104	1525.731567	7093.063965	3450.098633	34.565334
650.839355	1524.959595	7090.638184	3449.877930	34.585510
651.172668	1528.157593	7082.256836	3448.885498	34.582169
651.505859	1533.671265	7068.252441	3442.710205	34.492928
651.839111	1538.082153	7056.342773	3438.520020	34.439072
652.172241	1535.876709	7041.786621	3439.181152	34.568390
652.505371	1535.435547	7022.710449	3429.036133	34.508942
652.838379	1536.648560	7007.603516	3424.514893	34.507072
653.171387	1536.758789	6991.062500	3419.442627	34.517399
653.504333	1537.310181	6964.927734	3414.259766	34.581463
653.837280	1534.001953	6946.622559	3403.122070	34.532627
654.170227	1533.781494	6934.712891	3392.536133	34.415443
654.503052	1535.214966	6922.582520	3388.456055	34.399750
654.835876	1537.751221	6907.695801	3386.250732	34.423065
655.168579	1542.713379	6891.927246	3389.558350	34.525539
655.501343	1541.279907	6883.436035	3393.197510	34.666107
655.833984	1544.477783	6877.039551	3395.072266	34.703671
656.166626	1543.044312	6878.804199	3400.255127	34.806866
656.499268	1544.588013	6896.999023	3406.430908	34.785126
656.831787	1545.580444	6924.126465	3418.780762	34.827263
657.164307	1540.287598	6959.083496	3429.477783	34.863651
657.496765	1539.625854	6995.473145	3450.429199	35.023037
657.829224	1541.059448	7031.642090	3458.368652	34.919960
658.161621	1538.302612	7066.819336	3468.183105	34.907745
658.493958	1535.986938	7092.732910	3476.453613	34.920918
658.826233	1532.568604	7112.912109	3482.960205	34.951103
659.158508	1530.032227	7145.002441	3486.488525	34.843575
659.490723	1530.914429	7156.470215	3493.215088	34.881901
659.822876	1531.576050	7165.181641	3494.648438	34.845757
660.154968	1531.245239	7168.710449	3497.184570	34.872753
660.487061	1529.921875	7173.231934	3497.625732	34.867901
660.819153	1531.906860	7170.034180	3502.146973	34.944939
661.151123	1530.473267	7159.007324	3507.440186	35.124012
661.483093	1531.134888	7142.245605	3502.257080	35.128914
661.815002	1528.708740	7124.049805	3496.302490	35.164860
662.146851	1524.077393	7100.892090	3487.921875	35.214451
662.478760	1521.320557	7082.146484	3476.122803	35.153091
662.810486	1519.666504	7055.461426	3461.126221	35.071018
663.142212	1519.004883	7017.968750	3443.261963	34.993084
663.473938	1521.430908	6967.243164	3425.066895	34.955959
663.805603	1521.320557	6898.985352	3404.114990	35.011375
664.137207	1523.967041	6828.961914	3382.280762	35.029510
664.468689	1525.400635	6759.269531	3349.198975	34.846081
664.800293	1526.172607	6684.834961	3325.490234	34.879539
665.131775	1529.921875	6612.826660	3302.443359	34.872215
665.463196	1529.480713	6554.823730	3282.594238	34.885452
665.794617	1531.906860	6497.812500	3267.045654	34.941032
666.125916	1537.530640	6446.314941	3253.151367	34.950012
666.457275	1537.971802	6413.785156	3240.801025	34.924004
666.788574	1536.979370	6383.789551	3238.485107	35.105682
667.119812	1539.295044	6353.906250	3235.287109	35.225941
667.450928	1540.397827	6330.308105	3224.149658	35.152054
667.782104	1540.177368	6313.988281	3218.746338	35.162033
668.113159	1540.397827	6295.461914	3208.270508	35.075714
668.444214	1535.876709	6287.633301	3210.145020	35.234722
668.775208	1536.758789	6277.928711	3203.639404	35.157581
669.106201	1540.067017	6267.453125	3202.757080	35.171444
669.437134	1543.044312	6245.729004	3195.919922	35.147491
669.768005	1546.904053	6219.263184	3195.147949	35.276478
670.098877	1548.999146	6209.559570	3197.574463	35.372898
670.429688	1548.227295	6190.813477	3192.170654	35.410080
670.760437	1550.101929	6188.717773	3196.251221	35.487942
671.091187	1550.542969	6176.477539	3194.155762	35.530396
671.421814	1549.109375	6162.472656	3193.273438	35.639164
671.752441	1546.573120	6143.506836	3190.847900	35.768948
672.083008	1542.934204	6130.383789	3189.634766	35.895775
672.413574	1544.367798	6119.577148	3187.539551	35.914677
672.744080	1539.846558	6102.816406	3183.018311	36.011017
673.074524	1536.758911	6089.362793	3178.496582	36.061508
673.404968	1535.876709	6066.977539	3171.328857	36.093925
673.735352	1536.869019	6040.401855	3164.161377	36.133686
674.065613	1533.560913	6016.141602	3150.818848	36.078724
674.395935	1531.355469	6001.144531	3141.996582	36.033939
674.726196	1528.819214	5980.192871	3130.528564	35.982361
675.056335	1529.150024	5964.313965	3129.866699	36.091488
675.386536	1531.796509	5940.384766	3121.927490	36.068939
675.716614	1528.929443	5925.387695	3116.634277	36.113274
676.046692	1526.503296	5913.808594	3110.569092	36.105667
676.376770	1526.834229	5913.698730	3108.033203	36.043945
676.706726	1523.856812	5920.866699	3099.652344	35.837891
677.036621	1524.518555	5919.323242	3097.777588	35.798157
677.366516	1525.290405	5932.114746	3094.028564	35.597931
677.696411	1521.210327	5936.635254	3092.484375	35.586021
678.026184	1518.343384	5951.631836	3095.572266	35.576950
678.355957	1517.902100	5965.967285	3108.253418	35.753777
678.685669	1519.997314	5992.542969	3114.208252	35.644371
679.015320	1519.666626	6014.707520	3115.531494	35.502789
679.344971	1521.210449	6027.168945	3115.752197	35.387405
679.674561	1522.313232	6048.010254	3120.493896	35.313469
680.004150	1517.240723	6064.110352	3125.235596	35.364876
680.333618	1518.453735	6078.115234	3135.380615	35.461555
680.663086	1517.791992	6094.435059	3138.799072	35.419128
680.992493	1519.997437	6107.778320	3145.084473	35.422073
681.321899	1521.761719	6110.093750	3148.723633	35.458679
681.651184	1523.746704	6108.219238	3152.583008	35.529415
681.980530	1526.393188	6103.146973	3146.517822	35.398991
682.309753	1526.723999	6094.655762	3143.650635	35.397346
682.638977	1527.385498	6081.533691	3143.099609	35.477852
682.968079	1528.929199	6066.426270	3135.600830	35.408764
683.297241	1531.024414	6046.797852	3129.205078	35.391071
683.626343	1532.678589	6027.499512	3125.566162	35.438290
683.955383	1530.803955	5996.403320	3119.611572	35.578819
684.284363	1533.340332	5959.351563	3119.390869	35.834763
684.613281	1533.119751	5924.835938	3111.892334	35.948875
684.942139	1531.355469	5886.681641	3104.944824	36.130230
685.271057	1532.348022	5854.041016	3089.065674	36.021015
685.599792	1529.260376	5815.224121	3075.171387	36.069157
685.928589	1530.363037	5784.348633	3066.570068	36.112183
686.257324	1527.716553	5753.692871	3061.387451	36.291515
686.585999	1528.488525	5724.580566	3054.330078	36.363400
686.914612	1531.024780	5680.582031	3042.200195	36.417751
687.243164	1531.024780	5642.647949	3023.343262	36.295120
687.571777	1531.245117	5601.516602	3012.316162	36.387524
687.900269	1530.363037	5560.385254	2998.311523	36.425320
688.228699	1528.378052	5526.420898	2989.159180	36.537403
688.557129	1530.362915	5496.758301	2976.919189	36.470299
688.885498	1526.393188	5467.314941	2971.846436	36.678047
689.213867	1525.510986	5442.834473	2965.229980	36.752621
689.542114	1524.628906	5421.772461	2954.864502	36.699589
689.870361	1523.636475	5396.079102	2951.887207	36.882423
690.198608	1522.313110	5375.126465	2951.005127	37.081783
690.526794	1522.533813	5343.258301	2947.365967	37.292198
690.854858	1522.313110	5320.982910	2938.433838	37.279385
691.182922	1516.248169	5299.259277	2926.634521	37.282108
691.510986	1516.358398	5276.433105	2913.181396	37.148811
691.838928	1521.320679	5241.477051	2902.926025	37.138371
692.166931	1522.974731	5200.455566	2896.199463	37.341450
692.494812	1526.282837	5167.484375	2891.898926	37.504543
692.822632	1525.841797	5120.288086	2884.400391	37.796047
693.150452	1527.495850	5083.236328	2873.262939	37.847733
693.478149	1525.952148	5042.655762	2856.722168	37.841404
693.805908	1527.826782	5017.734375	2852.200928	37.948689
694.133606	1527.606079	4996.671875	2853.634277	38.224358
694.461243	1529.039673	4976.712402	2846.797363	38.221657
694.788818	1530.583496	4963.038086	2846.907471	38.349350
695.116333	1532.458130	4961.714844	2846.907471	38.330444
695.443848	1532.347900	4954.547363	2854.626465	38.638268
695.771301	1534.663452	4967.780273	2859.478271	38.589275
696.098755	1536.869019	4989.614258	2865.653564	38.484871
696.426147	1538.302612	5020.049316	2880.650391	38.553864
696.753418	1537.751343	5064.489258	2899.176514	38.602959
697.080688	1537.530640	5103.635742	2918.143311	38.714863
697.407898	1537.199829	5152.597168	2936.007568	38.690289
697.735107	1537.310059	5187.553223	2957.179688	38.897945
698.062317	1540.066895	5222.729980	2973.500244	38.923824
698.389404	1541.831421	5252.503906	2990.702637	39.046055
698.716492	1540.949097	5280.292480	2998.311523	38.973755
699.043457	1536.427979	5295.730957	3006.912598	39.115883
699.370483	1534.884155	5303.449219	3008.566895	39.104614
699.697388	1536.207397	5314.476563	3013.198242	39.091732
700.024292	1536.648438	5318.777832	3018.381104	39.177208
700.351135	1538.192261	5310.507324	3021.027588	39.308365
700.677917	1537.309937	5302.567383	3013.308594	39.200474
701.004639	1538.192139	5290.989258	3010.882568	39.242474
701.331299	1538.853760	5274.338379	3002.501953	39.182285
701.658020	1535.876465	5256.915039	2991.915771	39.129917
701.984619	1535.435303	5223.171387	2984.637939	39.297894
702.311218	1537.640747	5193.177246	2969.861328	39.179489
702.637756	1539.074341	5146.642578	2956.297852	39.284729
702.964233	1536.207275	5091.506348	2938.874756	39.452869
703.290649	1532.678711	5023.027344	2915.055908	39.605705
703.617065	1532.237671	4950.688477	2891.016602	39.748386
703.943481	1531.024658	4864.344727	2861.353271	39.910019
704.269775	1528.708862	4791.344238	2837.754883	40.122353
704.596008	1528.267822	4730.583984	2810.627686	40.044762
704.922241	1525.510986	4663.869141	2789.014160	40.260006
705.248474	1526.503418	4603.991211	2769.605957	40.393417
705.574585	1524.959717	4556.352539	2756.704102	40.632954
705.900696	1525.400757	4518.529297	2739.612061	40.566628
706.226746	1526.503540	4489.969238	2731.010498	40.645210
706.552734	1525.621338	4460.085449	2718.549805	40.652344
706.878723	1523.526245	4434.391602	2708.515137	40.709164
707.204651	1522.533813	4421.049316	2705.647949	40.817932
707.530518	1526.282959	4410.683105	2702.119629	40.765381
707.856323	1523.526123	4401.089844	2696.274902	40.754921
708.182068	1521.761719	4400.096680	2699.914063	40.931732
708.507813	1526.282837	4397.781250	2707.412598	41.132870
708.833496	1525.841797	4395.465332	2709.838623	41.259659
709.159180	1522.092407	4407.264648	2713.587891	41.297203
709.484802	1519.335693	4415.645020	2717.116455	41.355415
709.810303	1521.982178	4421.489746	2720.534912	41.336422
710.135864	1522.643799	4431.855469	2727.041016	41.399437
710.461304	1523.415771	4434.281738	2726.820313	41.341805
710.786743	1522.754150	4447.514648	2730.128662	41.281139
711.112122	1522.974731	4447.183594	2729.797852	41.270069
711.437500	1524.739136	4451.043457	2733.877930	41.319656
711.762817	1526.723999	4454.351074	2737.075928	41.342422
712.088013	1525.952148	4456.335938	2735.201172	41.265892
712.413269	1532.017090	4455.343262	2735.642334	41.173141
712.738403	1533.009521	4461.628906	2735.532227	41.061077
713.063538	1530.142578	4457.989746	2733.767578	41.109558
713.388611	1526.282959	4458.431152	2736.083252	41.259861
713.713623	1523.085083	4456.666992	2737.406738	41.393818
714.038574	1522.533691	4455.343750	2738.840088	41.472389
714.363525	1517.571411	4444.757813	2747.441406	42.015430
714.688477	1518.784424	4438.692871	2746.779785	42.055954
715.013306	1518.233032	4424.467285	2742.479248	42.124828
715.338135	1517.240479	4405.832031	2737.186035	42.233231
715.662842	1516.799438	4392.268066	2732.885254	42.291740
715.987549	1514.704346	4365.250977	2727.041016	42.529972
716.312195	1515.586548	4337.020996	2719.762939	42.679581
716.636841	1510.072876	4309.893555	2714.359619	43.012993
716.961426	1512.940063	4277.473633	2709.397217	43.278805
717.285950	1510.624390	4246.596680	2697.928955	43.396076
717.610474	1510.513916	4219.910645	2692.525635	43.626381
717.934937	1511.616699	4188.042480	2685.909180	43.875397
718.259277	1510.293579	4158.048828	2676.426025	44.042305
718.583679	1511.065308	4126.400391	2664.295898	44.094948
718.908020	1511.506470	4098.060059	2658.230957	44.334068
719.232239	1507.205811	4065.860107	2647.203613	44.554585
719.556519	1505.882568	4031.344971	2637.610107	44.812687
719.880737	1508.529053	4001.350830	2630.662842	45.014603
720.204834	1513.270752	3963.527588	2622.061523	45.252022
720.528931	1516.248047	3929.343262	2614.011719	45.491932
720.852966	1519.335693	3900.341797	2603.535645	45.535370
721.176941	1523.305542	3871.340088	2586.112793	45.263695
721.500916	1525.069824	3841.566650	2577.842285	45.446747
721.824829	1525.510986	3815.542480	2571.777100	45.687847
722.148743	1523.967041	3794.039063	2560.639648	45.666946
722.472534	1524.849243	3771.322266	2551.597168	45.704884
722.796326	1528.047241	3750.590820	2545.642578	45.785172
723.119995	1527.716553	3727.654297	2538.584961	45.949863
723.443665	1531.796631	3714.201172	2530.535400	45.763229
723.767334	1531.686279	3707.695801	2523.036621	45.558182
724.090942	1534.774048	3705.820801	2522.044189	45.474380
724.414551	1535.435547	3699.424561	2511.678711	45.113129
724.737976	1536.207520	3699.755615	2507.709229	44.903172
725.061462	1539.405396	3692.477783	2504.290771	44.814350
725.384888	1539.405518	3692.257324	2506.606689	44.926510
725.708252	1540.949341	3693.801270	2507.377930	44.890617
726.031616	1539.736206	3705.379883	2512.119873	44.900448
726.354858	1541.390381	3719.053223	2515.317627	44.723511
726.678162	1537.751343	3719.604980	2520.941650	45.062160
727.001404	1536.317749	3735.263428	2522.264404	44.837242
727.324463	1538.964355	3741.769775	2519.066895	44.493378
727.647583	1536.758911	3746.511230	2521.272217	44.553104
727.970642	1536.648682	3750.922363	2531.527588	44.930260
728.293701	1536.758789	3754.451172	2539.026367	45.194164
728.616699	1534.002075	3762.831543	2546.635254	45.433407
728.939575	1531.465820	3774.961670	2555.456787	45.642651
729.262512	1528.929443	3786.760742	2559.316650	45.636147
729.585266	1530.473267	3800.875732	2560.198486	45.354305
729.908142	1531.796631	3818.629883	2570.784668	45.433483
730.230896	1532.678711	3826.128418	2578.614258	45.605339
730.553467	1533.450562	3835.611572	2589.090332	45.854294
730.876160	1534.773926	3837.927002	2595.265381	46.045200
731.198792	1536.097290	3846.527832	2606.292725	46.320171
731.521362	1536.758911	3854.026855	2616.327637	46.587994
731.843872	1535.656128	3861.084473	2620.958984	46.671097
732.166321	1532.678711	3866.487793	2620.958984	46.631077
732.488770	1532.017212	3865.495117	2618.091797	46.543167
732.811157	1530.032227	3856.783447	2615.996826	46.673000
733.133484	1528.378174	3843.440918	2615.004395	46.937225
733.455811	1530.693848	3832.854248	2613.460449	47.032631
733.778015	1531.576172	3824.032715	2607.836426	46.947903
734.100281	1528.157593	3820.725098	2608.828857	47.138039
734.422424	1527.385742	3806.279053	2607.505615	47.396683
734.744507	1525.511108	3792.605713	2602.322754	47.497425
735.066589	1524.077515	3784.444824	2594.714111	47.365604
735.388611	1525.511108	3774.409912	2587.215332	47.209957
735.710571	1528.598755	3754.340820	2580.378418	47.255234
736.032532	1531.576172	3740.666748	2579.496582	47.436733
736.354431	1531.024780	3725.558838	2579.717041	47.786552
736.676270	1527.165161	3713.097900	2574.865234	47.929203
736.998108	1525.070068	3704.386475	2572.880371	48.079769
737.319824	1523.967407	3695.013428	2565.381592	47.968319
737.641541	1519.225586	3684.647949	2559.537109	48.041969
737.963135	1520.107788	3675.936768	2556.559814	48.076725
738.284790	1520.218018	3657.190430	2550.053467	48.191330
738.606323	1518.894775	3644.950439	2545.642578	48.293552
738.927856	1519.776978	3628.299072	2543.106445	48.533024
739.249390	1520.659180	3611.537598	2546.304199	49.053307
739.570740	1524.518677	3597.863770	2543.106445	49.127747
739.892212	1525.731567	3585.733643	2541.893311	49.328194
740.213562	1527.385620	3582.977051	2534.395020	48.988796
740.534790	1527.054810	3572.390625	2538.033936	49.428516
740.856079	1529.701416	3558.496582	2534.946533	49.548870
741.177246	1532.458130	3555.850098	2532.630615	49.430485
741.498413	1534.222534	3552.652588	2529.322266	49.300678
741.819580	1531.245117	3538.096436	2526.234619	49.579632
742.140625	1531.796509	3528.392578	2517.743652	49.381401
742.461670	1531.796509	3519.239502	2514.215088	49.431282
742.782654	1530.032104	3500.052002	2504.510986	49.465435
743.103577	1527.275146	3486.708984	2498.556396	49.569485
743.424438	1528.488159	3469.396484	2487.418945	49.406288
743.745300	1528.929443	3453.737305	2478.597168	49.338314
744.066101	1529.260132	3436.093750	2475.950684	49.647255
744.386902	1534.442871	3418.780762	2472.091064	49.760090
744.707581	1532.899048	3395.182617	2465.695313	50.088840
745.028198	1531.906616	3382.722168	2458.417480	50.059601
745.348816	1530.693726	3369.268555	2453.785889	50.206940
745.669373	1530.583374	3360.998535	2448.823730	50.165688
745.989929	1529.921753	3352.176758	2441.766113	50.039337
746.310364	1530.804077	3345.119141	2440.552979	50.142830
746.630798	1530.583496	3336.958740	2439.119385	50.296078
746.951172	1528.378052	3327.034180	2436.913574	50.511909
747.271545	1526.393066	3320.858887	2430.297607	50.371788
747.591858	1525.621216	3316.999268	2428.423096	50.397060
747.912109	1525.621216	3315.676025	2425.004395	50.243332
748.232300	1522.533569	3319.976563	2423.901611	50.147240
748.552429	1526.834229	3321.961426	2423.130127	49.929382
748.872559	1528.267822	3316.889160	2429.966797	50.413074
749.192627	1528.488403	3319.645752	2429.635986	50.310913
749.512695	1530.362915	3321.299805	2430.076904	50.237057
749.832642	1533.781494	3316.337891	2429.305176	50.238167
750.152588	1536.538208	3315.455322	2429.856445	50.216969
750.472473	1537.310181	3308.948975	2431.069580	50.448174
750.792358	1538.854126	3300.789551	2425.004395	50.294140
751.112122	1539.515747	3296.157715	2424.563232	50.382919
751.431824	1540.397827	3291.968018	2420.373047	50.239220
751.751587	1542.162109	3293.952393	2416.844238	49.930756
752.071228	1546.021606	3284.909912	2412.433350	49.825611
752.390869	1547.786133	3282.925537	2413.095215	49.869717
752.710327	1550.542847	3281.712402	2412.543945	49.792992
753.029846	1546.793579	3276.198730	2409.897217	49.907543
753.349304	1546.793579	3271.787598	2406.699707	49.849804
753.668762	1546.793579	3271.125732	2405.045410	49.772999
753.988098	1547.786011	3263.627197	2400.744629	49.710815
754.307434	1547.786011	3258.113770	2398.869873	49.761448
754.626770	1548.006470	3243.006348	2395.451660	49.996769
754.946045	1548.557861	3226.465820	2389.937988	50.144592
755.265259	1546.462646	3212.791748	2385.085693	50.327576
755.584351	1544.698242	3212.901855	2378.800293	50.000015
755.903442	1543.816162	3206.836670	2374.940674	49.976803
756.222534	1541.059204	3204.521484	2373.065918	50.016567
756.541565	1536.097046	3203.859863	2375.933105	50.357044
756.860535	1534.553223	3199.559082	2378.028320	50.658985
757.179443	1535.104614	3201.985107	2372.735107	50.251381
757.498291	1532.237549	3200.220703	2373.727783	50.449566
757.817139	1529.260254	3202.977295	2374.389404	50.494148
758.135925	1529.811523	3206.947510	2376.484375	50.483257
758.454651	1529.370483	3203.639160	2377.807617	50.675087
758.773376	1526.944580	3206.837158	2382.328857	50.918987
759.092041	1526.282959	3200.110596	2382.990723	51.182556
759.410645	1522.864502	3200.110596	2383.101074	51.288631
759.729187	1524.628784	3204.411133	2384.975830	51.217770
760.047607	1525.841797	3205.844971	2381.557129	50.935341
760.366089	1527.716431	3206.396240	2384.755127	51.054329
760.684509	1528.047119	3214.887207	2386.739990	50.905411
761.002869	1528.157471	3226.245117	2393.576904	50.964355
761.321228	1526.834229	3258.114258	2404.714355	50.706997
761.639465	1523.415771	3301.450928	2422.578369	50.570576
761.957642	1524.628784	3355.594971	2439.229492	49.951809
762.275879	1524.297974	3392.095215	2457.424561	49.958668
762.593994	1528.047241	3424.294678	2481.243408	50.267498
762.912109	1529.811646	3457.266357	2495.358398	50.094395
763.230103	1533.781494	3481.416016	2501.423340	49.682926
763.548157	1530.914429	3510.197266	2508.922119	49.412224
763.866150	1530.142578	3521.555176	2522.044434	49.808956
764.184021	1533.671265	3534.346680	2529.212158	49.760239
764.501892	1533.561157	3543.609863	2534.063965	49.775051
764.819702	1535.545898	3548.902832	2537.261963	49.753525
765.137451	1534.443115	3551.218262	2541.121582	49.915257
765.455200	1535.215088	3557.062988	2539.026123	49.648197
765.772888	1536.317749	3558.386230	2538.144043	49.544628
766.090515	1535.215088	3556.290527	2535.608154	49.498058
766.408081	1536.758789	3554.195313	2530.204590	49.242977
766.725586	1537.310181	3549.674805	2528.550537	49.257492
767.043091	1536.207397	3542.837891	2526.565674	49.354294
767.360535	1533.671143	3533.905518	2526.676025	49.644428
767.677917	1533.560791	3512.953613	2516.310547	49.649052
767.995239	1531.686157	3482.959473	2506.716797	49.968941
768.312500	1535.104614	3428.705322	2489.955078	50.425121
768.629822	1532.678711	3368.716797	2473.855225	51.261272
768.947021	1531.576050	3315.345703	2453.454834	51.681492
769.264160	1528.378174	3279.175537	2424.232666	51.168369
769.581299	1528.488281	3238.375000	2408.243164	51.451061
769.898376	1523.856812	3201.103027	2392.584229	51.794865
770.215393	1529.260132	3163.059082	2381.667480	52.173332
770.532349	1530.252563	3136.483643	2365.787842	52.018372
770.849304	1527.495850	3109.136230	2357.407471	52.471577
771.166199	1529.590942	3082.450195	2344.174805	52.457031
771.483032	1529.921753	3060.395264	2335.683838	52.647896
771.799866	1530.031982	3043.634033	2324.436035	52.484341
772.116577	1529.590942	3022.461670	2317.709473	52.792149
772.433350	1529.591064	3013.529541	2312.305908	52.745773
772.749939	1528.929443	2994.341797	2307.233398	53.111599
773.066589	1530.583374	2978.242188	2305.689697	53.542057
773.383057	1531.245117	2968.758545	2299.734863	53.459656
773.699646	1533.671021	2958.282959	2290.030762	53.092335
774.016113	1537.089478	2946.924561	2283.855713	52.968338
774.332520	1537.971680	2943.947266	2280.988525	52.847065
774.648804	1539.625610	2932.699463	2275.915771	52.853634
774.965149	1537.751099	2931.486328	2266.542725	52.290535
775.281433	1539.956543	2928.178223	2262.462891	52.045460
775.597656	1539.846313	2922.885010	2258.162109	51.937504
775.913879	1540.838867	2908.549561	2256.066895	52.293808
776.229980	1539.625854	2895.647949	2248.458252	52.272923
776.546082	1542.603149	2887.598145	2248.678711	52.496521
776.862122	1539.515503	2881.974121	2242.282959	52.349281
777.178162	1536.979248	2869.513428	2241.731445	52.888115
777.494141	1540.728516	2869.292725	2236.328125	52.357243
777.809998	1537.971680	2867.638672	2237.430664	52.604073
778.125854	1533.340332	2864.220215	2234.343262	52.672142
778.441711	1534.332642	2860.581299	2232.909668	52.673157
778.757446	1531.796509	2852.420898	2231.034912	52.947559
779.073181	1534.112183	2842.276123	2228.608887	53.089424
779.388855	1534.222412	2846.466309	2226.072754	52.722694
779.704468	1531.465576	2844.040283	2220.889893	52.524578
780.020020	1532.568359	2835.549561	2223.426270	53.021324
780.335571	1528.488403	2833.233887	2224.639160	53.355293
780.651062	1527.385620	2824.853271	2224.639404	53.739590
780.966553	1523.856934	2813.605225	2222.543945	54.172356
781.281860	1524.298096	2804.231934	2217.912598	54.191433
781.597290	1525.511108	2792.984131	2217.361328	54.585007
781.912476	1522.754272	2783.169922	2208.429199	54.400700
782.227722	1523.746704	2773.355713	2203.356689	54.385811
782.542908	1521.651611	2765.857178	2205.341797	54.949940
782.858093	1520.769409	2761.225586	2204.569824	55.124916
783.173218	1522.313232	2755.491455	2199.056152	54.877949
783.488281	1521.982422	2742.258789	2200.158936	55.575649
783.803345	1523.305664	2738.840332	2198.173828	55.520271
784.118225	1517.902100	2726.930908	2192.439453	55.791668
784.433167	1519.335693	2714.801025	2180.970947	55.345417
784.748047	1521.761719	2708.625732	2178.324707	55.319141
785.062866	1518.674072	2699.252441	2172.479980	55.380135
785.377686	1521.210327	2698.039551	2172.369629	55.331673
785.692444	1517.791870	2690.100098	2167.187012	55.394573
786.007141	1519.114990	2681.057861	2165.202148	55.604038
786.321716	1519.666504	2675.654297	2170.385010	56.291122
786.636353	1516.358276	2677.639160	2164.320068	55.797165
786.950928	1516.137695	2676.205566	2170.605713	56.416355
787.265442	1519.115112	2677.087891	2171.818848	56.366070
787.579834	1520.659058	2684.365967	2174.024414	56.145180
787.894226	1519.776978	2687.784424	2175.678223	56.155571
788.208618	1517.681885	2688.776611	2178.435059	56.421837
788.522949	1519.887207	2689.327881	2184.059082	56.793976
788.837219	1519.556396	2690.871582	2186.815674	56.966671
789.151367	1519.887329	2689.438232	2184.169189	56.798027
789.465515	1520.218140	2688.004639	2183.287109	56.779984
789.779602	1521.100220	2684.806641	2182.735596	56.855865
790.093689	1523.967407	2684.475830	2175.237061	56.119339
790.407776	1522.644043	2679.623779	2171.928955	56.118954
790.721741	1523.636475	2679.403076	2174.244629	56.292347
791.035645	1523.415771	2679.072266	2177.332275	56.583984
791.349548	1525.510986	2671.573730	2172.369873	56.441837
791.663391	1529.921875	2665.619141	2176.229492	56.908443
791.977173	1531.134888	2654.701904	2173.914063	57.208797
792.290894	1533.560791	2648.195801	2170.936523	57.182461
792.604614	1532.899170	2638.381592	2167.738525	57.426453
792.918274	1532.127319	2627.244141	2156.931641	57.053669
793.231812	1534.112305	2614.783447	2153.292725	57.295914
793.545410	1535.876587	2603.315186	2144.140137	56.983471
793.858948	1531.796387	2591.957275	2135.759277	56.968983
794.172363	1531.575928	2579.827148	2131.458740	57.227009
794.485840	1531.906738	2572.990234	2126.716797	57.133751
794.799194	1533.009521	2566.925293	2124.952637	57.252548
795.112488	1534.442871	2563.065674	2121.864990	57.107632
795.425781	1536.427856	2558.434326	2118.446533	56.948631
795.738953	1536.538086	2551.928223	2117.123291	57.178535
796.052185	1540.177124	2545.752930	2118.005615	57.462448
796.365234	1536.868896	2541.672852	2116.682373	57.704140
796.678284	1533.671143	2542.995850	2117.785156	57.871765
796.991333	1533.671021	2542.113770	2116.572266	57.802116
797.304382	1533.009521	2535.828369	2112.933105	57.829346
797.617310	1534.553345	2533.402588	2111.168457	57.727943
797.930115	1532.678711	2533.733154	2109.514404	57.622810
798.242981	1527.054810	2533.402588	2105.985596	57.527905
798.555786	1524.849365	2534.505127	2102.677490	57.230209
798.868530	1521.430908	2532.189697	2099.589844	57.200485
799.181213	1523.084961	2532.300293	2102.126221	57.375393
799.493896	1520.879517	2529.984619	2102.898193	57.676716
799.806519	1518.343262	2528.661377	2103.780273	57.945808
800.119080	1519.004883	2524.360596	2095.841064	57.376328
800.431580	1520.989868	2521.603516	2094.297363	57.295589
800.744080	1523.526123	2519.287842	2091.871338	57.076427
801.056458	1525.180298	2511.678955	2091.761230	57.433521
801.368835	1527.716309	2504.952393	2082.277832	56.747959
801.681152	1525.731567	2493.814697	2080.072266	57.261684
801.993408	1522.423218	2482.677002	2077.645996	57.820419
802.305664	1521.982178	2479.148193	2072.683838	57.534603
802.617798	1516.909668	2470.877930	2068.383057	57.808357
802.929993	1518.673950	2462.607422	2069.596191	58.364521
803.242065	1518.012329	2452.241943	2065.846436	58.640198
803.554016	1519.886963	2452.241699	2065.074707	58.474281
803.865967	1521.541138	2451.249512	2062.317871	58.166275
804.177979	1520.438477	2448.823730	2060.774414	58.201694
804.489807	1519.887207	2439.670898	2062.538574	58.997715
804.801697	1522.202881	2436.583252	2063.972168	59.249882
805.113464	1522.974854	2436.031738	2064.302979	59.287449
805.425232	1525.952148	2434.598145	2063.972168	59.211182
805.736938	1523.526123	2427.981689	2056.252930	58.900272
806.048584	1525.400879	2424.673584	2054.157715	58.798275
806.360168	1529.150146	2425.004395	2051.290527	58.284077
806.671753	1527.937134	2423.239990	2054.819336	58.849606
806.983276	1526.172729	2419.160156	2056.142578	59.347961
807.294739	1525.290405	2412.654053	2053.385742	59.512844
807.606140	1521.431030	2407.360840	2048.313477	59.472256
807.917542	1521.541260	2403.611816	2049.416016	59.844959
808.228760	1522.864624	2400.524170	2044.233276	59.404430
808.540100	1523.526245	2402.068115	2037.616821	58.516342
808.851318	1523.967407	2397.877686	2033.867554	58.346966
809.162476	1525.952148	2394.900146	2031.110840	58.134514
809.473633	1524.849487	2395.230957	2025.707397	57.544643
809.784668	1525.731689	2395.010498	2024.053345	57.325871
810.095703	1526.503540	2388.614502	2019.201416	57.150169
810.406738	1527.165161	2381.226074	2019.863037	57.688847
810.717590	1526.282959	2371.742676	2018.098999	58.171432
811.028503	1521.761841	2368.103760	2015.562500	58.345291
811.339294	1521.761841	2361.046387	2012.695557	58.494312
811.650085	1522.423462	2352.776123	2010.048706	58.725079
811.960876	1523.085083	2351.121826	2011.372070	58.969242
812.271545	1523.415894	2351.232178	2014.680054	59.344589
812.582153	1522.202881	2341.197266	2012.254272	59.835747
812.892761	1516.689209	2333.809326	2013.026001	60.742207
813.203308	1519.556396	2328.626221	2007.953491	60.365257
813.513855	1520.218018	2325.428467	2002.109131	59.846603
813.824280	1516.248291	2323.884766	1998.359741	59.694115
814.134705	1519.446045	2318.701904	2000.013916	60.126911
814.445068	1518.233032	2317.819580	1998.801025	60.102062
814.755371	1517.350952	2321.458740	1999.572876	59.969810
815.065613	1516.689209	2320.466064	2002.219482	60.406101
815.375854	1513.932373	2315.172852	2002.219482	60.941395
815.686035	1514.263184	2316.496094	2000.896240	60.659821
815.996155	1515.255737	2312.085205	1999.683228	60.794373
816.306152	1518.674194	2304.807373	1995.603027	60.667690
816.616211	1516.579102	2302.822266	1994.169312	60.743320
816.926208	1518.674316	2306.020508	1989.758545	59.831905
817.236145	1520.659058	2308.997803	1991.302490	59.700661
817.546021	1525.841797	2317.157959	1992.074219	58.918602
817.855774	1526.503540	2324.105225	1991.963867	58.357491
818.165588	1525.400879	2339.763916	1997.367188	57.955273
818.475281	1524.629028	2349.908936	2003.652954	58.043812
818.784973	1525.290527	2366.339600	2013.908325	58.096230
819.094604	1526.062500	2396.885010	2025.597046	57.363533
819.404175	1527.275513	2419.821533	2038.057983	57.227577
819.713684	1526.172729	2456.762939	2056.804199	57.020958
820.023254	1524.298096	2534.284180	2090.437500	56.054180
820.332642	1524.187866	2684.475342	2153.513428	54.238762
820.642090	1523.636475	2922.443848	2257.169678	52.439899
820.951416	1522.974854	3194.376465	2382.770020	51.441566
821.260681	1523.967285	3454.178467	2505.282959	50.839809
821.569946	1525.400879	3665.019775	2609.270020	50.657112
821.879150	1529.150024	3838.809082	2690.651123	50.288853
822.188293	1528.929443	3977.311768	2758.468994	50.218445
822.497437	1528.708862	4100.045410	2814.046143	49.987129
822.806458	1526.613647	4208.553711	2866.315430	49.952713
823.115479	1529.480835	4293.243164	2912.740234	50.049870
823.424438	1529.370483	4370.543945	2954.312988	50.153313
823.733337	1527.165039	4440.566895	2991.033936	50.246033
824.042236	1525.952148	4501.988770	3019.814941	50.196384
824.351013	1526.944458	4551.832031	3048.485840	50.300755
824.659790	1526.944458	4587.119141	3069.106934	50.394588
824.968445	1522.202881	4637.402832	3083.772949	50.127441
825.277100	1523.195313	4701.140625	3107.922852	49.866421
825.585693	1521.871826	4773.699707	3143.210205	49.859291
825.894287	1523.084961	4851.772949	3176.843262	49.681988
826.202820	1521.100098	4899.300781	3199.779785	49.691532
826.511292	1524.959595	4891.250977	3202.977783	49.847679
826.819702	1528.488281	4792.556641	3166.257080	50.175690
827.128113	1529.260376	4605.093750	3084.765625	50.571827
827.436401	1532.678711	4370.654297	2975.154785	50.827641
827.744751	1533.230103	4138.199707	2866.094971	51.166233
828.052917	1533.340210	3952.059082	2776.333252	51.390556
828.361145	1528.819092	3805.065918	2704.876221	51.666504
828.669312	1527.054688	3683.545410	2646.101074	51.892010
828.977356	1525.400635	3573.272705	2593.501221	52.156609
829.285400	1525.841675	3477.335938	2550.163574	52.489105
829.593384	1523.856812	3398.711426	2508.480957	52.517361
829.901306	1522.312988	3322.182373	2468.341309	52.560944
830.209167	1524.849243	3253.482178	2431.399902	52.443214
830.517029	1525.731323	3192.501465	2405.816895	52.801857
830.824829	1524.518311	3135.821533	2378.248779	52.983849
831.132568	1527.606079	3096.564453	2351.231689	52.495060
831.440247	1530.252563	3047.713623	2331.162109	52.779579
831.747925	1528.157471	2990.372070	2307.563965	53.303154
832.055481	1528.488159	2934.133301	2277.018799	53.251751
832.363037	1530.693604	2880.430176	2247.686279	53.120934
832.670532	1532.678589	2841.614502	2225.190674	52.906494
832.977966	1532.568359	2810.517578	2211.296387	53.110722
833.285400	1533.009521	2791.440674	2201.702637	53.137043
833.592712	1533.009399	2771.150391	2190.675293	53.117207
833.900085	1531.355347	2757.917725	2185.823486	53.357918
834.207275	1529.811523	2743.692627	2181.633301	53.697334
834.514526	1529.811523	2728.254395	2175.898926	53.910572
834.821716	1531.465576	2712.705811	2173.472900	54.350277
835.128784	1532.678711	2701.347900	2166.966797	54.274391
835.435852	1535.986816	2698.260254	2167.848877	54.364323
835.742798	1532.568359	2687.894531	2162.225098	54.500343
836.049805	1535.545776	2679.734131	2158.034668	54.404408
836.356750	1536.207520	2666.501465	2156.711182	54.897549
836.663574	1530.031982	2653.048096	2154.285400	55.587219
836.970398	1527.495850	2640.036133	2144.140137	55.426693
837.277161	1529.039673	2629.339355	2134.987549	55.071167
837.583923	1527.385498	2611.916504	2128.481689	55.424526
837.890564	1527.937012	2592.287842	2122.747314	55.884796
838.197205	1528.267822	2561.301270	2107.639893	56.084541
838.503784	1532.237671	2521.272217	2088.894043	56.282803
838.810303	1530.693970	2469.223633	2070.698730	57.537315
839.116699	1530.252808	2421.255127	2054.268311	58.811913
839.423096	1531.024658	2384.203613	2031.000732	58.601547
839.729492	1529.591064	2343.182373	2010.821045	59.148861
840.035828	1528.929443	2307.123535	1995.823608	59.997135
840.342102	1526.723999	2272.056641	1982.921631	61.207253
840.648315	1525.952148	2245.150391	1969.358276	61.652840
840.954529	1526.613892	2223.205811	1958.661865	62.023109
841.260620	1527.606201	2202.033203	1947.083130	62.197529
841.566711	1527.385620	2181.963867	1942.451660	63.409691
841.872803	1526.944458	2162.004395	1933.298950	63.986794
842.178772	1525.731445	2151.308105	1929.108643	64.480858
842.484680	1522.974609	2137.193115	1925.138794	65.475754
842.790588	1521.872070	2127.158203	1918.632813	65.549286
843.096436	1525.841675	2118.667236	1913.670532	65.420403
843.402222	1526.944458	2110.837891	1908.708130	65.382423
843.707947	1523.415771	2102.346924	1906.502563	66.171387
844.013611	1522.423218	2091.429932	1903.745728	67.015465
844.319275	1526.172485	2078.527832	1898.342651	67.378754
844.624817	1527.936890	2068.162598	1891.615845	67.319817
844.930359	1527.826538	2049.857422	1882.022461	67.849609
845.235901	1526.613647	2036.955566	1873.972290	68.063904
845.541321	1525.841797	2020.855713	1866.363647	68.790359
845.846680	1525.510864	2005.638062	1858.534424	69.361526
846.152039	1528.047119	1993.287598	1855.115845	70.301003
846.457275	1528.378052	1981.929443	1852.248901	71.407753
846.762512	1530.032104	1968.806885	1845.411865	71.877365
847.067749	1533.891602	1959.543945	1840.339233	71.994820
847.372925	1534.332764	1948.736938	1832.620117	71.979813
847.677979	1535.325317	1941.789795	1828.650269	72.164963
847.983032	1537.861572	1936.937866	1819.497925	70.572060
848.288025	1535.656006	1930.211548	1811.888916	70.011162
848.592957	1541.390259	1925.138916	1807.588379	69.367828
848.897888	1539.956665	1923.926025	1803.618530	68.667419
849.202759	1540.618286	1920.617798	1799.538452	68.136971
849.507507	1541.831299	1917.199463	1795.899414	67.685043
849.812317	1539.295044	1913.560303	1793.914429	68.031799
850.117004	1541.169678	1907.936401	1791.157593	68.159920
850.421631	1541.941650	1902.863892	1791.929443	69.263618
850.726257	1541.390137	1901.540527	1789.944580	69.014069
851.030823	1540.397827	1898.673584	1790.275269	69.744446
851.335327	1539.736084	1893.821411	1793.142456	71.566467
851.639771	1540.177246	1885.881836	1790.275513	72.344505
851.944153	1540.177124	1881.470825	1786.305786	72.116379
852.248535	1538.964233	1874.854492	1786.967285	73.834549
852.552856	1535.325317	1873.641602	1780.902588	72.588074
852.857056	1534.663696	1873.089844	1773.845093	70.674622
853.161255	1537.861572	1875.515991	1772.411255	69.464417
853.465393	1536.317749	1874.192505	1769.654541	69.060143
853.769531	1532.568359	1873.310669	1769.433960	69.514587
854.073547	1527.165039	1870.884644	1766.456421	69.618195
854.377563	1524.408203	1868.458496	1767.338501	70.608948
854.681580	1520.548828	1865.150269	1767.118164	71.552032
854.985474	1517.681519	1855.446411	1766.015625	73.522774
855.289307	1517.571289	1853.020264	1763.368896	73.274216
855.593140	1517.791870	1852.910156	1764.361572	73.576920
855.896851	1516.137817	1852.469116	1761.163696	72.852539
856.200623	1517.902100	1850.153687	1764.471680	74.211708
856.504272	1518.453613	1852.800049	1765.464111	73.878609
856.807922	1515.917358	1854.454102	1762.707275	72.899002
857.111389	1513.711914	1852.579468	1760.942871	72.957993
857.414978	1516.248169	1844.419312	1758.847900	73.924759
857.718445	1516.358398	1844.419434	1760.391724	74.386559
858.021790	1517.350952	1843.978394	1759.289063	74.071579
858.325195	1517.681763	1841.993530	1758.406860	74.226448
858.628479	1515.917358	1841.000977	1756.532227	74.016304
858.931763	1516.468750	1837.141357	1756.642456	74.896858
859.234985	1515.476318	1831.297119	1758.737549	77.025085
859.538147	1512.609131	1827.547607	1759.399170	78.361351
859.841248	1511.065308	1827.988647	1763.589478	79.679893
860.144287	1514.924927	1826.996094	1764.251099	79.894012
860.447266	1520.989990	1828.098755	1767.008057	80.107796
860.750305	1525.180298	1825.121460	1768.551880	81.139771
861.053223	1529.150146	1825.011353	1771.308594	81.848663
861.356018	1530.804199	1831.076294	1770.646729	79.875061
861.658813	1531.245239	1826.555054	1771.749390	81.441299
861.961609	1528.378296	1823.247070	1771.639526	82.498131
862.264343	1529.370605	1821.813599	1772.190796	83.031631
862.567017	1529.701416	1819.718384	1772.962769	83.878319
862.869629	1529.480957	1819.608032	1774.506714	84.454636
863.172180	1532.017212	1819.497803	1774.616821	84.388168
863.474670	1527.385742	1816.961304	1776.601929	86.062576
863.777161	1522.643921	1821.151733	1777.814697	85.482109
864.079590	1521.541138	1821.151733	1770.646973	83.143196
864.381958	1521.982300	1821.703369	1770.647095	82.965401
864.684265	1520.107666	1823.688110	1769.323608	82.092224
864.986511	1518.784302	1824.680420	1770.757202	82.372047
865.288757	1520.217896	1824.901001	1770.536621	82.157074
865.590942	1520.438477	1827.106445	1772.301147	82.128784
865.893066	1519.556396	1829.532593	1772.852539	81.714706
866.195068	1517.791992	1828.429932	1771.418701	81.647049
866.497131	1518.894775	1829.311890	1771.198242	81.278854
866.799133	1514.263062	1824.459961	1769.875000	82.403122
867.100952	1509.852295	1821.703125	1768.331055	82.885384
867.402832	1512.939819	1822.364746	1767.118164	82.145401
867.704651	1513.491211	1821.372192	1765.794678	81.948380
868.006409	1515.696533	1822.364624	1765.684326	81.517380
868.308105	1519.335571	1826.775635	1769.764526	81.456184
868.609802	1517.681519	1830.524902	1769.654419	80.542824
868.911438	1515.696655	1832.620361	1764.361206	78.461960
869.213013	1517.571411	1829.863281	1761.714844	78.177963
869.514465	1518.343384	1829.311768	1761.714844	78.262444
869.815979	1522.423340	1833.281616	1762.045532	77.084061
870.117371	1526.834351	1834.825562	1759.950562	75.689240
870.418701	1529.370605	1835.487183	1765.464111	77.125359
870.720093	1530.914429	1839.015991	1764.581787	75.841019
871.021301	1533.671265	1839.787964	1768.110718	76.584991
871.322571	1535.656128	1838.133911	1765.354004	75.938759
871.623718	1534.553467	1840.339233	1768.882568	76.631790
871.924805	1534.222656	1845.191406	1766.897705	74.822647
872.225891	1536.207397	1847.837769	1769.213501	74.770027
872.526917	1541.279907	1846.845459	1770.426392	74.990944
872.827881	1541.831299	1848.389282	1767.118286	73.489189
873.128784	1544.808594	1851.476807	1768.882568	73.067230
873.429626	1546.462646	1858.203491	1768.992798	71.383057
873.730408	1542.603149	1858.313599	1770.647095	72.231995
874.031189	1541.279907	1857.651978	1770.867798	72.568947
874.331848	1539.956543	1858.534180	1767.228638	71.339622
874.632568	1537.530640	1857.431396	1763.038330	70.493019
874.933167	1537.640869	1854.123169	1763.479370	71.358971
875.233704	1539.956665	1853.130737	1764.692505	71.760681
875.534241	1538.082031	1853.902710	1765.133423	71.892502
875.834717	1537.751221	1853.351318	1767.007813	72.641479
876.135071	1536.427979	1851.256104	1763.699585	72.189102
876.435425	1533.450684	1851.035767	1765.023071	72.916641
876.735779	1531.355469	1852.579468	1766.235840	73.120430
877.036011	1528.488403	1853.240845	1770.205688	74.431244
877.336182	1526.172729	1851.586914	1771.859985	75.499863
877.636353	1526.944580	1856.659424	1775.168213	75.284340
877.936462	1525.841797	1863.276001	1777.704468	74.640526
878.236511	1527.937012	1868.348633	1777.153076	73.210213
878.536560	1527.165161	1875.295776	1778.366211	72.157127
878.836487	1523.415771	1889.961914	1782.997559	70.818314
879.136414	1521.431030	1918.963745	1800.310303	70.152534
879.436279	1522.313232	1970.460938	1823.798218	67.273575
879.736084	1522.313110	2053.055176	1859.416260	63.515438
880.035828	1522.864502	2156.711426	1909.480103	60.995106
880.335510	1523.967285	2274.923584	1970.130005	59.412609
880.635193	1523.305664	2391.922607	2032.875000	58.664448
880.934753	1524.518555	2499.879639	2082.056641	57.162224
881.234314	1524.959717	2592.508545	2129.032715	56.585045
881.533752	1523.415771	2675.213135	2174.354736	56.515060
881.833252	1523.085083	2748.654541	2209.531738	56.010426
882.132629	1521.320679	2812.833252	2239.194824	55.583984
882.431946	1519.776855	2872.160156	2271.725342	55.601727
882.731323	1522.864502	2918.805176	2298.080811	55.533615
883.030579	1526.613647	2956.518555	2317.488770	55.309631
883.329712	1526.723877	2991.364746	2333.368164	55.074543
883.628845	1526.282837	3021.027832	2343.292725	54.658813
883.927979	1529.480713	3040.325439	2355.753418	54.689453
884.226990	1530.693604	3058.410156	2360.274658	54.302029
884.526001	1530.803833	3066.460205	2372.514893	54.811161
884.824951	1530.142212	3073.297119	2373.727783	54.666294
885.123840	1530.473145	3074.620361	2369.096436	54.309803
885.422729	1530.473145	3053.227539	2364.023926	54.739674
885.721497	1530.914307	3009.008301	2342.189697	54.886589
886.020203	1532.899292	2928.619141	2312.195557	55.834721
886.318909	1532.678711	2828.602051	2261.690674	56.254250
886.617554	1529.149902	2714.249512	2199.276367	56.546005
886.916138	1528.047241	2597.140137	2142.265381	57.452271
887.214661	1524.408203	2491.829590	2094.297119	58.908035
887.513184	1524.518677	2402.067871	2047.321045	59.575279
887.811523	1527.495850	2321.127686	2000.896240	59.649876
888.109924	1514.483765	2151.307861	1824.790771	48.727272
888.408264	1528.378052	2035.521729	1970.681396	87.214600
888.706543	1546.903931	1977.628662	1834.053711	66.666656
889.004761	1565.429688	1931.314087	1868.789551	82.911392
889.302979	1509.852295	1919.735474	1785.423462	67.231636
889.601135	1470.484985	1905.841187	1699.741699	52.659573
889.899170	1489.010742	1859.526611	1806.265015	85.625015
890.197205	1468.169312	1882.683960	1790.054932	77.653618
890.495178	1528.378052	1875.736694	1743.740479	62.000019
890.793091	1560.798218	1901.209717	1725.214600	48.299305
>>>>>End Processed Spectral Data<<<<<
