Jaz Data File
++++++++++++++++++++++++++++++++++++
Date: Fri Jun 21 02:23:47 2019
User: jaz
Dark Spectrum Present: Yes
Reference Spectrum Present: Yes
Processed Spectrum Present: Yes
Spectrometers: JAZA3541
Integration Time (usec): 119000 (JAZA3541)
Spectra Averaged: 1 (JAZA3541)
Boxcar Smoothing: 10 (JAZA3541)
Correct for Electrical Dark: No (JAZA3541)
Strobe/Lamp Enabled: Yes (JAZA3541)
Correct for Detector Non-linearity: No (JAZA3541)
Correct for Stray Light: No (JAZA3541)
Number of Pixels in Processed Spectrum: 2048
>>>>>Begin Processed Spectral Data<<<<<
W	D	R	S	P
190.543274	0.000000	0.000000	0.000000	0.000000
190.921555	0.000000	0.000000	0.000000	0.000000
191.299805	1558.482544	1405.644653	1572.376831	-9.090865
191.678024	1533.009521	1440.380615	1567.745361	-37.500000
192.056229	1539.956665	1535.325317	1593.218384	-1150.026367
192.434387	1519.115234	1551.535278	1632.585693	350.000946
192.812531	1604.796997	1597.849854	1665.005859	-866.670776
193.190659	1556.166748	1542.272461	1648.795776	-666.669861
193.568741	1623.322754	1530.693848	1627.954224	-5.000026
193.946793	0.000000	0.000000	0.000000	0.000000
194.324829	1410.165894	1403.770142	1476.108765	-1031.041748
194.702835	1483.938232	1477.322021	1556.938599	-1103.356079
195.080811	1555.725708	1551.645752	1634.239746	-1924.384399
195.458755	1552.307251	1560.467407	1637.658081	1045.946045
195.836685	1553.520386	1565.540039	1638.871094	710.092957
196.214569	1554.953857	1568.627808	1640.304688	624.185608
196.592422	1551.425171	1571.164063	1641.627930	456.979858
196.970261	1549.219727	1570.833130	1639.532715	417.856384
197.348068	1548.999146	1571.274170	1639.091675	404.455353
197.725861	1545.690796	1573.810425	1639.422607	333.332306
198.103622	1539.625854	1573.589844	1636.334961	284.740143
198.481323	1540.287598	1569.399536	1635.452759	326.893921
198.859039	1539.846436	1568.958374	1635.342407	328.030273
199.236694	1536.758789	1568.296631	1632.806152	304.546417
199.614334	1539.295166	1566.201660	1633.357544	349.589874
199.991959	1540.728760	1571.604858	1633.578369	300.716766
200.369553	1537.751465	1570.502075	1632.916504	290.574860
200.747101	1536.759033	1571.935669	1632.585571	272.415314
201.124619	1535.215210	1570.502197	1633.467773	278.438507
201.502136	1531.796631	1571.274048	1636.665771	265.643372
201.879623	1529.922119	1568.517334	1631.262451	262.572266
202.257065	1525.621216	1569.730225	1629.828857	236.250244
202.634476	1525.621216	1573.589600	1625.528442	208.277237
203.011871	1524.187744	1573.258911	1626.410522	208.315353
203.389221	1524.408203	1571.715088	1624.645996	211.888382
203.766571	1523.415649	1570.722656	1627.292603	219.580475
204.143875	1523.305542	1567.635010	1628.064575	236.319183
204.521164	1526.613770	1564.878296	1625.859009	259.366180
204.898392	1524.408203	1563.444702	1626.410400	261.299561
205.275620	1523.856812	1563.665405	1627.844116	261.218231
205.652817	1524.297852	1562.783081	1627.623535	268.481415
206.029984	1529.370483	1566.422241	1630.049316	271.724854
206.407135	1528.378052	1568.848267	1630.600830	252.587677
206.784225	1530.473389	1569.950928	1629.718750	251.397034
207.161301	1530.252808	1570.281616	1626.079590	239.394547
207.538376	1528.929443	1571.274170	1625.087036	227.082809
207.915405	1529.260376	1568.517456	1626.410522	247.471664
208.292404	1529.480835	1568.737671	1630.380249	257.023804
208.669373	1525.952148	1570.833008	1632.475464	237.346878
209.046310	1524.628784	1571.053589	1631.041992	229.216278
209.423218	1528.267822	1569.509644	1628.395508	242.781921
209.800095	1530.032227	1570.612549	1632.475464	252.445602
210.176956	1530.032227	1570.833130	1631.703491	249.188766
210.553787	1531.686279	1566.201660	1631.593140	289.456055
210.930603	1535.435425	1566.091553	1631.813599	314.384705
211.307358	1536.648438	1565.760620	1633.578125	332.952332
211.684113	1538.412842	1570.391968	1631.593140	291.378510
212.060837	1534.773804	1573.920776	1629.828857	242.815842
212.437531	1533.340210	1574.802856	1629.166992	231.115936
212.814178	1532.458130	1578.772705	1626.851563	203.809341
213.190826	1532.788940	1580.426758	1628.284912	200.462524
213.567413	1530.914307	1580.095947	1628.395264	198.205994
213.943985	1528.267822	1576.015869	1628.836548	210.623749
214.320541	1528.488281	1577.669800	1625.969360	198.206726
214.697052	1527.716431	1577.228760	1626.630981	199.777618
215.073563	1529.591064	1581.198486	1627.292603	189.316833
215.449997	1529.921875	1582.852661	1627.292603	183.958588
215.826431	1528.708862	1588.586670	1626.851563	163.904968
216.202850	1529.370483	1590.792236	1621.007080	149.192413
216.579224	1533.119751	1588.807495	1617.147461	150.890854
216.955582	1533.560791	1588.586914	1618.140015	153.707397
217.331894	1531.135010	1586.932861	1617.809326	155.336304
217.708191	1532.017090	1588.035400	1618.250244	153.937439
218.084442	1537.420532	1591.674438	1621.999634	155.894958
218.460678	1534.443115	1598.180420	1625.087280	142.215240
218.836899	1532.678711	1603.694214	1623.543335	127.950409
219.213074	1532.127563	1606.892090	1623.874268	122.714218
219.589233	1531.024658	1605.348389	1625.528320	127.151398
219.965347	1533.891846	1609.869385	1624.646240	119.448982
220.341431	1535.987061	1615.713867	1628.064575	115.491287
220.717499	1535.435669	1614.721558	1629.166992	118.219429
221.093552	1534.002075	1619.242554	1628.946777	111.384521
221.469543	1535.104858	1625.197510	1629.387817	104.651108
221.845535	1536.207642	1630.380249	1630.270142	99.883080
222.221466	1537.310303	1634.350098	1636.334961	102.045410
222.597397	1535.435547	1642.069214	1636.224731	94.519104
222.973297	1537.420532	1647.362183	1640.635620	93.881699
223.349167	1536.979492	1655.853271	1644.053711	90.073875
223.725006	1537.530640	1662.359375	1644.053955	85.335571
224.100800	1538.082153	1671.952881	1646.700317	81.136604
224.476578	1538.854004	1682.097900	1653.095947	79.753448
224.852325	1537.971680	1701.726563	1652.986084	70.235710
225.228058	1541.279907	1724.332397	1654.640015	61.927650
225.603760	1540.838867	1750.246460	1658.058350	55.976711
225.979416	1536.317749	1779.248169	1658.389282	50.249588
226.355057	1535.325195	1813.322388	1660.264160	44.942528
226.730652	1533.671143	1852.028076	1664.344360	41.046135
227.106232	1534.773926	1886.543335	1666.659790	37.492134
227.481796	1531.575928	1920.286865	1673.937866	36.624115
227.857315	1528.378052	1946.972900	1681.436401	36.564796
228.232788	1528.819214	1971.673950	1682.980225	34.810741
228.608246	1531.465698	1999.903687	1688.163086	33.451042
228.983704	1534.112305	2022.950684	1685.185669	30.904562
229.359100	1531.575928	2040.263428	1682.318481	29.633627
229.734482	1528.378052	2061.546143	1679.892456	28.417755
230.109833	1529.039795	2075.881592	1677.466553	27.142540
230.485153	1528.488403	2087.349609	1677.025513	26.578533
230.860443	1521.541260	2101.575195	1678.679443	27.091206
231.235703	1520.879517	2121.534668	1674.268555	25.536955
231.610931	1519.225464	2137.523926	1676.474121	25.432484
231.986145	1517.240479	2152.079834	1679.451660	25.551533
232.361313	1516.468506	2165.532959	1673.938110	24.261011
232.736465	1519.115112	2169.833984	1675.592285	24.046816
233.111572	1517.571289	2172.921387	1676.364014	24.230213
233.486664	1518.894653	2171.708252	1676.143433	24.087852
233.861725	1517.350586	2169.944092	1675.812744	24.281908
234.236755	1520.107422	2156.931885	1675.702515	24.432964
234.611771	1522.313110	2138.516357	1679.892700	25.572664
234.986740	1523.415771	2132.671875	1678.900146	25.520365
235.361679	1526.062256	2128.922607	1679.782227	25.498438
235.736588	1526.393188	2124.952881	1677.797607	25.294790
236.111496	1527.936890	2122.196045	1677.907715	25.236603
236.486343	1528.819092	2122.857666	1677.577026	25.041798
236.861160	1527.716309	2128.371582	1679.782593	25.316732
237.235962	1529.370483	2138.626465	1687.391357	25.936697
237.610733	1532.016968	2152.962158	1689.486450	25.359642
237.985474	1532.016968	2177.111572	1693.566650	25.042789
238.360199	1533.009521	2207.988037	1703.711670	25.290012
238.734879	1534.994385	2240.628662	1706.358032	24.285051
239.109543	1532.347900	2281.539551	1718.487915	24.845448
239.484177	1533.450562	2334.360352	1727.420044	24.218643
239.858749	1535.325195	2397.105469	1735.139160	23.186184
240.233322	1530.804199	2464.923096	1748.040894	23.255787
240.607864	1528.709106	2528.660889	1756.311401	22.761328
240.982391	1529.370728	2583.025391	1768.331055	22.679188
241.356857	1527.826904	2627.685547	1774.616577	22.438309
241.731308	1533.340454	2665.288574	1777.814575	21.597643
242.105728	1529.150024	2699.583252	1779.689209	21.405680
242.480118	1528.708984	2736.414307	1777.814575	20.626356
242.854492	1529.480957	2770.378418	1782.776733	20.412306
243.228836	1527.606323	2818.898193	1783.328369	19.803581
243.603134	1531.245361	2883.187256	1794.355469	19.461643
243.977402	1529.150146	2971.956787	1805.823608	19.176060
244.351654	1526.724121	3079.692871	1821.482544	18.980318
244.725861	1527.495972	3195.809814	1841.111084	18.798328
245.100067	1529.260376	3309.391113	1855.115723	18.305136
245.474213	1530.693970	3406.872070	1871.325928	18.155630
245.848343	1529.150146	3476.453857	1883.455933	18.194685
246.222443	1528.378174	3532.362061	1889.300415	18.010237
246.596512	1530.252808	3565.884766	1898.011963	18.066093
246.970566	1530.804077	3581.543457	1899.445313	17.976017
247.344574	1531.134888	3573.714355	1897.240112	17.923672
247.718567	1528.157471	3552.431641	1894.813843	18.112980
248.092529	1533.561035	3529.936035	1891.836548	17.946302
248.466431	1533.891724	3510.307617	1888.748901	17.954580
248.840332	1534.002197	3506.668945	1886.212646	17.854534
249.214203	1533.891846	3516.923828	1887.866821	17.850189
249.588043	1529.811768	3538.868408	1894.262695	18.140400
249.961838	1525.952148	3566.656982	1904.187134	18.534527
250.335617	1524.629028	3592.460938	1910.472656	18.659330
250.709381	1522.423584	3603.377930	1909.921265	18.621153
251.083084	1521.320801	3591.468262	1909.700684	18.760977
251.456787	1521.982422	3561.474365	1907.936401	18.924026
251.830460	1521.762085	3509.425293	1900.437866	19.051306
252.204071	1522.203125	3429.367188	1892.718750	19.427570
252.577667	1521.761963	3337.069092	1882.463745	19.870014
252.951248	1521.541260	3250.725830	1873.752075	20.368607
253.324799	1517.020142	3177.835449	1867.356201	21.094221
253.698303	1516.248169	3130.969482	1860.739746	21.334429
254.071793	1518.233032	3092.374268	1853.351318	21.288960
254.445236	1520.769287	3078.479736	1850.043213	21.138327
254.818665	1521.541260	3072.855957	1848.830200	21.097521
255.192062	1521.320801	3089.396729	1849.381470	20.921223
255.565430	1525.511108	3120.272949	1854.454102	20.626465
255.938782	1522.092651	3155.891113	1860.077881	20.687082
256.312103	1523.636475	3214.445801	1869.340942	20.446095
256.685364	1522.202881	3288.438721	1878.383179	20.166067
257.058594	1520.107666	3374.341064	1887.977173	19.839439
257.431793	1523.195435	3472.593750	1899.114380	19.283844
257.804993	1527.716431	3583.969238	1912.016357	18.689331
258.178162	1529.150024	3682.222412	1922.823120	18.284248
258.551270	1530.032227	3768.455322	1937.820068	18.217640
258.924377	1529.370483	3840.132080	1947.744751	18.105471
259.297485	1525.290405	3899.569580	1952.927490	18.011238
259.670502	1529.149780	3942.906982	1954.140381	17.607014
260.043518	1533.891602	3992.750732	1955.132813	17.131571
260.416473	1530.362793	4040.167725	1955.022705	16.920036
260.789459	1527.606079	4078.542725	1957.779541	16.863354
261.162354	1530.803955	4110.521484	1961.308228	16.688040
261.535278	1529.149902	4134.229980	1968.586182	16.868437
261.908142	1529.370483	4159.372070	1977.187500	17.027254
262.280975	1526.613647	4174.479004	1975.864258	16.966520
262.653717	1530.583374	4190.909668	1973.768921	16.659067
263.026520	1530.914307	4200.062012	1975.533325	16.657715
263.399261	1525.952148	4207.781250	1974.099854	16.710524
263.771973	1526.834351	4219.911133	1974.430786	16.620264
264.144653	1523.084961	4213.735840	1973.548706	16.741814
264.517334	1525.290405	4186.388184	1969.799316	16.703968
264.889954	1525.952148	4137.316406	1961.198120	16.667379
265.262543	1526.393188	4074.020508	1953.809692	16.777040
265.635071	1529.480835	3996.830078	1937.930420	16.554188
266.007599	1528.047363	3930.997070	1930.211304	16.736261
266.380127	1524.408325	3887.770752	1924.807861	16.941944
266.752594	1526.503418	3869.796143	1921.058594	16.837639
267.125031	1525.952148	3869.355225	1917.860840	16.723913
267.497437	1520.879517	3888.873535	1922.933350	16.978666
267.869843	1518.674072	3911.148438	1925.800537	17.016962
268.242218	1521.430908	3946.104980	1931.975830	16.931963
268.614532	1521.872070	4017.010498	1942.562134	16.860390
268.986816	1519.004883	4098.060547	1953.258423	16.837696
269.359100	1521.871948	4188.152832	1956.566650	16.303411
269.731354	1522.092407	4275.819824	1961.969849	15.973891
270.103516	1523.084961	4346.615234	1974.761475	15.996872
270.475708	1518.784424	4407.816406	1986.009277	16.172367
270.847839	1522.092529	4464.496094	1992.846191	15.998950
271.219971	1526.944702	4510.920898	1997.036499	15.753873
271.592041	1529.921875	4535.180664	2002.109009	15.712029
271.964081	1532.237671	4553.485840	2004.865845	15.643475
272.336151	1532.237671	4574.547852	2009.938599	15.701915
272.708130	1531.686279	4593.956055	2012.143799	15.689589
273.080109	1530.804077	4614.908203	2012.143799	15.607117
273.452026	1530.252686	4644.680664	2019.862915	15.720712
273.823914	1533.560913	4678.535156	2024.825195	15.620614
274.195770	1535.435425	4714.483887	2029.015869	15.526044
274.567627	1536.979126	4748.447754	2033.757446	15.468883
274.939423	1537.420288	4784.065918	2041.476563	15.525449
275.311249	1538.853882	4807.002441	2043.461304	15.440163
275.682983	1536.979370	4827.954590	2049.526611	15.574327
276.054688	1534.443115	4832.806641	2050.077881	15.633048
276.426422	1536.648560	4815.052734	2045.115356	15.509582
276.798065	1537.530640	4785.389648	2038.057983	15.410995
277.169708	1537.199951	4757.159668	2035.962646	15.489718
277.541321	1539.515625	4739.075195	2034.749634	15.478193
277.912903	1539.074585	4743.375977	2034.749756	15.469056
278.284424	1539.736206	4756.277344	2036.183228	15.434189
278.655945	1535.656250	4777.670410	2041.145630	15.591831
279.027435	1538.523315	4811.523926	2050.298340	15.636265
279.398865	1537.971924	4872.173828	2058.899658	15.623761
279.770294	1538.412964	4936.683105	2067.611084	15.572575
280.141663	1538.082275	4996.009766	2072.573242	15.456974
280.513031	1541.500610	5055.887695	2082.498047	15.393791
280.884369	1538.523193	5092.829102	2089.996582	15.515642
281.255676	1540.177368	5132.637207	2094.958740	15.442938
281.626953	1538.412964	5166.601074	2100.582520	15.494499
281.998199	1539.736206	5202.770996	2102.898193	15.374192
282.369385	1540.508057	5250.519043	2109.625000	15.340034
282.740540	1542.603271	5308.743164	2111.279053	15.099699
283.111694	1540.397827	5362.334961	2122.526855	15.231256
283.482819	1541.059326	5430.263184	2128.922607	15.115260
283.853912	1542.382813	5511.203613	2141.493652	15.095437
284.224945	1538.743774	5583.652832	2156.049561	15.261302
284.595978	1542.272461	5653.455566	2163.989258	15.122576
284.966980	1541.941650	5715.318359	2168.400146	15.010829
285.337952	1537.861450	5756.670410	2176.229492	15.131475
285.708893	1539.405273	5777.953613	2180.199463	15.118247
286.079803	1540.949097	5798.574219	2183.066650	15.081590
286.450684	1543.154785	5811.917480	2186.374756	15.068066
286.821533	1537.861572	5818.423340	2186.815918	15.160496
287.192322	1536.097412	5819.305176	2184.720703	15.143399
287.563110	1538.082275	5831.985840	2187.146484	15.115949
287.933868	1538.854126	5849.850098	2196.630127	15.258098
288.304596	1538.523315	5884.034668	2203.797852	15.309465
288.675262	1538.743896	5930.018555	2212.619385	15.345784
289.045929	1537.641113	5962.328613	2222.874512	15.486594
289.416565	1536.869141	5990.999023	2223.867188	15.423844
289.787170	1538.302734	5998.938477	2225.300781	15.401348
290.157745	1535.545898	6001.916016	2225.080322	15.438363
290.528259	1536.317749	5993.204102	2231.807129	15.604827
290.898773	1539.736084	6004.672852	2232.579102	15.517422
291.269226	1537.751221	6002.908691	2234.343262	15.600616
291.639679	1538.192261	5995.741211	2236.989990	15.676726
292.010101	1540.397827	6016.803223	2234.232666	15.499822
292.380463	1537.199829	6050.877441	2242.393066	15.623473
292.750824	1539.625854	6085.503418	2258.382324	15.811172
293.121155	1537.640869	6131.597168	2265.108887	15.835328
293.491455	1534.884155	6201.399414	2274.482422	15.849049
293.861725	1532.458130	6279.141602	2286.391846	15.883378
294.231964	1532.458130	6366.808594	2299.183350	15.859942
294.602142	1535.766235	6463.296875	2313.298096	15.779341
294.972321	1533.009399	6543.686035	2325.538574	15.816809
295.342468	1527.716309	6605.217773	2337.337891	15.945275
295.712555	1525.731445	6647.011230	2335.683594	15.815425
296.082672	1529.370483	6671.602051	2336.565918	15.697376
296.452728	1529.811523	6675.351074	2339.433105	15.734435
296.822693	1528.378052	6675.020020	2337.117432	15.713923
297.192657	1527.495850	6668.844727	2341.969482	15.841634
297.562622	1525.510986	6691.009766	2349.247314	15.946888
297.932556	1531.355469	6707.330566	2355.643311	15.925267
298.302460	1530.693848	6710.307129	2353.106934	15.877886
298.672333	1529.260376	6708.653320	2355.753418	15.957334
299.042145	1529.260376	6706.778809	2355.312500	15.954596
299.411957	1527.716553	6705.897461	2346.711182	15.816262
299.781677	1527.716553	6663.441406	2345.498047	15.923390
300.151428	1527.496094	6619.552734	2339.212891	15.940844
300.521149	1524.629028	6556.917969	2328.405762	15.972388
300.890839	1525.842041	6491.747559	2318.591553	15.963847
301.260468	1526.503662	6415.769531	2309.218506	16.008842
301.630096	1525.621338	6328.434570	2299.624756	16.115625
301.999695	1525.290527	6236.907715	2287.825195	16.184139
302.369232	1523.526245	6126.966309	2271.504639	16.248249
302.738739	1525.952148	6024.302246	2259.705811	16.311617
303.108246	1529.922119	5926.270020	2243.936768	16.241087
303.477692	1530.363159	5852.166504	2234.012451	16.281382
303.847137	1526.724121	5775.858398	2228.057617	16.505327
304.216553	1530.363037	5724.691406	2222.433838	16.500158
304.585876	1531.465820	5688.742188	2214.494141	16.429707
304.955231	1535.215088	5666.687988	2210.083008	16.334803
305.324493	1534.443115	5638.126953	2208.759766	16.431984
305.693787	1530.252686	5612.212891	2208.980225	16.627491
306.063049	1530.032227	5607.581055	2212.178467	16.729321
306.432251	1528.708740	5606.588379	2214.935059	16.828018
306.801422	1529.260132	5598.097656	2218.353516	16.935879
307.170593	1532.568481	5595.450684	2223.867432	17.014988
307.539673	1528.819092	5608.573730	2226.403564	17.098686
307.908783	1531.575928	5615.080078	2227.727051	17.047886
308.277832	1531.355347	5644.522949	2229.601563	16.975876
308.646851	1534.773926	5681.133301	2237.541016	16.949015
309.015839	1536.207520	5715.649414	2239.856689	16.835960
309.384796	1538.082153	5746.415039	2244.819092	16.793751
309.753723	1535.766357	5771.998047	2245.921875	16.763851
310.122620	1533.891724	5793.611816	2251.766113	16.852619
310.491486	1532.899292	5812.357422	2257.390137	16.929501
310.860352	1530.914307	5821.179199	2257.169678	16.927986
311.229126	1534.332886	5826.031250	2259.375000	16.894060
311.597931	1529.701416	5843.123535	2256.508057	16.849886
311.966675	1526.613892	5869.699219	2253.751221	16.742414
312.335388	1526.834351	5896.274414	2260.036621	16.780235
312.704071	1522.974854	5922.739746	2267.094238	16.912708
313.072723	1524.959717	5931.230957	2266.432373	16.827665
313.441345	1523.526245	5931.341309	2261.249512	16.736712
313.809875	1523.195313	5911.823242	2256.177246	16.701847
314.178436	1523.195190	5885.688477	2248.237549	16.619907
314.546967	1521.982178	5851.614258	2242.062256	16.631439
314.915466	1519.446045	5811.254883	2233.681641	16.641832
315.283936	1523.967163	5773.100586	2225.631592	16.513119
315.652374	1523.195557	5733.402344	2220.779785	16.568882
316.020752	1523.416016	5692.822266	2211.957764	16.514143
316.389130	1525.842041	5654.116699	2206.113281	16.478344
316.757416	1525.621460	5628.202637	2202.474365	16.498220
317.125732	1523.085205	5605.376465	2195.306641	16.466768
317.494019	1524.739258	5578.800781	2192.659912	16.475346
317.862274	1526.062378	5549.468262	2191.115967	16.529617
318.230469	1529.922119	5524.436523	2182.625488	16.339993
318.598663	1533.671265	5506.020996	2184.169189	16.375647
318.966797	1531.245239	5488.487793	2179.758057	16.387997
319.334930	1533.781494	5473.932129	2179.316895	16.383520
319.703003	1532.678711	5446.804688	2178.434814	16.498093
320.071045	1530.583374	5422.875000	2175.677979	16.573647
320.439056	1532.127197	5403.687988	2168.400146	16.434534
320.807037	1537.199829	5414.494629	2167.848877	16.265181
321.175049	1538.192261	5435.997559	2170.164551	16.213543
321.542969	1539.074463	5475.586426	2176.891113	16.202583
321.910828	1539.956665	5513.740234	2183.617676	16.197685
322.278717	1543.375122	5567.442871	2189.682617	16.061049
322.646515	1543.375122	5607.582031	2200.709961	16.173754
323.014313	1543.595581	5643.199707	2209.862793	16.251989
323.382111	1542.492798	5687.860352	2215.596680	16.237495
323.749817	1541.941650	5724.360840	2223.646484	16.299295
324.117523	1535.876587	5743.216797	2224.639160	16.370499
324.485199	1533.781372	5748.399414	2228.829590	16.491369
324.852814	1537.971680	5759.096191	2232.027832	16.442448
325.220428	1539.736084	5759.537598	2231.586670	16.395334
325.588013	1537.751221	5774.203125	2231.917480	16.385557
325.955536	1536.317627	5782.694336	2233.791992	16.425163
326.323059	1532.678711	5803.094727	2235.997314	16.469557
326.690552	1531.465698	5815.775879	2238.643799	16.506231
327.058014	1530.914307	5817.209473	2239.415771	16.529461
327.425415	1534.773804	5825.149414	2238.864502	16.410934
327.792816	1535.986938	5825.590332	2234.012207	16.272490
328.160187	1538.082031	5828.567871	2236.327881	16.274284
328.527496	1530.032227	5812.688477	2238.092285	16.533199
328.894775	1529.039673	5795.044434	2238.864258	16.639095
329.262054	1528.929443	5777.400879	2235.776611	16.637682
329.629303	1532.678711	5770.233398	2233.350342	16.534811
329.996490	1530.473267	5766.263672	2230.152588	16.518270
330.363647	1532.237549	5787.656738	2225.962158	16.302147
330.730774	1527.826660	5805.520996	2220.118164	16.183754
331.097839	1528.157593	5829.229004	2224.418457	16.188080
331.464935	1527.936890	5850.953125	2227.616699	16.184992
331.831970	1528.488159	5875.543457	2232.358154	16.191881
332.198975	1526.503296	5903.552734	2233.791748	16.159023
332.565948	1526.613647	5927.261230	2236.769043	16.137520
332.932892	1525.069824	5965.636719	2243.385498	16.176216
333.299744	1527.716431	5998.608398	2244.708984	16.036901
333.666656	1527.936890	6036.652344	2250.112305	16.017321
334.033478	1526.062256	6062.897461	2252.869141	16.020130
334.400299	1526.282837	6098.184570	2258.713623	16.020266
334.767090	1527.385620	6137.110352	2264.337402	15.986894
335.133850	1523.746704	6170.633301	2273.489990	16.134314
335.500549	1522.423462	6201.068848	2279.003662	16.170923
335.867218	1517.681763	6233.599121	2280.878418	16.183418
336.233917	1517.791992	6266.350586	2283.965820	16.134872
336.600525	1517.902222	6286.419434	2287.274170	16.134407
336.967102	1518.453491	6298.108398	2289.148682	16.124495
337.333649	1514.814697	6301.747070	2287.274170	16.136837
337.700195	1515.365967	6302.960449	2289.259033	16.164549
338.066681	1514.814697	6287.301270	2293.780029	16.322002
338.433136	1514.924805	6274.620605	2298.742432	16.467810
338.799591	1517.791992	6256.425781	2298.521729	16.475840
339.165985	1518.674072	6243.192871	2296.647217	16.466719
339.532318	1518.233032	6246.500977	2295.213623	16.432669
339.898651	1522.864380	6259.623535	2295.875244	16.319403
340.264954	1521.320679	6270.540039	2297.308838	16.339279
340.631226	1519.446045	6293.697754	2300.837402	16.366781
340.997467	1514.042603	6324.463379	2305.909912	16.461498
341.363678	1512.278320	6352.583984	2314.731934	16.578573
341.729828	1514.704224	6393.384766	2318.701904	16.479818
342.095947	1517.902100	6440.028809	2327.744141	16.453091
342.462067	1519.335693	6484.028320	2337.117676	16.471956
342.828156	1520.769165	6534.422852	2339.763916	16.335287
343.194183	1523.526001	6589.118164	2350.129395	16.318001
343.560211	1529.811523	6630.911621	2357.187012	16.219551
343.926178	1529.590942	6675.130859	2361.708252	16.171623
344.292114	1528.598511	6720.674316	2361.928467	16.050035
344.658020	1526.723877	6756.071289	2366.229004	16.053726
345.023926	1530.252563	6774.155273	2375.271484	16.114313
345.389771	1530.473267	6798.194824	2382.439453	16.173334
345.755585	1531.024414	6824.880859	2385.416748	16.139318
346.121368	1537.089478	6843.737305	2388.394043	16.042229
346.487122	1534.443115	6866.122559	2391.812256	16.080658
346.852844	1536.869019	6899.425781	2398.208252	16.062101
347.218536	1538.853882	6923.574219	2403.280518	16.053326
347.584167	1539.184814	6951.252930	2410.337891	16.096491
347.949768	1540.177246	6975.071289	2413.535889	16.069469
348.315369	1540.838867	6981.578125	2420.703613	16.171787
348.680939	1544.477905	6995.692871	2422.798828	16.112389
349.046448	1547.786133	7005.065430	2422.247559	16.023762
349.411957	1546.793701	7011.351074	2423.901611	16.050850
349.777435	1543.706055	7011.021484	2420.262939	16.032675
350.142792	1546.903931	7013.336914	2416.844238	15.914222
350.508209	1547.675903	7017.306641	2417.947266	15.910971
350.873566	1545.911499	7036.273926	2419.049805	15.903109
351.238892	1545.470459	7057.776855	2425.114746	15.957826
351.604187	1549.109253	7084.462891	2431.400391	15.939201
351.969482	1553.079102	7127.248535	2442.758301	15.960749
352.334717	1553.851196	7176.099609	2451.579834	15.967431
352.699890	1551.535400	7256.376465	2462.166016	15.962420
353.065063	1551.976318	7340.295410	2470.436523	15.867476
353.430237	1551.314819	7438.216309	2485.874512	15.875239
353.795319	1548.778442	7545.511719	2505.834229	15.959619
354.160370	1548.668213	7656.886230	2519.508301	15.893999
354.525421	1547.014282	7778.847656	2540.680664	15.945008
354.890442	1547.786133	7926.062500	2566.374268	15.969646
355.255402	1544.367676	8060.375000	2586.443848	15.992557
355.620331	1547.345093	8211.227539	2609.159668	15.933873
355.985260	1548.006714	8359.985352	2626.031738	15.825432
356.350098	1549.440186	8488.122070	2648.416748	15.838406
356.714935	1547.455322	8615.155273	2662.862793	15.781760
357.079742	1548.116943	8735.904297	2683.814209	15.800374
357.444519	1544.588135	8862.386719	2705.979004	15.870768
357.809296	1537.530762	9007.835938	2730.018555	15.963039
358.173981	1534.663574	9175.340820	2760.122559	16.038618
358.538605	1535.104736	9362.474609	2793.756104	16.080132
358.903259	1535.104736	9576.954102	2824.411865	16.032471
359.267914	1535.214966	9815.033203	2861.573730	16.019176
359.632477	1534.001831	10056.529297	2897.853516	16.002901
359.997009	1532.237549	10270.126953	2932.037842	16.019890
360.361542	1533.671021	10432.007813	2953.761719	15.959058
360.726013	1533.009399	10550.330078	2974.052002	15.980829
361.090485	1533.119751	10621.235352	2984.969238	15.975254
361.454895	1537.640869	10669.645508	2985.961426	15.859831
361.819244	1538.081787	10689.494141	2990.593018	15.871990
362.183594	1538.964233	10671.849609	2988.608154	15.872791
362.547913	1538.523071	10616.161133	2976.477783	15.840627
362.912201	1539.515625	10574.367188	2970.523193	15.838750
363.276489	1536.097168	10510.079102	2962.032471	15.889660
363.640686	1532.568359	10443.033203	2955.636230	15.970748
364.004883	1531.686279	10386.685547	2945.601318	15.967422
364.369049	1529.701416	10336.401367	2946.042480	16.082541
364.733154	1531.024780	10286.117188	2939.205566	16.084133
365.097198	1537.200073	10230.098633	2933.802246	16.066013
365.461273	1542.272461	10137.360352	2920.569824	16.035873
365.825287	1545.580688	10013.523438	2898.845703	15.981037
366.189270	1546.132080	9845.798828	2873.813965	15.996809
366.553223	1545.690796	9649.182617	2845.032959	16.034349
366.917114	1546.132080	9422.791992	2812.281738	16.074701
367.281006	1547.014282	9187.691406	2777.876953	16.109341
367.644867	1549.991577	8990.744141	2748.654297	16.109428
368.008698	1548.337524	8831.179688	2730.900635	16.237659
368.372498	1548.999146	8707.012695	2716.455078	16.309774
368.736237	1547.124634	8622.102539	2704.986328	16.365587
369.099976	1540.728760	8559.579102	2699.142334	16.504320
369.463654	1538.854126	8522.858398	2696.164795	16.570875
369.827332	1534.994629	8489.886719	2692.636230	16.644997
370.190948	1534.884277	8472.683594	2697.047119	16.751175
370.554535	1533.450684	8443.021484	2694.621094	16.805246
370.918091	1534.002075	8424.715820	2699.142090	16.908844
371.281647	1538.854126	8421.626953	2696.826416	16.824211
371.645111	1536.427979	8420.744141	2698.039063	16.873297
372.008575	1536.648560	8415.342773	2690.871582	16.779682
372.371979	1535.876465	8419.863281	2696.164795	16.854889
372.735382	1531.906738	8436.183594	2694.731201	16.842089
373.098724	1531.686157	8473.456055	2702.891357	16.871853
373.462067	1529.149902	8530.798828	2711.382324	16.885057
373.825348	1528.708740	8601.592773	2719.322021	16.833492
374.188599	1525.731445	8696.095703	2732.444336	16.829172
374.551819	1522.643677	8812.875000	2753.506592	16.883728
374.915009	1517.130005	8930.976563	2774.458252	16.959188
375.278168	1514.152588	9048.197266	2796.402588	17.019409
375.641266	1512.829468	9160.785156	2810.076172	16.962006
376.004395	1510.624023	9243.048828	2819.008545	16.920753
376.367462	1513.491211	9303.587891	2831.028076	16.912971
376.730469	1516.689209	9354.423828	2837.975342	16.858011
377.093475	1522.092529	9382.984375	2839.408691	16.757847
377.456421	1522.864380	9423.675781	2845.694336	16.742964
377.819336	1524.298096	9463.595703	2852.641846	16.731249
378.182281	1526.172607	9498.992188	2859.919434	16.728672
378.545135	1521.872070	9540.673828	2861.794189	16.709755
378.907928	1522.864502	9571.441406	2868.631348	16.720556
379.270752	1523.305542	9599.780273	2880.319824	16.802063
379.633484	1526.282959	9631.869141	2891.126709	16.838310
379.996246	1524.077393	9659.878906	2895.758301	16.859812
380.358948	1525.069824	9686.673828	2909.101074	16.957834
380.721558	1521.430786	9715.344727	2917.591797	17.039000
381.084198	1523.305298	9733.429688	2922.223389	17.038940
381.446747	1525.951782	9744.015625	2932.258301	17.112383
381.809326	1527.275146	9746.000977	2939.425781	17.182112
382.171875	1527.495850	9729.791016	2937.992188	17.196362
382.534363	1528.488403	9709.280273	2932.588623	17.163378
382.896790	1533.229858	9671.567383	2925.421387	17.106585
383.259247	1531.245117	9648.851563	2926.523926	17.188303
383.621613	1532.017090	9663.408203	2930.714355	17.201204
383.983948	1527.716431	9692.850586	2937.000000	17.259771
384.346283	1523.195068	9736.739258	2951.555908	17.390310
384.708588	1519.225342	9811.723633	2967.214600	17.461435
385.070831	1519.887085	9891.341797	2977.580322	17.412663
385.433075	1519.335693	9960.373047	2990.041016	17.423277
385.795258	1517.020142	10042.305664	3004.597168	17.448999
386.157440	1518.784424	10104.719727	3024.556396	17.537657
386.519531	1514.042603	10178.823242	3042.200195	17.636427
386.881622	1519.335815	10246.749023	3051.242676	17.552816
387.243683	1517.350830	10314.126953	3065.357422	17.597431
387.605713	1519.556274	10383.047852	3073.848389	17.535891
387.967682	1522.643921	10443.366211	3083.772949	17.500029
388.329651	1525.069824	10513.719727	3095.682617	17.473288
388.691559	1523.746704	10610.648438	3115.200928	17.513718
389.053467	1521.431030	10715.627930	3132.844482	17.526419
389.415314	1519.887085	10810.132813	3147.510498	17.519701
389.777130	1518.784180	10914.560547	3162.397217	17.493105
390.138885	1520.328125	10994.397461	3180.592529	17.524302
390.500641	1518.012329	11088.901367	3188.531982	17.454174
390.862366	1521.872070	11165.982422	3202.646484	17.427988
391.224060	1525.510864	11220.676758	3214.886963	17.424932
391.585693	1529.921875	11295.551758	3225.031982	17.357920
391.947296	1536.317749	11367.119141	3237.823975	17.307909
392.308868	1535.766235	11409.905273	3251.607910	17.377127
392.670441	1535.656006	11454.014648	3260.649902	17.391930
393.031952	1533.119751	11484.449219	3258.775635	17.340960
393.393433	1537.310059	11495.697266	3255.136230	17.250044
393.754883	1537.089600	11506.393555	3248.961426	17.171429
394.116302	1538.523071	11496.689453	3246.865967	17.155195
394.477692	1529.701294	11492.830078	3243.778320	17.204205
394.839020	1527.936890	11479.376953	3242.344971	17.227737
395.200348	1526.834229	11463.718750	3245.873535	17.299580
395.561646	1529.480835	11443.759766	3241.241699	17.265610
395.922882	1529.150024	11409.354492	3234.956543	17.264891
396.284088	1529.480835	11337.236328	3224.480957	17.282242
396.645264	1527.275513	11269.638672	3211.468750	17.287317
397.006409	1530.914429	11181.641602	3201.764893	17.313208
397.367523	1533.450684	11090.887695	3189.634766	17.328747
397.728577	1538.964355	11024.392578	3180.923096	17.310329
398.089600	1539.074707	10949.627930	3178.276855	17.418766
398.450592	1539.625977	10886.000000	3167.690186	17.419207
398.811584	1539.074463	10829.209961	3162.066650	17.470058
399.172546	1537.971680	10760.399414	3151.921143	17.500267
399.533447	1528.819214	10692.691406	3140.342529	17.585615
399.894318	1532.127441	10638.768555	3134.828857	17.599260
400.255127	1532.237671	10596.091797	3131.962158	17.649494
400.615936	1531.355469	10585.175781	3135.269775	17.715332
400.976685	1529.150146	10593.115234	3147.841064	17.858530
401.337433	1531.575928	10626.307617	3156.221680	17.863592
401.698151	1531.355591	10702.835938	3173.314453	17.902878
402.058807	1537.861572	10785.099609	3190.296143	17.869493
402.419434	1539.736206	10877.398438	3206.727051	17.852337
402.780060	1538.633423	10977.195313	3221.613525	17.830896
403.140594	1534.663696	11064.090820	3237.162109	17.865696
403.501129	1535.986938	11144.919922	3256.570313	17.906082
403.861633	1537.420532	11224.757813	3268.810547	17.872713
404.222076	1539.625977	11293.236328	3280.719971	17.850765
404.582550	1535.986938	11374.728516	3295.276123	17.881243
404.942932	1535.656128	11422.916992	3308.177734	17.927328
405.303284	1530.804077	11480.369141	3323.395020	18.016777
405.663605	1531.245117	11533.189453	3337.730713	18.061344
406.023895	1532.568481	11582.260742	3350.963623	18.094038
406.384125	1530.914307	11629.016602	3364.085938	18.153625
406.744354	1529.811523	11684.814453	3380.296143	18.222393
407.104553	1536.317627	11746.566406	3388.456543	18.139997
407.464691	1536.868896	11813.392578	3400.476074	18.134607
407.824829	1537.420288	11876.467773	3415.473145	18.164660
408.184906	1538.522949	11926.201172	3430.911133	18.217625
408.544922	1538.633423	11974.169922	3442.710205	18.246084
408.904938	1537.971680	12007.030273	3450.208740	18.265606
409.264923	1536.317627	11999.752930	3445.908203	18.250130
409.624847	1534.112183	11979.573242	3450.098633	18.342766
409.984802	1533.560791	11956.416016	3452.745605	18.413235
410.344666	1535.656006	11935.685547	3445.798340	18.366701
410.704529	1534.774048	11906.352539	3441.718018	18.386248
411.064331	1531.355591	11896.317383	3435.763428	18.373514
411.424133	1532.017090	11892.458008	3440.174072	18.417719
411.783875	1531.245117	11887.385742	3442.048828	18.450924
412.143555	1536.317749	11895.656250	3444.695313	18.421808
412.503235	1535.986938	11932.376953	3451.091064	18.420858
412.862885	1536.317749	11957.078125	3452.524170	18.388355
413.222473	1535.876587	12000.966797	3460.794922	18.393711
413.582062	1530.473267	12055.992188	3476.784180	18.491354
413.941559	1529.480713	12132.080078	3488.914551	18.480692
414.301086	1532.237549	12203.647461	3502.918945	18.466927
414.660522	1531.796509	12282.932617	3523.760498	18.527941
415.019958	1529.150024	12364.093750	3539.419189	18.553574
415.379364	1530.142456	12462.125977	3552.762207	18.501856
415.738708	1528.708984	12566.443359	3569.744385	18.491434
416.098053	1529.591187	12702.960938	3592.239990	18.460402
416.457336	1526.503540	12866.385742	3627.747803	18.529682
416.816559	1528.047363	13056.165039	3662.703857	18.516956
417.175812	1526.834351	13278.144531	3701.960938	18.509649
417.535004	1528.488525	13530.667969	3740.777100	18.432390
417.894135	1528.157715	13808.997070	3801.206543	18.508904
418.253265	1528.047363	14142.681641	3868.803467	18.555878
418.612335	1530.583618	14503.713867	3939.047363	18.565018
418.971405	1528.378174	14871.801758	4006.203613	18.569637
419.330414	1527.054810	15239.122070	4068.838135	18.536835
419.689423	1521.871948	15591.002930	4135.112305	18.574284
420.048370	1521.210327	15940.676758	4190.027832	18.508432
420.407257	1519.997314	16263.223633	4255.309082	18.553007
420.766144	1519.887085	16600.767578	4309.673340	18.498827
421.125000	1524.518555	16922.103516	4363.707031	18.439180
421.483795	1525.180176	17245.310547	4421.820801	18.426313
421.842560	1520.769287	17599.064453	4483.573242	18.427351
422.201324	1520.328125	17935.947266	4539.591309	18.392624
422.560028	1519.887085	18241.623047	4590.647461	18.363884
422.918671	1520.769287	18531.310547	4646.114746	18.372993
423.277283	1524.077515	18778.761719	4687.908203	18.336069
423.635925	1525.841919	18955.306641	4721.100098	18.332510
423.994476	1527.385742	19096.347656	4746.021973	18.320015
424.353027	1529.921997	19197.578125	4763.003906	18.299438
424.711487	1530.914429	19260.099609	4777.229004	18.310568
425.069946	1529.701416	19272.009766	4788.918457	18.369745
425.428375	1529.701538	19241.906250	4785.169434	18.379799
425.786743	1531.576050	19143.101563	4761.791504	18.341486
426.145081	1531.796509	18994.343750	4736.208496	18.350199
426.503418	1530.914307	18822.097656	4707.978516	18.373898
426.861725	1533.561035	18640.148438	4678.535156	18.384579
427.219971	1537.751343	18467.904297	4648.320801	18.372955
427.578186	1539.405396	18302.933594	4628.802246	18.429277
427.936371	1542.051880	18152.521484	4597.374512	18.393959
428.294495	1545.249756	17946.314453	4572.011719	18.454668
428.652618	1543.485352	17745.066406	4536.834473	18.475660
429.010712	1544.477905	17538.191406	4503.642090	18.502045
429.368744	1549.991455	17290.296875	4460.305664	18.489567
429.726746	1550.432617	17043.066406	4422.481934	18.538160
430.084717	1548.999023	16817.117188	4386.643555	18.585424
430.442688	1548.337280	16581.134766	4350.804688	18.642353
430.800568	1549.660645	16415.947266	4333.822754	18.728025
431.158417	1548.668213	16272.815430	4306.255371	18.728333
431.516235	1546.903809	16145.229492	4285.744629	18.761335
431.874023	1542.492920	16049.514648	4275.158691	18.836849
432.231812	1543.816162	15953.795898	4255.750488	18.819836
432.589508	1543.706055	15895.242188	4241.194336	18.795816
432.947205	1543.595825	15808.457031	4224.652832	18.794834
433.304840	1542.052002	15756.189453	4221.675781	18.851820
433.662476	1541.831421	15700.720703	4212.522949	18.862293
434.020050	1545.029541	15676.790039	4209.986816	18.857927
434.377594	1544.147339	15649.995117	4213.625977	18.924623
434.735138	1536.869263	15624.854492	4207.561035	18.957232
435.092621	1536.648682	15592.102539	4204.472656	18.980703
435.450043	1536.979492	15602.911133	4208.442871	18.992437
435.807465	1532.789063	15644.480469	4215.831543	19.012905
436.164856	1532.017090	15690.354492	4224.652832	19.018021
436.522156	1531.576050	15735.567383	4227.960938	18.983290
436.879486	1527.936890	15802.060547	4246.928223	19.048393
437.236755	1525.510986	15877.817383	4263.027344	19.073704
437.593994	1529.701416	15964.602539	4277.143066	19.033325
437.951172	1528.267822	16095.165039	4299.307617	19.022856
438.308380	1526.944458	16181.729492	4309.893555	18.990038
438.665497	1526.503296	16304.906250	4340.549316	19.041611
439.022583	1530.252686	16441.642578	4363.375977	18.999727
439.379608	1531.906860	16545.410156	4382.011719	18.983610
439.736633	1532.568604	16637.816406	4398.111816	18.970514
440.093628	1535.104736	16715.669922	4417.299316	18.986082
440.450562	1534.773926	16800.359375	4437.038086	19.011810
440.807495	1534.222534	16869.169922	4449.388672	19.009951
441.164368	1534.773926	16950.664063	4474.420898	19.068941
441.521210	1534.773926	17015.833984	4485.889160	19.062746
441.878021	1532.899292	17084.865234	4495.372559	19.048866
442.234833	1536.979492	17175.837891	4510.700684	19.014950
442.591522	1538.854126	17250.492188	4526.028320	19.012495
442.948242	1535.766479	17338.599609	4541.024902	19.017212
443.304901	1538.082275	17434.316406	4561.315430	19.018549
443.661530	1541.169800	17547.126953	4588.552734	19.039055
444.018127	1542.382935	17676.144531	4616.893066	19.056376
444.374664	1544.367798	17807.478516	4635.749512	19.008553
444.731201	1552.197021	17927.343750	4654.054688	18.942472
445.087738	1551.535400	18043.792969	4680.189453	18.970442
445.444183	1552.307251	18093.746094	4694.304199	18.994701
445.800598	1548.888794	18151.085938	4708.970703	19.034119
446.156982	1546.352539	18172.921875	4712.058594	19.040043
446.513336	1545.359985	18160.902344	4716.689941	19.086527
446.869598	1546.793579	18160.683594	4721.210938	19.107008
447.225891	1546.021606	18175.570313	4733.010254	19.164614
447.582153	1546.352417	18179.318359	4731.466309	19.149403
447.938354	1548.999023	18181.964844	4737.089844	19.167303
448.294495	1548.006592	18183.066406	4739.075195	19.182789
448.650665	1544.147095	18170.828125	4728.378418	19.151335
449.006775	1537.971924	18154.617188	4732.678711	19.225945
449.362823	1539.405396	18162.666016	4737.310059	19.237532
449.718842	1541.610718	18152.962891	4743.154785	19.273230
450.074860	1540.838867	18172.703125	4745.690918	19.269350
450.430817	1544.918945	18136.753906	4743.044434	19.275295
450.786713	1541.831299	18068.271484	4729.811523	19.290182
451.142578	1537.861450	17979.615234	4711.836914	19.304361
451.498444	1534.001831	17847.619141	4686.916016	19.326885
451.854248	1533.119629	17694.558594	4664.089355	19.373087
452.210022	1529.039551	17510.074219	4633.653809	19.426867
452.565765	1527.385376	17293.279297	4600.130859	19.489828
452.921478	1529.370361	17109.785156	4564.733398	19.481915
453.277191	1531.796387	16919.673828	4526.579590	19.461966
453.632813	1531.906738	16753.052734	4498.019043	19.486786
453.988434	1531.245117	16601.978516	4471.884277	19.512249
454.343964	1528.819214	16476.490234	4451.152344	19.550425
454.699524	1529.591187	16350.117188	4425.459473	19.539577
455.054993	1527.385742	16251.754883	4408.477539	19.566826
455.410400	1526.282959	16187.574219	4388.077148	19.519388
455.765839	1523.636475	16166.403320	4388.959961	19.568184
456.121216	1525.400879	16186.471680	4398.222656	19.594898
456.476593	1529.591187	16245.579102	4414.653809	19.604952
456.831909	1529.480957	16359.379883	4442.110840	19.640255
457.187195	1528.267822	16504.277344	4476.294922	19.684998
457.542450	1528.157593	16688.544922	4511.141113	19.676168
457.897644	1528.267944	16878.652344	4548.082031	19.672562
458.252808	1531.024780	17079.128906	4589.434082	19.670624
458.607971	1536.317749	17244.759766	4630.014648	19.694485
458.963013	1539.956787	17343.453125	4660.008789	19.742796
459.318085	1542.934204	17441.373047	4681.071289	19.738651
459.673096	1541.831421	17513.933594	4701.030273	19.779480
460.028076	1541.610718	17581.533203	4716.799316	19.795534
460.383057	1541.059570	17632.478516	4730.252930	19.819218
460.737976	1542.272461	17654.751953	4737.971680	19.833691
461.092865	1543.265015	17668.205078	4743.595703	19.847084
461.447723	1543.375244	17674.822266	4745.470703	19.850019
461.802551	1546.573120	17650.451172	4741.721191	19.840860
462.157288	1547.786133	17647.472656	4740.949219	19.833696
462.512054	1548.337646	17629.390625	4741.500977	19.856682
462.866760	1545.911621	17608.216797	4746.793945	19.927914
463.221405	1547.676025	17561.681641	4738.523926	19.925358
463.576019	1547.896484	17482.503906	4718.564453	19.897999
463.930603	1548.447876	17383.810547	4700.590332	19.905718
464.285156	1546.242432	17249.832031	4672.360352	19.907028
464.639709	1547.345093	17084.640625	4636.521973	19.882332
464.994171	1543.706055	16863.326172	4600.682617	19.954649
465.348633	1542.603271	16613.998047	4568.041504	20.074043
465.703033	1539.295044	16373.494141	4525.476074	20.130383
466.057434	1532.899170	16159.786133	4485.888672	20.188776
466.411774	1530.032104	16020.070313	4456.556152	20.196800
466.766083	1522.864380	15879.141602	4428.767578	20.241343
467.120331	1521.100098	15783.867188	4406.493164	20.230247
467.474548	1521.430908	15706.787109	4390.172852	20.223263
467.828735	1519.997314	15633.897461	4375.175293	20.229546
468.182922	1520.438232	15605.998047	4374.954590	20.265553
468.537048	1521.871704	15567.403320	4369.771973	20.276203
468.891144	1520.879272	15539.833008	4370.984863	20.330372
469.245178	1517.571289	15543.692383	4374.513184	20.368725
469.599213	1514.483398	15538.730469	4379.806641	20.431210
469.953186	1512.278076	15543.582031	4385.540527	20.477516
470.307129	1512.719116	15539.062500	4386.312500	20.487116
470.661041	1515.255493	15572.252930	4394.141602	20.480095
471.014923	1517.019775	15620.001953	4404.727539	20.475866
471.368713	1514.483521	15633.895508	4412.226074	20.523111
471.722504	1516.799194	15624.414063	4413.991211	20.536369
472.076294	1515.696533	15594.748047	4410.131348	20.558451
472.429993	1517.571167	15538.951172	4405.941406	20.599756
472.783722	1517.681396	15533.877930	4397.229980	20.544437
473.137329	1521.210205	15559.459961	4406.603027	20.553793
473.490967	1524.628662	15589.895508	4405.500977	20.482174
473.844543	1525.069702	15655.178711	4418.182129	20.474804
474.198090	1525.731445	15736.008789	4435.935547	20.479572
474.551605	1524.849243	15840.216797	4469.348633	20.568802
474.905060	1525.400635	15973.979492	4501.547852	20.598200
475.258484	1526.834229	16111.156250	4532.975586	20.612143
475.611877	1525.180176	16262.120117	4563.300293	20.615679
475.965240	1522.974731	16434.146484	4600.131348	20.636585
476.318573	1525.731445	16599.001953	4635.308594	20.629744
476.671844	1529.149902	16778.083984	4662.325195	20.546848
477.025116	1531.024536	16965.107422	4702.685059	20.549719
477.378326	1533.340210	17172.417969	4742.493164	20.520090
477.731506	1535.435425	17399.578125	4786.050781	20.490330
478.084656	1534.773926	17628.064453	4826.961914	20.456898
478.437744	1532.788940	17876.400391	4887.281250	20.524792
478.790833	1532.347900	18179.759766	4945.835938	20.504616
479.143890	1529.149902	18532.742188	5016.961914	20.512207
479.496826	1527.606079	18959.386719	5105.290039	20.523916
479.849823	1528.488281	19549.675781	5217.326660	20.469452
480.202728	1529.039673	20281.115234	5361.011719	20.434921
480.555603	1525.952148	21176.748047	5536.455566	20.408859
480.908478	1522.974731	22400.552734	5796.479004	20.469349
481.261292	1522.974731	23963.777344	6127.517090	20.518618
481.614075	1524.628906	25732.109375	6511.376465	20.600027
481.966797	1526.834229	27496.359375	6881.010254	20.617149
482.319489	1527.606079	29080.205078	7202.564941	20.596819
482.672150	1526.393188	30462.691406	7473.945801	20.553951
483.024780	1524.739014	31572.472656	7698.460449	20.546379
483.377350	1523.636353	32530.302734	7883.387695	20.510918
483.729919	1522.313110	33403.109375	8048.244629	20.469788
484.082428	1523.856812	34220.453125	8213.212891	20.458876
484.434937	1524.187622	35104.066406	8381.267578	20.420204
484.787384	1523.636230	36042.925781	8581.301758	20.445570
485.139771	1526.503296	37078.054688	8795.892578	20.447460
485.492157	1529.921753	38098.410156	9017.209961	20.474699
485.844482	1531.355347	39044.769531	9200.814453	20.444578
486.196777	1530.693726	39872.480469	9360.488281	20.421049
486.549072	1531.796509	40529.593750	9498.879883	20.429573
486.901276	1531.134888	40987.113281	9594.597656	20.436607
487.253448	1530.363037	41207.882813	9639.809570	20.438391
487.605591	1528.047241	41187.921875	9643.448242	20.462498
487.957703	1529.039917	40949.730469	9604.742188	20.485947
488.309784	1533.450806	40448.871094	9493.147461	20.453836
488.661835	1533.450806	39685.007813	9330.385742	20.436741
489.013855	1533.560913	38832.492188	9144.465820	20.405155
489.365814	1533.340454	38064.773438	8974.094727	20.368088
489.717743	1533.009521	37422.546875	8846.287109	20.377184
490.069611	1532.017090	36896.214844	8740.756836	20.384287
490.421509	1533.561035	36463.058594	8653.973633	20.385099
490.773315	1538.633545	36034.433594	8571.929688	20.388847
491.125092	1539.625977	35581.214844	8484.373047	20.400772
491.476807	1534.553345	35043.742188	8384.907227	20.443211
491.828522	1536.317749	34357.406250	8262.835938	20.494499
492.180176	1533.230225	33541.167969	8095.662109	20.502514
492.531830	1530.804199	32589.628906	7905.110352	20.523335
492.883423	1527.495972	31597.392578	7702.430176	20.535269
493.234985	1525.290405	30630.853516	7519.488281	20.594681
493.586487	1528.047363	29768.414063	7350.439941	20.617270
493.937988	1528.929443	29037.640625	7208.740234	20.647316
494.289429	1532.788818	28473.484375	7098.025879	20.657364
494.640869	1531.686157	28000.085938	7011.020996	20.701422
494.992218	1531.686157	27623.722656	6936.587891	20.714756
495.343567	1529.149902	27261.039063	6862.153809	20.725271
495.694855	1530.362915	26811.238281	6779.448730	20.763071
496.046112	1533.230103	26245.205078	6673.586426	20.801075
496.397339	1532.899292	25526.890625	6524.608398	20.803995
496.748535	1534.663574	24699.515625	6364.051270	20.847912
497.099670	1534.994385	23875.558594	6203.715332	20.897953
497.450806	1536.097046	23117.435547	6064.662109	20.983707
497.801880	1540.177124	22517.664063	5954.940918	21.045246
498.152924	1536.648560	22015.919922	5865.840332	21.139383
498.503937	1535.766357	21626.441406	5796.368652	21.206865
498.854889	1541.279907	21339.951172	5740.681152	21.210520
499.205841	1537.089600	21112.789063	5696.902832	21.249884
499.556702	1541.941650	20926.869141	5657.424805	21.230326
499.907562	1539.956787	20761.572266	5629.525879	21.275887
500.258362	1540.838867	20609.949219	5600.524414	21.289330
500.609161	1544.588257	20483.576172	5575.381836	21.283045
500.959900	1543.926636	20330.847656	5554.760742	21.349075
501.310608	1543.595703	20167.863281	5515.613770	21.327110
501.661255	1540.949097	19978.414063	5486.942871	21.402040
502.011902	1544.257324	19809.808594	5458.272461	21.428400
502.362488	1545.249756	19609.330078	5426.954590	21.488527
502.713043	1546.352539	19430.138672	5387.367188	21.477638
503.063568	1541.279907	19261.421875	5363.217773	21.568325
503.414063	1538.523071	19106.378906	5328.040527	21.570747
503.764496	1541.059204	18964.458984	5306.979004	21.614151
504.114899	1539.295166	18838.527344	5284.372559	21.648808
504.465271	1538.743774	18744.794922	5264.854492	21.655817
504.815613	1535.656128	18675.433594	5260.112793	21.729900
505.165894	1529.701416	18602.212891	5245.667480	21.765783
505.516174	1527.716553	18584.128906	5247.983398	21.811544
505.866394	1527.937012	18570.455078	5250.409180	21.842266
506.216583	1523.305664	18563.177734	5262.539063	21.944023
506.566711	1523.856934	18600.339844	5270.809570	21.942181
506.916840	1523.085083	18640.369141	5292.643555	22.021944
507.266907	1521.872070	18704.107422	5306.758789	22.027908
507.616882	1518.674072	18761.666016	5321.645020	22.055168
507.966858	1516.689209	18802.027344	5337.083496	22.101936
508.316803	1516.248169	18854.185547	5349.875488	22.111208
508.666748	1516.579102	18909.541016	5371.488281	22.163616
509.016632	1515.145508	18965.890625	5384.941406	22.175533
509.366486	1513.932373	19011.984375	5405.672852	22.240992
509.716309	1512.940063	19094.466797	5424.198730	22.246410
510.066040	1512.609253	19168.130859	5452.428711	22.314941
510.415771	1515.476318	19257.892578	5472.829590	22.304478
510.765503	1514.263428	19336.626953	5495.545410	22.338688
511.115173	1516.248169	19421.427734	5514.511719	22.330208
511.464752	1516.578979	19503.468750	5534.691895	22.339119
511.814270	1518.012451	19575.478516	5552.886719	22.344631
512.163818	1518.563843	19630.283203	5567.333008	22.354416
512.513306	1516.578857	19691.484375	5585.307129	22.386517
512.862793	1520.328003	19720.816406	5593.467285	22.379286
513.212219	1519.887085	19769.556641	5612.544434	22.425924
513.561646	1518.563721	19808.925781	5615.411621	22.398943
513.911011	1515.255615	19836.164063	5624.784668	22.430817
514.260315	1513.932251	19890.197266	5632.172852	22.410650
514.609558	1514.593994	19954.156250	5645.956543	22.404882
514.958801	1517.460938	20057.042969	5671.540039	22.406542
515.308044	1517.019897	20201.500000	5706.386230	22.421637
515.657227	1518.894531	20392.933594	5741.894043	22.374647
516.006348	1520.989746	20606.861328	5799.015137	22.414619
516.355408	1523.415771	20836.009766	5851.284668	22.409569
516.704529	1523.856812	21066.146484	5899.143066	22.388811
517.053467	1523.415649	21249.308594	5944.244629	22.411301
517.402466	1526.062256	21397.183594	5976.333496	22.395674
517.751404	1523.084961	21517.271484	6006.327637	22.422729
518.100281	1525.290405	21624.896484	6036.652832	22.445028
518.449219	1520.548950	21691.941406	6058.486816	22.496901
518.798035	1517.571411	21757.333984	6078.335449	22.533686
519.146851	1516.689331	21826.916016	6089.583496	22.515228
519.495544	1517.020020	21905.869141	6109.762695	22.525757
519.844299	1522.313110	21994.197266	6135.235352	22.532963
520.192932	1520.218018	22093.333984	6152.106934	22.514280
520.541626	1522.313110	22156.630859	6166.994629	22.509499
520.890198	1527.937012	22260.949219	6192.356934	22.497551
521.238770	1530.583496	22355.783203	6214.742676	22.492746
521.587280	1531.796387	22446.537109	6245.287109	22.536694
521.935791	1530.693726	22546.884766	6277.267090	22.585316
522.284180	1532.788940	22645.027344	6305.827148	22.607922
522.632629	1534.994385	22760.375000	6345.966309	22.666126
522.981018	1530.693726	22887.296875	6398.788086	22.794329
523.329346	1530.693848	23058.660156	6435.066895	22.781404
523.677551	1525.731567	23236.419922	6487.667480	22.854809
524.025818	1523.415771	23458.398438	6549.199219	22.912182
524.374023	1521.100098	23722.173828	6615.362305	22.946016
524.722229	1520.438477	24090.261719	6707.660645	22.982998
525.070374	1520.548584	24555.941406	6814.846191	22.983320
525.418457	1519.556274	25200.154297	6962.610840	22.985292
525.766541	1524.849365	26106.705078	7170.916016	22.968431
526.114563	1525.621338	27271.955078	7449.354004	23.008062
526.462585	1522.974854	28579.017578	7758.889160	23.048138
526.810547	1526.172729	29825.097656	8064.013184	23.102787
527.158447	1526.172607	30890.884766	8316.427734	23.123859
527.506348	1528.157593	31764.574219	8533.333008	23.168009
527.854065	1528.598633	32475.056641	8707.785156	23.198734
528.201904	1522.202759	33035.906250	8857.204102	23.275593
528.549622	1520.879639	33462.882813	8958.654297	23.285246
528.897339	1520.879517	33790.281250	9037.168945	23.292311
529.245056	1519.997314	34014.574219	9095.502930	23.313139
529.592712	1516.027466	34193.992188	9153.065430	23.370605
529.940369	1515.365845	34378.804688	9193.314453	23.363194
530.287903	1517.571289	34558.000000	9236.541992	23.362198
530.635437	1514.704346	34745.679688	9292.669922	23.405769
530.982910	1517.020020	35013.753906	9353.762695	23.395542
531.330383	1518.233032	35248.523438	9403.935547	23.378698
531.677795	1521.651489	35370.593750	9436.026367	23.381454
532.025208	1522.643921	35337.398438	9442.420898	23.421068
532.372498	1521.320801	35142.769531	9400.407227	23.434702
532.719788	1522.643921	34723.730469	9313.182617	23.464710
533.067078	1520.659180	34028.792969	9162.991211	23.508986
533.414307	1523.195435	33081.554688	8942.004883	23.508223
533.761536	1525.290649	32011.136719	8703.375000	23.545630
534.108643	1523.085083	31022.433594	8468.054688	23.542791
534.455811	1523.856934	30247.216797	8284.338867	23.536530
534.802856	1527.275635	29614.585938	8141.205566	23.547750
535.149902	1524.408447	29126.521484	8022.992676	23.543791
535.496887	1523.195313	28710.240234	7930.693359	23.568203
535.843811	1522.864624	28364.095703	7860.891602	23.613026
536.190796	1520.328247	28066.687500	7796.492676	23.642281
536.537659	1526.613892	27817.033203	7745.215820	23.653490
536.884460	1527.826782	27578.732422	7686.330566	23.640268
537.231323	1525.180298	27296.324219	7634.061035	23.704344
537.578064	1525.952148	27017.113281	7571.095215	23.714664
537.924805	1524.518677	26697.654297	7517.392090	23.806623
538.271423	1526.062500	26405.654297	7461.043945	23.854818
538.618164	1527.275391	26236.941406	7442.295898	23.938084
538.964783	1526.062378	26303.761719	7474.496094	24.007208
539.311279	1525.290405	26509.308594	7530.845215	24.037586
539.657776	1529.811523	26777.714844	7607.044434	24.070250
540.004333	1534.001831	27009.066406	7677.067871	24.114035
540.350769	1530.914307	27213.953125	7735.291504	24.157488
540.697144	1534.773926	27352.234375	7782.377441	24.199141
541.043518	1534.773926	27429.089844	7815.348145	24.254644
541.389893	1532.788940	27431.296875	7824.721680	24.294577
541.736145	1533.009521	27319.259766	7812.150879	24.350737
542.082458	1531.465698	27184.619141	7793.074219	24.408728
542.428711	1530.032104	27028.029297	7768.704590	24.467302
542.774902	1534.443115	26874.091797	7739.041016	24.485729
543.121033	1534.001953	26771.865234	7728.565430	24.544722
543.467102	1535.766357	26708.130859	7717.978516	24.559519
543.813171	1530.473389	26658.839844	7704.083984	24.568291
544.159180	1527.826782	26623.990234	7702.761230	24.605093
544.505127	1527.275269	26580.546875	7686.550781	24.584715
544.851135	1525.510986	26465.642578	7675.964844	24.660873
545.197021	1529.039673	26279.062500	7625.128906	24.630640
545.542908	1529.811523	25915.710938	7544.299316	24.663794
545.888733	1528.598633	25382.431641	7416.824219	24.684610
546.234558	1529.701416	24666.982422	7248.879395	24.718452
546.580322	1529.370483	23875.119141	7059.872070	24.749681
546.926025	1522.754150	23061.306641	6872.298340	24.837063
547.271667	1516.799438	22344.753906	6696.082520	24.866980
547.617371	1515.917236	21688.521484	6545.229980	24.931400
547.962952	1510.513916	21087.759766	6402.427246	24.987749
548.308533	1506.985229	20539.593750	6266.350586	25.006372
548.654053	1510.513916	20035.978516	6153.872070	25.064734
548.999573	1510.072876	19574.046875	6052.972656	25.148951
549.344971	1509.631836	19205.074219	5965.856934	25.182899
549.690430	1511.727051	18895.871094	5900.024414	25.243103
550.035767	1514.704468	18655.806641	5844.888184	25.261992
550.381104	1517.461182	18424.896484	5789.751465	25.268705
550.726440	1517.350952	18201.921875	5746.745117	25.349134
551.071655	1521.872070	17961.861328	5704.510742	25.441858
551.416931	1523.305664	17699.191406	5650.256836	25.512983
551.762085	1523.305664	17417.554688	5593.577148	25.608454
552.107178	1526.393188	17137.240234	5523.554199	25.605024
552.452332	1527.937012	16865.531250	5456.508789	25.614004
552.797424	1528.488281	16617.859375	5401.151855	25.664845
553.142395	1529.039551	16403.378906	5353.955078	25.714859
553.487366	1531.906494	16235.324219	5321.645020	25.774542
553.832336	1533.450439	16092.630859	5288.673340	25.792818
554.177185	1538.192261	15982.911133	5268.714355	25.826200
554.522095	1537.199707	15885.650391	5255.260742	25.912630
554.866943	1540.508057	15797.429688	5240.483887	25.952137
555.211731	1540.177246	15707.779297	5228.574219	26.034025
555.556396	1542.162109	15630.037109	5215.672363	26.075687
555.901123	1536.758667	15550.971680	5195.272461	26.105738
556.245789	1533.891602	15491.977539	5178.952148	26.114330
556.590454	1533.340454	15421.841797	5164.505859	26.145123
556.934998	1535.656006	15336.601563	5144.767578	26.151192
557.279541	1531.135010	15230.741211	5126.792969	26.246433
557.624023	1529.260376	15136.675781	5104.186523	26.271898
557.968567	1528.488403	15005.562500	5078.604004	26.341887
558.312988	1526.393188	14903.338867	5056.660156	26.390682
558.657349	1528.267822	14807.733398	5039.016113	26.437422
559.001770	1528.708862	14752.045898	5020.600586	26.407038
559.346069	1524.628784	14695.036133	5013.874023	26.493069
559.690308	1524.187622	14652.139648	5008.360840	26.540113
560.034485	1519.445923	14622.696289	5000.200684	26.564058
560.378723	1517.681519	14593.473633	4995.348633	26.596224
560.722900	1515.365845	14547.491211	4987.960449	26.646420
561.067017	1513.380981	14502.721680	4988.401367	26.752863
561.411072	1513.932251	14474.269531	4983.549316	26.771042
561.755127	1513.380859	14445.488281	4976.050781	26.775759
562.099182	1512.057617	14444.275391	4974.617188	26.774677
562.443115	1513.711914	14463.792969	4982.115234	26.782869
562.787048	1512.609131	14476.474609	4987.849609	26.807133
563.130920	1517.020142	14514.077148	4997.664063	26.780249
563.474792	1519.997437	14593.033203	5024.129395	26.804270
563.818604	1519.887085	14671.437500	5043.647461	26.793497
564.162354	1516.689209	14778.511719	5070.665039	26.798548
564.506042	1522.202881	14880.733398	5094.704102	26.743221
564.849731	1525.290405	14948.110352	5125.470215	26.821335
565.193420	1526.723999	15022.654297	5146.973145	26.824745
565.537048	1527.054688	15072.498047	5162.080566	26.835783
565.880615	1524.959595	15111.315430	5170.571289	26.832890
566.224121	1526.723877	15117.048828	5181.929688	26.895647
566.567627	1533.781372	15125.760742	5186.340332	26.872900
566.911072	1532.788940	15127.083008	5196.043945	26.947004
567.254517	1536.758789	15147.593750	5207.181641	26.966919
567.597839	1535.104858	15172.957031	5220.524902	27.023462
567.941223	1534.002075	15221.255859	5225.156250	26.967823
568.284485	1532.678833	15281.576172	5238.940430	26.956793
568.627808	1534.663696	15341.895508	5263.200684	27.004234
568.970947	1535.876709	15414.675781	5286.468262	27.023891
569.314148	1538.633545	15486.792969	5307.530273	27.020746
569.657288	1534.774048	15551.301758	5319.109375	26.999094
570.000366	1534.112305	15612.943359	5348.441895	27.092659
570.343445	1532.348022	15662.568359	5367.518555	27.141617
570.686462	1528.378174	15679.879883	5374.906738	27.181063
571.029419	1526.723999	15675.358398	5383.066895	27.255936
571.372314	1526.613770	15632.462891	5381.191895	27.326097
571.715210	1521.651367	15592.434570	5379.096680	27.414574
572.058105	1520.989990	15575.562500	5370.495605	27.389704
572.400879	1521.872070	15552.845703	5369.393555	27.421629
572.743713	1518.563843	15550.087891	5373.032227	27.470060
573.086426	1520.328125	15549.425781	5385.382813	27.550272
573.429077	1521.982178	15559.351563	5396.189453	27.599241
573.771790	1517.902100	15557.585938	5398.946289	27.643389
574.114441	1517.571289	15556.593750	5402.584961	27.672964
574.457031	1516.248047	15535.863281	5398.835938	27.693970
574.799561	1519.115112	15488.666992	5389.683594	27.707176
575.142029	1518.674072	15425.588867	5385.603027	27.805799
575.484436	1520.438477	15341.343750	5361.012207	27.788149
575.826904	1518.674194	15231.954102	5333.774902	27.820482
576.169250	1519.666626	15101.721680	5302.788086	27.853825
576.511597	1518.012573	14939.840820	5260.995117	27.887278
576.853943	1521.320679	14764.176758	5220.635254	27.934414
577.196167	1524.518555	14579.801758	5171.232910	27.932863
577.538391	1523.526123	14387.044922	5120.286621	27.960938
577.880554	1526.503296	14197.925781	5071.767090	27.978418
578.222717	1527.606079	14013.992188	5025.231934	28.011517
578.564819	1527.936890	13843.730469	4980.240723	28.031515
578.906860	1531.906860	13668.176758	4933.926270	28.031839
579.248901	1529.039795	13486.114258	4890.479004	28.112556
579.590942	1528.488525	13311.665039	4837.988770	28.086655
579.932861	1530.473267	13130.047852	4793.438965	28.130049
580.274780	1531.576050	12965.851563	4743.926758	28.094046
580.616638	1528.929443	12799.669922	4702.354004	28.156309
580.958496	1528.267822	12642.088867	4660.009277	28.178801
581.300232	1525.400757	12493.443359	4620.752441	28.221548
581.641968	1525.841919	12354.940430	4587.008789	28.267977
581.983704	1524.187744	12222.283203	4552.493164	28.306957
582.325317	1525.841919	12101.534180	4520.072754	28.312387
582.666992	1527.275391	11995.232422	4493.606934	28.337254
583.008606	1529.591187	11896.317383	4470.450195	28.368250
583.350098	1530.693970	11814.714844	4451.372559	28.400164
583.691589	1529.039917	11735.871094	4442.661621	28.545799
584.033081	1530.473511	11675.662109	4437.589355	28.655117
584.374512	1529.150146	11635.742188	4423.916016	28.642355
584.715881	1530.804199	11580.606445	4425.128906	28.799816
585.057190	1531.245361	11526.683594	4415.977051	28.860481
585.398499	1526.613770	11487.756836	4406.823730	28.914454
585.739807	1531.355469	11463.937500	4400.427246	28.885458
586.081055	1531.134888	11458.313477	4393.370605	28.832319
586.422180	1532.347900	11440.449219	4396.567871	28.907858
586.763367	1531.134888	11435.597656	4402.743164	28.993076
587.104431	1532.237671	11436.257813	4399.104004	28.946489
587.445496	1529.370483	11437.471680	4395.023926	28.922325
587.786499	1529.039795	11440.559570	4392.487305	28.890097
588.127502	1532.237671	11449.160156	4400.427246	28.922173
588.468445	1533.340332	11450.815430	4403.294434	28.938356
588.809326	1533.560913	11456.659180	4408.477539	28.971964
589.150208	1536.207520	11464.377930	4413.660645	28.982714
589.491028	1537.751343	11463.717773	4416.086914	28.998035
589.831848	1533.450562	11459.858398	4422.702637	29.106722
590.172546	1529.591187	11462.835938	4424.908691	29.147749
590.513245	1527.385620	11457.653320	4418.291992	29.112068
590.853943	1526.723999	11469.452148	4415.755371	29.056725
591.194458	1523.084961	11473.973633	4412.006348	29.031794
591.535095	1526.282837	11476.620117	4418.181641	29.063326
591.875610	1528.819214	11484.891602	4412.005859	28.959076
592.216125	1524.739014	11512.017578	4418.401855	28.973488
592.556580	1528.819214	11542.123047	4427.113281	28.944433
592.897034	1527.385620	11559.435547	4434.280762	28.976082
593.237366	1524.408203	11564.838867	4447.183105	29.110056
593.577698	1529.260254	11603.103516	4450.380371	28.997076
593.918030	1530.252686	11650.410156	4457.769043	28.927578
594.258301	1531.686401	11705.215820	4476.185059	28.942743
594.598511	1533.450684	11771.158203	4503.091309	29.006891
594.938721	1535.325317	11857.501953	4531.211426	29.023783
595.278809	1534.443115	11935.464844	4557.786621	29.067755
595.618958	1537.861328	11997.327148	4566.719238	28.958055
595.958984	1535.876587	12031.291016	4579.510742	28.999659
596.299011	1534.663574	12048.934570	4583.590820	28.997988
596.638977	1534.112305	12065.916992	4590.979004	29.025099
596.978943	1536.317749	12067.018555	4597.264648	29.066885
597.318848	1538.302490	12054.998047	4593.735352	29.053165
597.658630	1541.720947	12036.031250	4597.374023	29.117235
597.998474	1541.941650	12002.398438	4596.271484	29.198818
598.338257	1541.610718	11959.060547	4589.545410	29.257971
598.677979	1536.648438	11904.476563	4586.788086	29.419273
599.017700	1535.986938	11873.490234	4579.178711	29.438366
599.357361	1536.317749	11823.316406	4570.137207	29.491781
599.696960	1537.530640	11767.958984	4561.755859	29.561079
600.036560	1535.104736	11732.892578	4554.588379	29.609201
600.376038	1537.420532	11709.957031	4540.804199	29.524435
600.715576	1535.215088	11680.955078	4537.937500	29.595892
601.055054	1530.473267	11653.055664	4537.275879	29.703911
601.394409	1530.142456	11614.680664	4539.811523	29.844391
601.733826	1529.260376	11593.729492	4533.526367	29.850220
602.073120	1523.195435	11560.426758	4527.902344	29.935616
602.412415	1519.335693	11560.868164	4524.153320	29.923895
602.751587	1515.366089	11583.473633	4537.716797	30.019054
603.090820	1516.578979	11618.099609	4551.942383	30.048578
603.429993	1518.563843	11665.185547	4568.593262	30.059553
603.769104	1517.902100	11700.142578	4582.046387	30.093027
604.108154	1517.240479	11724.841797	4588.662598	30.089558
604.447205	1517.571289	11761.012695	4602.557129	30.116693
604.786194	1516.358276	11777.001953	4615.789551	30.206985
605.125183	1519.666504	11801.591797	4621.633789	30.169127
605.464111	1522.423340	11833.351563	4632.661621	30.164486
605.802979	1524.849121	11869.520508	4633.764648	30.053303
606.141846	1523.415527	11894.111328	4640.491211	30.056574
606.480652	1525.621338	11927.525391	4649.974121	30.036354
606.819336	1524.187622	11986.520508	4664.972168	30.019926
607.158020	1522.202759	12036.363281	4685.041504	30.081707
607.496765	1518.453491	12074.296875	4703.677246	30.174978
607.835388	1515.255615	12102.967773	4713.711914	30.209137
608.173950	1520.328369	12105.945313	4713.822266	30.168236
608.512512	1522.313110	12089.955078	4704.118164	30.108942
608.851013	1523.415771	12038.128906	4698.163574	30.193386
609.189514	1528.708862	11961.158203	4679.307129	30.199986
609.527893	1531.575928	11846.584961	4652.951660	30.260525
609.866333	1536.428101	11725.615234	4625.935059	30.321424
610.204712	1538.082153	11597.809570	4591.309082	30.350992
610.542969	1536.317749	11477.282227	4562.638184	30.442923
610.881226	1535.545898	11375.941406	4539.040039	30.522087
611.219482	1536.538330	11296.544922	4522.388672	30.592707
611.557678	1534.774048	11222.221680	4500.555176	30.614683
611.895813	1534.001953	11170.172852	4478.169434	30.553293
612.233948	1529.370605	11119.116211	4469.237793	30.656361
612.571960	1530.693848	11067.949219	4453.689453	30.648182
612.910034	1530.693848	11004.432617	4442.441406	30.734938
613.247986	1530.032227	10945.435547	4429.319336	30.793020
613.585938	1525.510986	10878.611328	4410.683105	30.847227
613.923828	1526.723877	10775.286133	4380.578613	30.857279
614.261658	1528.708740	10655.861328	4344.519531	30.850924
614.599487	1530.583374	10533.898438	4315.076172	30.927414
614.937317	1532.899170	10426.493164	4285.743652	30.953117
615.275024	1529.921753	10327.688477	4262.697266	31.062149
615.612732	1525.951904	10242.007813	4241.966309	31.161049
615.950378	1524.297852	10159.083008	4219.250000	31.210413
616.288025	1523.856812	10087.185547	4199.290527	31.242914
616.625549	1523.415649	10036.679688	4183.080566	31.241426
616.963074	1522.092407	9979.669922	4169.737793	31.305012
617.300537	1521.761597	9949.125000	4165.878418	31.375374
617.638000	1521.761597	9913.396484	4158.820801	31.424856
617.975464	1523.636230	9882.080078	4140.957031	31.313496
618.312744	1525.952026	9843.483398	4134.781250	31.365425
618.650024	1523.746582	9816.908203	4129.377930	31.419033
618.987305	1523.526001	9787.244141	4122.320801	31.448254
619.324585	1529.370483	9754.933594	4111.293457	31.389009
619.661743	1528.267822	9729.902344	4108.756348	31.463100
619.998901	1531.465820	9711.817383	4098.280762	31.377808
620.336060	1534.001953	9686.896484	4092.436768	31.380693
620.673096	1539.184814	9661.203125	4084.497070	31.338419
621.010193	1538.633423	9631.980469	4081.519775	31.419462
621.347168	1535.766357	9616.762695	4082.732422	31.517971
621.684082	1534.773926	9601.544922	4073.910645	31.476494
622.020996	1535.545898	9580.703125	4071.705322	31.524050
622.357849	1540.397827	9554.568359	4065.750488	31.511091
622.694641	1540.397827	9528.212891	4056.597900	31.500483
623.031433	1541.941650	9508.142578	4054.281982	31.537495
623.368164	1542.162231	9502.850586	4052.076172	31.528856
623.704895	1541.059570	9505.497070	4058.141357	31.604012
624.041504	1537.971924	9534.609375	4060.346680	31.542942
624.378174	1534.663818	9550.929688	4054.833252	31.438198
624.714783	1534.994629	9583.019531	4063.213867	31.414158
625.051331	1531.906982	9605.955078	4078.321533	31.538265
625.387756	1531.024780	9641.573242	4087.805176	31.524136
625.724304	1531.906860	9667.598633	4094.421387	31.497194
626.060669	1535.656128	9673.332031	4101.809570	31.534229
626.397034	1532.678955	9680.831055	4106.330566	31.585709
626.733337	1532.568604	9681.161133	4107.763672	31.602942
627.069641	1527.716553	9676.640625	4106.661133	31.647671
627.405884	1528.267944	9668.479492	4110.961914	31.727602
627.742126	1527.937012	9663.517578	4111.844238	31.760576
628.078308	1523.526123	9658.775391	4113.608398	31.837774
628.414429	1523.526123	9645.101563	4112.946777	31.883232
628.750488	1524.959595	9631.758789	4116.365234	31.965832
629.086548	1526.062256	9595.479492	4106.440918	31.977262
629.422546	1523.526123	9564.051758	4100.706543	32.052387
629.758545	1525.069824	9526.228516	4094.310547	32.110859
630.094421	1524.187744	9472.195313	4081.629883	32.177147
630.430298	1525.290405	9417.831055	4067.955811	32.216061
630.766113	1526.282959	9351.777344	4051.966553	32.275070
631.101929	1529.260254	9271.388672	4029.801758	32.297855
631.437622	1531.575928	9189.014648	4019.105225	32.485134
631.773376	1529.149902	9111.272461	3998.594238	32.569302
632.109070	1529.149902	9044.116211	3975.657715	32.555141
632.444641	1525.510864	8975.857422	3953.272217	32.585884
632.780273	1528.378052	8906.606445	3937.723877	32.654800
633.115784	1525.069946	8849.706055	3921.624268	32.719090
633.451294	1521.872070	8788.946289	3902.436768	32.758228
633.786682	1520.438477	8727.304688	3887.990723	32.851341
634.122131	1521.982178	8668.307617	3877.955322	32.967617
634.457458	1520.107666	8613.833008	3859.650635	32.980453
634.792847	1519.997314	8549.323242	3847.741455	33.114754
635.128113	1524.739136	8485.807617	3828.994873	33.102043
635.463318	1526.613770	8434.750000	3809.256348	33.042812
635.798584	1525.841919	8377.078125	3787.421875	33.009811
636.133728	1525.952148	8329.109375	3777.056641	33.089115
636.468872	1525.290527	8283.125000	3761.177490	33.085850
636.803955	1524.739136	8240.559570	3747.724365	33.100727
637.139038	1526.613770	8204.279297	3731.624512	33.020683
637.473999	1525.069946	8163.147949	3723.133301	33.112949
637.808899	1525.400757	8111.651855	3701.078613	33.033630
638.143799	1522.202759	8053.869141	3686.522705	33.135799
638.478638	1523.415771	7994.541504	3668.548828	33.149300
638.813538	1528.047363	7933.230469	3650.905029	33.142811
639.148315	1530.252808	7868.169434	3631.937988	33.160503
639.483032	1530.583496	7802.336914	3612.860596	33.200878
639.817749	1529.150024	7742.680176	3590.144287	33.169456
640.152405	1527.165161	7685.999023	3577.463135	33.290356
640.487000	1529.480835	7628.216309	3560.922363	33.309227
640.821594	1528.819214	7575.727539	3540.963135	33.275581
641.156128	1528.598511	7530.735840	3526.848145	33.292301
641.490662	1528.267822	7483.979980	3515.380127	33.364815
641.825134	1524.959595	7437.886230	3504.242676	33.473831
642.159546	1522.092651	7393.886719	3491.009766	33.531780
642.493896	1519.666626	7349.887695	3476.453857	33.562832
642.828186	1517.902222	7319.563477	3466.418945	33.585499
643.162537	1516.358398	7284.606934	3450.759277	33.535324
643.496765	1515.696777	7244.688477	3444.584473	33.668888
643.830994	1516.027588	7218.002441	3438.409668	33.714321
644.165100	1513.380981	7196.499023	3437.637207	33.859161
644.499268	1510.293457	7173.011230	3428.705811	33.877945
644.833313	1509.301025	7158.014160	3428.705811	33.979507
645.167358	1515.035156	7139.157715	3430.580322	34.059448
645.501343	1513.491211	7132.981934	3426.169189	34.036499
645.835327	1509.962524	7123.058105	3419.552734	34.020267
646.169189	1508.529053	7114.456055	3415.693359	34.020500
646.503052	1512.057617	7104.311035	3413.046875	33.993259
646.836914	1513.932251	7088.541504	3418.119873	34.158226
647.170654	1516.578979	7080.492676	3416.796387	34.152534
647.504395	1517.461182	7083.359375	3419.663574	34.176018
647.838074	1520.107666	7085.785156	3421.537842	34.163498
648.171753	1518.563965	7084.130859	3421.427734	34.189938
648.505371	1519.666626	7081.926270	3419.994141	34.164665
648.838928	1519.666626	7087.440430	3420.215088	34.134800
649.172424	1521.982300	7097.144531	3432.013672	34.259655
649.505920	1522.754150	7098.687500	3436.204346	34.316231
649.839294	1523.526245	7092.181641	3440.835449	34.430382
650.172729	1525.070068	7090.195801	3447.562500	34.545353
650.506104	1525.731567	7093.063965	3447.341797	34.515816
650.839355	1524.959595	7090.638184	3445.026123	34.498337
651.172668	1528.157593	7082.256836	3434.219238	34.318108
651.505859	1533.671265	7068.252441	3430.470215	34.271770
651.839111	1538.082153	7056.342773	3423.853516	34.173290
652.172241	1535.876709	7041.786621	3421.647949	34.249947
652.505371	1535.435547	7022.710449	3415.583252	34.263779
652.838379	1536.648560	7007.603516	3413.818848	34.311565
653.171387	1536.758789	6991.062500	3409.738525	34.339485
653.504333	1537.310181	6964.927734	3406.871582	34.445339
653.837280	1534.001953	6946.622559	3397.277832	34.424652
654.170227	1533.781494	6934.712891	3392.866699	34.421566
654.503052	1535.214966	6922.582520	3387.904297	34.389511
654.835876	1537.751221	6907.695801	3388.345703	34.462078
655.168579	1542.713379	6891.927246	3379.634033	34.340012
655.501343	1541.279907	6883.436035	3377.759277	34.377117
655.833984	1544.477783	6877.039551	3373.679199	34.302490
656.166626	1543.044312	6878.804199	3366.622070	34.176533
656.499268	1544.588013	6896.999023	3369.599365	34.096996
656.831787	1545.580444	6924.126465	3378.641846	34.080986
657.164307	1540.287598	6959.083496	3387.132813	34.082207
657.496765	1539.625854	6995.473145	3398.380615	34.069038
657.829224	1541.059448	7031.642090	3411.502930	34.066395
658.161621	1538.302612	7066.819336	3427.934082	34.179718
658.493958	1535.986938	7092.732910	3443.151855	34.321613
658.826233	1532.568604	7112.912109	3448.665283	34.336536
659.158508	1530.032227	7145.002441	3457.487061	34.327072
659.490723	1530.914429	7156.470215	3461.346436	34.315403
659.822876	1531.576050	7165.181641	3459.581787	34.223301
660.154968	1531.245239	7168.710449	3463.551758	34.276157
660.487061	1529.921875	7173.231934	3462.669678	34.248478
660.819153	1531.906860	7170.034180	3463.110840	34.252579
661.151123	1530.473267	7159.007324	3457.597412	34.238472
661.483093	1531.134888	7142.245605	3455.612305	34.297619
661.815002	1528.708740	7124.049805	3443.703125	34.224804
662.146851	1524.077393	7100.892090	3441.276855	34.378040
662.478760	1521.320557	7082.146484	3436.424561	34.439198
662.810486	1519.666504	7055.461426	3428.595947	34.483383
663.142212	1519.004883	7017.968750	3414.811768	34.475712
663.473938	1521.430908	6967.243164	3405.548340	34.597546
663.805603	1521.320557	6898.985352	3388.125488	34.714043
664.137207	1523.967041	6828.961914	3365.298828	34.709396
664.468689	1525.400635	6759.269531	3348.647217	34.835541
664.800293	1526.172607	6684.834961	3323.505615	34.841068
665.131775	1529.921875	6612.826660	3302.333008	34.870045
665.463196	1529.480713	6554.823730	3280.168945	34.837189
665.794617	1531.906860	6497.812500	3265.943359	34.918835
666.125916	1537.530640	6446.314941	3245.212158	34.788280
666.457275	1537.971802	6413.785156	3236.169678	34.829018
666.788574	1536.979370	6383.789551	3231.979492	34.971458
667.119812	1539.295044	6353.906250	3221.613525	34.941936
667.450928	1540.397827	6330.308105	3219.297607	35.050758
667.782104	1540.177368	6313.988281	3215.327637	35.090420
668.113159	1540.397827	6295.461914	3213.343018	35.182392
668.444214	1535.876709	6287.633301	3204.411133	35.114052
668.775208	1536.758789	6277.928711	3197.684082	35.031971
669.106201	1540.067017	6267.453125	3193.162842	34.968494
669.437134	1543.044312	6245.729004	3187.980225	34.978657
669.768005	1546.904053	6219.263184	3183.128418	35.019234
670.098877	1548.999146	6209.559570	3185.664795	35.117355
670.429688	1548.227295	6190.813477	3174.527100	35.030041
670.760437	1550.101929	6188.717773	3164.602783	34.805660
671.091187	1550.542969	6176.477539	3161.184570	34.817646
671.421814	1549.109375	6162.472656	3148.172363	34.661545
671.752441	1546.573120	6143.506836	3149.054199	34.859783
672.083008	1542.934204	6130.383789	3143.430420	34.888584
672.413574	1544.367798	6119.577148	3135.380615	34.774643
672.744080	1539.846558	6102.816406	3130.969482	34.870338
673.074524	1536.758911	6089.362793	3125.014893	34.886761
673.404968	1535.876709	6066.977539	3118.067627	34.918468
673.735352	1536.869019	6040.401855	3110.238281	34.936337
674.065613	1533.560913	6016.141602	3106.709717	35.094715
674.395935	1531.355469	6001.144531	3096.674805	35.019981
674.726196	1528.819214	5980.192871	3084.985840	34.959248
675.056335	1529.150024	5964.313965	3079.031250	34.945297
675.386536	1531.796509	5940.384766	3076.604980	35.040886
675.716614	1528.929443	5925.387695	3078.920898	35.255459
676.046692	1526.503296	5913.808594	3077.266846	35.346607
676.376770	1526.834229	5913.698730	3076.053955	35.314968
676.706726	1523.856812	5920.866699	3072.194580	35.213425
677.036621	1524.518555	5919.323242	3069.768799	35.160839
677.366516	1525.290405	5932.114746	3075.172119	35.170036
677.696411	1521.210327	5936.635254	3081.457764	35.336292
678.026184	1518.343384	5951.631836	3088.735840	35.422745
678.355957	1517.902100	5965.967285	3102.960693	35.634785
678.685669	1519.997314	5992.542969	3102.188721	35.375633
679.015320	1519.666626	6014.707520	3111.562012	35.414478
679.344971	1521.210449	6027.168945	3118.950195	35.458378
679.674561	1522.313232	6048.010254	3124.463867	35.401188
680.004150	1517.240723	6064.110352	3128.433838	35.435215
680.333618	1518.453735	6078.115234	3137.034912	35.497837
680.663086	1517.791992	6094.435059	3137.916992	35.399857
680.992493	1519.997437	6107.778320	3142.548340	35.366791
681.321899	1521.761719	6110.093750	3141.997070	35.312077
681.651184	1523.746704	6108.219238	3145.415283	35.373066
681.980530	1526.393188	6103.146973	3143.651123	35.336353
682.309753	1526.723999	6094.655762	3142.989258	35.382870
682.638977	1527.385498	6081.533691	3138.468018	35.376152
682.968079	1528.929199	6066.426270	3131.521240	35.318855
683.297241	1531.024414	6046.797852	3127.771484	35.359325
683.626343	1532.678589	6027.499512	3123.030029	35.381866
683.955383	1530.803955	5996.403320	3113.656738	35.445469
684.284363	1533.340332	5959.351563	3103.070557	35.466026
684.613281	1533.119751	5924.835938	3093.035645	35.519505
684.942139	1531.355469	5886.681641	3079.251953	35.540310
685.271057	1532.348022	5854.041016	3068.555420	35.546429
685.599792	1529.260376	5815.224121	3063.482666	35.796436
685.928589	1530.363037	5784.348633	3059.071533	35.935913
686.257324	1527.716553	5753.692871	3050.801270	36.041012
686.585999	1528.488525	5724.580566	3041.208008	36.050678
686.914612	1531.024780	5680.582031	3033.929932	36.218449
687.243164	1531.024780	5642.647949	3019.484131	36.201260
687.571777	1531.245117	5601.516602	3011.213867	36.360443
687.900269	1530.363037	5560.385254	3001.950928	36.515629
688.228699	1528.378052	5526.420898	2991.033936	36.584297
688.557129	1530.362915	5496.758301	2984.527832	36.662125
688.885498	1526.393188	5467.314941	2977.470459	36.820759
689.213867	1525.510986	5442.834473	2973.280029	36.958118
689.542114	1524.628906	5421.772461	2968.427979	37.047623
689.870361	1523.636475	5396.079102	2963.575928	37.184269
690.198608	1522.313110	5375.126465	2952.548828	37.121853
690.526794	1522.533813	5343.258301	2946.814453	37.277763
690.854858	1522.313110	5320.982910	2942.183105	37.378082
691.182922	1516.248169	5299.259277	2931.817627	37.419117
691.510986	1516.358398	5276.433105	2927.516846	37.530064
691.838928	1521.320679	5241.477051	2923.326416	37.686745
692.166931	1522.974731	5200.455566	2909.762695	37.710270
692.494812	1526.282837	5167.484375	2897.632813	37.662018
692.822632	1525.841797	5120.288086	2875.688721	37.553680
693.150452	1527.495850	5083.236328	2866.977051	37.670948
693.478149	1525.952148	5042.655762	2861.353271	37.973091
693.805908	1527.826782	5017.734375	2850.877197	37.910755
694.133606	1527.606079	4996.671875	2843.599121	37.935081
694.461243	1529.039673	4976.712402	2836.762207	37.930588
694.788818	1530.583496	4963.038086	2832.240967	37.922058
695.116333	1532.458130	4961.714844	2837.203369	38.047462
695.443848	1532.347900	4954.547363	2838.857422	38.177479
695.771301	1534.663452	4967.780273	2842.716797	38.101044
696.098755	1536.869019	4989.614258	2844.260742	37.865284
696.426147	1538.302612	5020.049316	2853.082520	37.762081
696.753418	1537.751343	5064.489258	2872.159668	37.836903
697.080688	1537.530640	5103.635742	2890.575195	37.941803
697.407898	1537.199829	5152.597168	2907.998291	37.915569
697.735107	1537.310059	5187.553223	2920.128418	37.882912
698.062317	1540.066895	5222.729980	2945.270508	38.157269
698.389404	1541.831421	5252.503906	2955.966797	38.109951
698.716492	1540.949097	5280.292480	2969.640869	38.207024
699.043457	1536.427979	5295.730957	2977.690918	38.338570
699.370483	1534.884155	5303.449219	2987.174561	38.536961
699.697388	1536.207397	5314.476563	2994.231689	38.589741
700.024292	1536.648438	5318.777832	2992.798340	38.500797
700.351135	1538.192261	5310.507324	2989.710938	38.478195
700.677917	1537.309937	5302.567383	2994.231934	38.693821
701.004639	1538.192139	5290.989258	2986.071777	38.581345
701.331299	1538.853760	5274.338379	2985.851074	38.736534
701.658020	1535.876465	5256.915039	2978.131836	38.759483
701.984619	1535.435303	5223.171387	2972.507813	38.968964
702.311218	1537.640747	5193.177246	2960.818848	38.932125
702.637756	1539.074341	5146.642578	2944.719238	38.963776
702.964233	1536.207275	5091.506348	2932.147949	39.263664
703.290649	1532.678711	5023.027344	2911.086182	39.491970
703.617065	1532.237671	4950.688477	2882.525391	39.499992
703.943481	1531.024658	4864.344727	2858.155029	39.814068
704.269775	1528.708862	4791.344238	2832.792480	39.970253
704.596008	1528.267822	4730.583984	2814.156494	40.154957
704.922241	1525.510986	4663.869141	2784.383057	40.112442
705.248474	1526.503418	4603.991211	2766.298096	40.285934
705.574585	1524.959717	4556.352539	2740.384033	40.094582
705.900696	1525.400757	4518.529297	2725.828125	40.106110
706.226746	1526.503540	4489.969238	2715.683105	40.127998
706.552734	1525.621338	4460.085449	2711.713623	40.419384
706.878723	1523.526245	4434.391602	2705.097168	40.591743
707.204651	1522.533813	4421.049316	2703.001953	40.726643
707.530518	1526.282959	4410.683105	2696.716309	40.578049
707.856323	1523.526123	4401.089844	2700.355225	40.896717
708.182068	1521.761719	4400.096680	2698.260254	40.874275
708.507813	1526.282837	4397.781250	2699.142090	40.844849
708.833496	1525.841797	4395.465332	2694.290283	40.717831
709.159180	1522.092407	4407.264648	2699.252197	40.800327
709.484802	1519.335693	4415.645020	2704.324707	40.913757
709.810303	1521.982178	4421.489746	2706.089111	40.838207
710.135864	1522.643799	4431.855469	2715.572754	41.005230
710.461304	1523.415771	4434.281738	2724.504883	41.262260
710.786743	1522.754150	4447.514648	2730.900635	41.307537
711.112122	1522.974731	4447.183594	2737.848145	41.545368
711.437500	1524.739136	4451.043457	2741.266602	41.572147
711.762817	1526.723999	4454.351074	2750.529297	41.801956
712.088013	1525.952148	4456.335938	2753.065430	41.875515
712.413269	1532.017090	4455.343262	2761.335938	42.052059
712.738403	1533.009521	4461.628906	2762.218018	41.972286
713.063538	1530.142578	4457.989746	2762.879639	42.103874
713.388611	1526.282959	4458.431152	2762.438721	42.158707
713.713623	1523.085083	4456.666992	2767.290283	42.412491
714.038574	1522.533691	4455.343750	2768.503418	42.483818
714.363525	1517.571411	4444.757813	2773.796387	42.915783
714.688477	1518.784424	4438.692871	2779.310303	43.170048
715.013306	1518.233032	4424.467285	2780.744141	43.441475
715.338135	1517.240479	4405.832031	2776.884521	43.607552
715.662842	1516.799438	4392.268066	2775.450928	43.772045
715.987549	1514.704346	4365.250977	2768.614014	43.988392
716.312195	1515.586548	4337.020996	2762.879883	44.207771
716.636841	1510.072876	4309.893555	2759.681885	44.631748
716.961426	1512.940063	4277.473633	2748.103516	44.678909
717.285950	1510.624390	4246.596680	2740.163574	44.939754
717.610474	1510.513916	4219.910645	2731.010986	45.046822
717.934937	1511.616699	4188.042480	2721.196533	45.193848
718.259277	1510.293579	4158.048828	2714.580078	45.483299
718.583679	1511.065308	4126.400391	2704.876221	45.646580
718.908020	1511.506470	4098.060059	2695.392578	45.770790
719.232239	1507.205811	4065.860107	2683.262939	45.963894
719.556519	1505.882568	4031.344971	2676.205322	46.340931
719.880737	1508.529053	4001.350830	2661.208252	46.239937
720.204834	1513.270752	3963.527588	2646.762451	46.260117
720.528931	1516.248047	3929.343262	2635.625244	46.387611
720.852966	1519.335693	3900.341797	2624.818359	46.429226
721.176941	1523.305542	3871.340088	2615.334717	46.508221
721.500916	1525.069824	3841.566650	2599.566162	46.384537
721.824829	1525.510986	3815.542480	2587.215576	46.362007
722.148743	1523.967041	3794.039063	2583.355957	46.667633
722.472534	1524.849243	3771.322266	2573.651855	46.686630
722.796326	1528.047241	3750.590820	2566.153564	46.708035
723.119995	1527.716553	3727.654297	2562.183838	47.022572
723.443665	1531.796631	3714.201172	2554.574707	46.864735
723.767334	1531.686279	3707.695801	2551.707764	46.875782
724.090942	1534.774048	3705.820801	2548.730225	46.703560
724.414551	1535.435547	3699.424561	2546.304199	46.713207
724.737976	1536.207520	3699.755615	2545.973633	46.671768
725.061462	1539.405396	3692.477783	2543.106689	46.617168
725.384888	1539.405518	3692.257324	2540.239502	46.488754
725.708252	1540.949341	3693.801270	2542.775879	46.534855
726.031616	1539.736206	3705.379883	2549.061279	46.606243
726.354858	1541.390381	3719.053223	2552.479736	46.430023
726.678162	1537.751343	3719.604980	2561.411865	46.917015
727.001404	1536.317749	3735.263428	2570.123047	47.013680
727.324463	1538.964355	3741.769775	2575.305908	47.046440
727.647583	1536.758911	3746.511230	2576.629395	47.058235
727.970642	1536.648682	3750.922363	2578.724365	47.061737
728.293701	1536.758789	3754.451172	2588.759033	47.436707
728.616699	1534.002075	3762.831543	2599.345215	47.798321
728.939575	1531.465820	3774.961670	2602.212402	47.726704
729.262512	1528.929443	3786.760742	2614.562988	48.083023
729.585266	1530.473267	3800.875732	2623.164307	48.127640
729.908142	1531.796631	3818.629883	2627.354492	47.907204
730.230896	1532.678711	3826.128418	2636.397217	48.124817
730.553467	1533.450562	3835.611572	2645.439453	48.301956
730.876160	1534.773926	3837.927002	2647.755127	48.324238
731.198792	1536.097290	3846.527832	2652.386719	48.315208
731.521362	1536.758911	3854.026855	2656.246094	48.310646
731.843872	1535.656128	3861.084473	2660.105713	48.354519
732.166321	1532.678711	3866.487793	2665.509277	48.539986
732.488770	1532.017212	3865.495117	2667.384033	48.655560
732.811157	1530.032227	3856.783447	2660.436523	48.582947
733.133484	1528.378174	3843.440918	2660.767578	48.913982
733.455811	1530.693848	3832.854248	2653.048340	48.752228
733.778015	1531.576172	3824.032715	2650.622314	48.814278
734.100281	1528.157593	3820.725098	2647.204102	48.811935
734.422424	1527.385742	3806.279053	2642.903320	48.949970
734.744507	1525.511108	3792.605713	2642.131348	49.253357
735.066589	1524.077515	3784.444824	2631.876221	49.009678
735.388611	1525.511108	3774.409912	2628.898438	49.063446
735.710571	1528.598755	3754.340820	2628.347412	49.410423
736.032532	1531.576172	3740.666748	2620.407471	49.288666
736.354431	1531.024780	3725.558838	2612.578125	49.283958
736.676270	1527.165161	3713.097900	2611.806396	49.619152
736.998108	1525.070068	3704.386475	2610.593262	49.810261
737.319824	1523.967407	3695.013428	2604.528564	49.771458
737.641541	1519.225586	3684.647949	2597.912109	49.814140
737.963135	1520.107788	3675.936768	2592.619141	49.749367
738.284790	1520.218018	3657.190430	2586.333496	49.889061
738.606323	1518.894775	3644.950439	2581.040283	49.958500
738.927856	1519.776978	3628.299072	2574.534180	50.023533
739.249390	1520.659180	3611.537598	2565.161133	49.955173
739.570740	1524.518677	3597.863770	2567.256348	50.292526
739.892212	1525.731567	3585.733643	2560.198730	50.216805
740.213562	1527.385620	3582.977051	2564.719971	50.464035
740.534790	1527.054810	3572.390625	2562.734863	50.636185
740.856079	1529.701416	3558.496582	2560.529297	50.809856
741.177246	1532.458130	3555.850098	2562.183350	50.891041
741.498413	1534.222534	3552.652588	2552.369141	50.442501
741.819580	1531.245117	3538.096436	2551.266602	50.826958
742.140625	1531.796509	3528.392578	2545.752930	50.784256
742.461670	1531.796509	3519.239502	2540.570068	50.757359
742.782654	1530.032104	3500.052002	2536.269775	51.077538
743.103577	1527.275146	3486.708984	2532.189697	51.285965
743.424438	1528.488159	3469.396484	2522.485596	51.213001
743.745300	1528.929443	3453.737305	2506.165283	50.770565
744.066101	1529.260132	3436.093750	2501.313477	50.977356
744.386902	1534.442871	3418.780762	2501.092529	51.299168
744.707581	1532.899048	3395.182617	2498.666748	51.859325
745.028198	1531.906616	3382.722168	2491.609375	51.852966
745.348816	1530.693726	3369.268555	2485.103027	51.910278
745.669373	1530.583374	3360.998535	2478.707520	51.798313
745.989929	1529.921753	3352.176758	2479.479248	52.108925
746.310364	1530.804077	3345.119141	2476.171387	52.106018
746.630798	1530.583496	3336.958740	2478.707520	52.487656
746.951172	1528.378052	3327.034180	2472.201660	52.473820
747.271545	1526.393066	3320.858887	2467.790283	52.461140
747.591858	1525.621216	3316.999268	2466.908203	52.545414
747.912109	1525.621216	3315.676025	2465.584961	52.510334
748.232300	1522.533569	3319.976563	2466.577393	52.521488
748.552429	1526.834229	3321.961426	2471.318848	52.613800
748.872559	1528.267822	3316.889160	2469.223633	52.607883
749.192627	1528.488403	3319.645752	2466.687256	52.379478
749.512695	1530.362915	3321.299805	2460.953125	51.961082
749.832642	1533.781494	3316.337891	2462.386963	52.094028
750.152588	1536.538208	3315.455322	2461.173828	51.977444
750.472473	1537.310181	3308.948975	2465.805420	52.408833
750.792358	1538.854126	3300.789551	2460.401855	52.303150
751.112122	1539.515747	3296.157715	2456.652832	52.209675
751.431824	1540.397827	3291.968018	2451.249268	52.001995
751.751587	1542.162109	3293.952393	2456.652588	52.203194
752.071228	1546.021606	3284.909912	2454.667480	52.254414
752.390869	1547.786133	3282.925537	2455.990967	52.341896
752.710327	1550.542847	3281.712402	2453.675049	52.168903
753.029846	1546.793579	3276.198730	2450.146484	52.234890
753.349304	1546.793579	3271.787598	2450.477051	52.387630
753.668762	1546.793579	3271.125732	2450.035889	52.382153
753.988098	1547.786011	3263.627197	2447.168945	52.416443
754.307434	1547.786011	3258.113770	2440.552734	52.198574
754.626770	1548.006470	3243.006348	2434.487793	52.299786
754.946045	1548.557861	3226.465820	2430.187012	52.543354
755.265259	1546.462646	3212.791748	2422.027100	52.544510
755.584351	1544.698242	3212.901855	2420.042236	52.472252
755.903442	1543.816162	3206.836670	2419.159912	52.635777
756.222534	1541.059204	3204.521484	2424.012207	53.079231
756.541565	1536.097046	3203.859863	2425.996826	53.358894
756.860535	1534.553223	3199.559082	2428.973877	53.718769
757.179443	1535.104614	3201.985107	2429.194580	53.638515
757.498291	1532.237549	3200.220703	2430.297363	53.841061
757.817139	1529.260254	3202.977295	2429.194580	53.768608
758.135925	1529.811523	3206.947510	2431.179443	53.744473
758.454651	1529.370483	3203.639160	2427.981445	53.671848
758.773376	1526.944580	3206.837158	2430.517578	53.787548
759.092041	1526.282959	3200.110596	2433.385010	54.193275
759.410645	1522.864502	3200.110596	2437.244629	54.516754
759.729187	1524.628784	3204.411133	2435.700684	54.237495
760.047607	1525.841797	3205.844971	2433.605713	54.033463
760.366089	1527.716431	3206.396240	2438.347168	54.246838
760.684509	1528.047119	3214.887207	2437.575439	53.919060
761.002869	1528.157471	3226.245117	2445.956299	54.048965
761.321228	1526.834229	3258.114258	2458.858154	53.834385
761.639465	1523.415771	3301.450928	2481.464355	53.882431
761.957642	1524.628784	3355.594971	2505.393311	53.565411
762.275879	1524.297974	3392.095215	2530.535645	53.872959
762.593994	1528.047241	3424.294678	2547.186279	53.745045
762.912109	1529.811646	3457.266357	2556.229004	53.252476
763.230103	1533.781494	3481.416016	2566.594727	53.029110
763.548157	1530.914429	3510.197266	2578.062988	52.905453
763.866150	1530.142578	3521.555176	2587.215576	53.081566
764.184021	1533.671265	3534.346680	2594.824219	53.039734
764.501892	1533.561157	3543.609863	2599.896729	53.050236
764.819702	1535.545898	3548.902832	2603.094727	53.023327
765.137451	1534.443115	3551.218262	2603.756348	53.020943
765.455200	1535.215088	3557.062988	2603.535889	52.838833
765.772888	1536.317749	3558.386230	2603.315186	52.767620
766.090515	1535.215088	3556.290527	2599.345703	52.651703
766.408081	1536.758789	3554.195313	2601.440674	52.773998
766.725586	1537.310181	3549.674805	2596.809326	52.649464
767.043091	1536.207397	3542.837891	2585.671631	52.299824
767.360535	1533.671143	3533.905518	2583.907471	52.505665
767.677917	1533.560791	3512.953613	2573.982910	52.562691
767.995239	1531.686157	3482.959473	2560.309082	52.715473
768.312500	1535.104614	3428.705322	2538.033936	52.964138
768.629822	1532.678711	3368.716797	2510.796387	53.273277
768.947021	1531.576050	3315.345703	2480.030518	53.171352
769.264160	1528.378174	3279.175537	2457.314453	53.057899
769.581299	1528.488281	3238.375000	2438.678223	53.231007
769.898376	1523.856812	3201.103027	2416.954590	53.247864
770.215393	1529.260132	3163.059082	2397.987549	53.172234
770.532349	1530.252563	3136.483643	2378.689697	52.821609
770.849304	1527.495850	3109.136230	2365.016113	52.952637
771.166199	1529.590942	3082.450195	2354.760742	53.138737
771.483032	1529.921753	3060.395264	2349.136719	53.526897
771.799866	1530.031982	3043.634033	2344.064453	53.781143
772.116577	1529.590942	3022.461670	2339.873779	54.276825
772.433350	1529.591064	3013.529541	2331.934326	54.068501
772.749939	1528.929443	2994.341797	2329.839355	54.654236
773.066589	1530.583374	2978.242188	2323.333252	54.760822
773.383057	1531.245117	2968.758545	2318.922363	54.794426
773.699646	1533.671021	2958.282959	2316.055176	54.919106
774.016113	1537.089478	2946.924561	2313.077881	55.041077
774.332520	1537.971680	2943.947266	2309.990234	54.909813
774.648804	1539.625610	2932.699463	2302.491699	54.761353
774.965149	1537.751099	2931.486328	2300.617188	54.735367
775.281433	1539.956543	2928.178223	2299.514404	54.714451
775.597656	1539.846313	2922.885010	2296.427002	54.704231
775.913879	1540.838867	2908.549561	2297.088623	55.293110
776.229980	1539.625854	2895.647949	2296.095947	55.785973
776.546082	1542.603149	2887.598145	2295.765137	55.997383
776.862122	1539.515503	2881.974121	2292.787842	56.111401
777.178162	1536.979248	2869.513428	2292.897949	56.727901
777.494141	1540.728516	2869.292725	2295.103516	56.781223
777.809998	1537.971680	2867.638672	2292.677246	56.758991
778.125854	1533.340332	2864.220215	2287.715088	56.682407
778.441711	1534.332642	2860.581299	2282.863281	56.439690
778.757446	1531.796509	2852.420898	2278.893311	56.571484
779.073181	1534.112183	2842.276123	2277.790527	56.849018
779.388855	1534.222412	2846.466309	2271.946533	56.218521
779.704468	1531.465576	2844.040283	2271.725830	56.397572
780.020020	1532.568359	2835.549561	2270.843262	56.660442
780.335571	1528.488403	2833.233887	2270.291992	56.854275
780.651062	1527.385620	2824.853271	2266.983887	57.003216
780.966553	1523.856934	2813.605225	2265.660645	57.515385
781.281860	1524.298096	2804.231934	2264.668213	57.844406
781.597290	1525.511108	2792.984131	2258.934082	57.864979
781.912476	1522.754272	2783.169922	2255.074463	58.101482
782.227722	1523.746704	2773.355713	2250.994385	58.198017
782.542908	1521.651611	2765.857178	2245.150146	58.149437
782.858093	1520.769409	2761.225586	2240.408203	58.014046
783.173218	1522.313232	2755.491455	2237.761719	58.016632
783.488281	1521.982422	2742.258789	2233.901855	58.340836
783.803345	1523.305664	2738.840332	2230.262939	58.160191
784.118225	1517.902100	2726.930908	2220.889893	58.144833
784.433167	1519.335693	2714.801025	2214.935059	58.186493
784.748047	1521.761719	2708.625732	2214.493896	58.366600
785.062866	1518.674072	2699.252441	2209.421387	58.509232
785.377686	1521.210327	2698.039551	2208.208496	58.377048
785.692444	1517.791870	2690.100098	2204.900391	58.611591
786.007141	1519.114990	2681.057861	2204.238525	58.963615
786.321716	1519.666504	2675.654297	2200.599609	58.904869
786.636353	1516.358276	2677.639160	2199.276367	58.807312
786.950928	1516.137695	2676.205566	2199.937988	58.944851
787.265442	1519.115112	2677.087891	2203.246338	59.080078
787.579834	1520.659058	2684.365967	2201.923096	58.542580
787.894226	1519.776978	2687.784424	2205.562012	58.714096
788.208618	1517.681885	2688.776611	2204.569580	58.653469
788.522949	1519.887207	2689.327881	2203.135986	58.425262
788.837219	1519.556396	2690.871582	2204.569336	58.482376
789.151367	1519.887329	2689.438232	2203.025635	58.410309
789.465515	1520.218140	2688.004639	2205.782471	58.706306
789.779602	1521.100220	2684.806641	2203.466797	58.637348
790.093689	1523.967407	2684.475830	2202.253662	58.447334
790.407776	1522.644043	2679.623779	2198.173828	58.387348
790.721741	1523.636475	2679.403076	2198.725098	58.410461
791.035645	1523.415771	2679.072266	2200.048340	58.549625
791.349548	1525.510986	2671.573730	2195.196289	58.433563
791.663391	1529.921875	2665.619141	2192.770508	58.364906
791.977173	1531.134888	2654.701904	2188.690430	58.523926
792.290894	1533.560791	2648.195801	2181.633301	58.142128
792.604614	1532.899170	2638.381592	2175.016846	58.084839
792.918274	1532.127319	2627.244141	2167.407959	58.010307
793.231812	1534.112305	2614.783447	2159.909424	57.908192
793.545410	1535.876587	2603.315186	2154.726563	57.975231
793.858948	1531.796387	2591.957275	2146.235596	57.957165
794.172363	1531.575928	2579.827148	2144.471191	58.468357
794.485840	1531.906738	2572.990234	2139.619141	58.373070
794.799194	1533.009521	2566.925293	2135.539063	58.276463
795.112488	1534.442871	2563.065674	2133.774658	58.265457
795.425781	1536.427856	2558.434326	2133.774658	58.448437
795.738953	1536.538086	2551.928223	2132.671875	58.709827
796.052185	1540.177124	2545.752930	2130.135498	58.668713
796.365234	1536.868896	2541.672852	2124.952637	58.527210
796.678284	1533.671143	2542.995850	2123.850098	58.472656
796.991333	1533.671021	2542.113770	2125.504150	58.687828
797.304382	1533.009521	2535.828369	2123.629395	58.895969
797.617310	1534.553345	2533.402588	2125.062988	59.118996
797.930115	1532.678711	2533.733154	2126.717041	59.341263
798.242981	1527.054810	2533.402588	2127.819824	59.697556
798.555786	1524.849365	2534.505127	2127.378662	59.676704
798.868530	1521.430908	2532.189697	2128.812256	60.091621
799.181213	1523.084961	2532.300293	2128.481445	59.986851
799.493896	1520.879517	2529.984619	2128.701904	60.233803
799.806519	1518.343262	2528.661377	2130.797363	60.619926
800.119080	1519.004883	2524.360596	2127.378662	60.513287
800.431580	1520.989868	2521.603516	2123.739746	60.238022
800.744080	1523.526123	2519.287842	2117.785156	59.678841
801.056458	1525.180298	2511.678955	2112.051025	59.490273
801.368835	1527.716309	2504.952393	2109.073242	59.489918
801.681152	1525.731567	2493.814697	2106.647217	60.006794
801.993408	1522.423218	2482.677002	2102.898193	60.450161
802.305664	1521.982178	2479.148193	2098.046143	60.184330
802.617798	1516.909668	2470.877930	2091.319824	60.212711
802.929993	1518.673950	2462.607422	2094.186523	60.969612
803.242065	1518.012329	2452.241943	2089.996338	61.225204
803.554016	1519.886963	2452.241699	2087.129395	60.839764
803.865967	1521.541138	2451.249512	2083.159424	60.408005
804.177979	1520.438477	2448.823730	2079.520508	60.220909
804.489807	1519.887207	2439.670898	2079.630615	60.855984
804.801697	1522.202881	2436.583252	2077.756104	60.757343
805.113464	1522.974854	2436.031738	2075.330322	60.495186
805.425232	1525.952148	2434.598145	2073.455566	60.254864
805.736938	1523.526123	2427.981689	2074.447998	60.911987
806.048584	1525.400879	2424.673584	2073.676270	60.968758
806.360168	1529.150146	2425.004395	2068.493408	60.204353
806.671753	1527.937134	2423.239990	2066.839355	60.192169
806.983276	1526.172729	2419.160156	2069.044678	60.792786
807.294739	1525.290405	2412.654053	2070.037109	61.389343
807.606140	1521.431030	2407.360840	2073.676025	62.335072
807.917542	1521.541260	2403.611816	2070.037109	62.182762
808.228760	1522.864624	2400.524170	2066.949219	61.992672
808.540100	1523.526245	2402.068115	2061.656250	61.252632
808.851318	1523.967407	2397.877686	2058.789307	61.198719
809.162476	1525.952148	2394.900146	2057.576172	61.180187
809.473633	1524.849487	2395.230957	2056.804688	61.117477
809.784668	1525.731689	2395.010498	2059.561279	61.410629
810.095703	1526.503540	2388.614502	2055.591553	61.371220
810.406738	1527.165161	2381.226074	2056.473633	61.975494
810.717590	1526.282959	2371.742676	2056.804199	62.749439
811.028503	1521.761841	2368.103760	2046.438599	61.993473
811.339294	1521.761841	2361.046387	2042.579102	62.054909
811.650085	1522.423462	2352.776123	2040.153076	62.350571
811.960876	1523.085083	2351.121826	2038.278442	62.218658
812.271545	1523.415894	2351.232178	2033.867798	61.662464
812.582153	1522.202881	2341.197266	2030.448975	62.057335
812.892761	1516.689209	2333.809326	2026.699951	62.415638
813.203308	1519.556396	2328.626221	2026.038330	62.600521
813.513855	1520.218018	2325.428467	2022.399414	62.366478
813.824280	1516.248291	2323.884766	2017.326782	62.042580
814.134705	1519.446045	2318.701904	2011.702881	61.589394
814.445068	1518.233032	2317.819580	2012.143921	61.770786
814.755371	1517.350952	2321.458740	2011.703125	61.478348
815.065613	1516.689209	2320.466064	2011.702881	61.585957
815.375854	1513.932373	2315.172852	2015.011108	62.537872
815.686035	1514.263184	2316.496094	2012.805664	62.144356
815.996155	1515.255737	2312.085205	2006.630249	61.666206
816.306152	1518.674194	2304.807373	2001.226929	61.383076
816.616211	1516.579102	2302.822266	2005.086548	62.131851
816.926208	1518.674316	2306.020508	2007.402100	62.072796
817.236145	1520.659058	2308.997803	2004.094116	61.323265
817.546021	1525.841797	2317.157959	2009.938599	61.176155
817.855774	1526.503540	2324.105225	2017.326782	61.537388
818.165588	1525.400879	2339.763916	2024.825195	61.326988
818.475281	1524.629028	2349.908936	2031.661987	61.437695
818.784973	1525.290527	2366.339600	2039.381348	61.124950
819.094604	1526.062500	2396.885010	2053.716553	60.592606
819.404175	1527.275513	2419.821533	2072.572998	61.094608
819.713684	1526.172729	2456.762939	2088.893311	60.469215
820.023254	1524.298096	2534.284180	2122.526855	59.231388
820.332642	1524.187866	2684.475342	2196.078613	57.907265
820.642090	1523.636475	2922.443848	2311.092773	56.294834
820.951416	1522.974854	3194.376465	2443.530273	55.076855
821.260681	1523.967285	3454.178467	2575.195801	54.461838
821.569946	1525.400879	3665.019775	2686.791748	54.280270
821.879150	1529.150024	3838.809082	2775.561279	53.965160
822.188293	1528.929443	3977.311768	2852.090332	54.042248
822.497437	1528.708862	4100.045410	2916.709961	53.979755
822.806458	1526.613647	4208.553711	2966.884033	53.702560
823.115479	1529.480835	4293.243164	3009.008301	53.533096
823.424438	1529.370483	4370.543945	3047.493408	53.432957
823.733337	1527.165039	4440.566895	3083.001221	53.402733
824.042236	1525.952148	4501.988770	3112.995361	53.327408
824.351013	1526.944458	4551.832031	3137.034668	53.228100
824.659790	1526.944458	4587.119141	3152.362793	53.115211
824.968445	1522.202881	4637.402832	3177.725098	53.143368
825.277100	1523.195313	4701.140625	3204.962891	52.919968
825.585693	1521.871826	4773.699707	3237.934082	52.772236
825.894287	1523.084961	4851.772949	3273.551758	52.587288
826.202820	1521.100098	4899.300781	3301.230225	52.694622
826.511292	1524.959595	4891.250977	3305.090088	52.881058
826.819702	1528.488281	4792.556641	3262.745117	53.131756
827.128113	1529.260376	4605.093750	3170.887939	53.371796
827.436401	1532.678711	4370.654297	3060.395020	53.831200
827.744751	1533.230103	4138.199707	2943.836914	54.150604
828.052917	1533.340210	3952.059082	2847.017578	54.312943
828.361145	1528.819092	3805.065918	2765.746826	54.340668
828.669312	1527.054688	3683.545410	2699.031982	54.346504
828.977356	1525.400635	3573.272705	2640.146484	54.434349
829.285400	1525.841675	3477.335938	2595.485840	54.811546
829.593384	1523.856812	3398.711426	2553.361572	54.911179
829.901306	1522.312988	3322.182373	2514.987061	55.152561
830.209167	1524.849243	3253.482178	2480.030518	55.256454
830.517029	1525.731323	3192.501465	2443.530518	55.064533
830.824829	1524.518311	3135.821533	2416.403320	55.351780
831.132568	1527.606079	3096.564453	2395.230957	55.299419
831.440247	1530.252563	3047.713623	2371.742920	55.453835
831.747925	1528.157471	2990.372070	2352.224854	56.357487
832.055481	1528.488159	2934.133301	2326.310547	56.758450
832.363037	1530.693604	2880.430176	2300.506592	57.034313
832.670532	1532.678589	2841.614502	2275.585205	56.756531
832.977966	1532.568359	2810.517578	2258.713623	56.821136
833.285400	1533.009521	2791.440674	2247.024658	56.738514
833.592712	1533.009399	2771.150391	2243.385742	57.374432
833.900085	1531.355347	2757.917725	2232.468506	57.160824
834.207275	1529.811523	2743.692627	2225.631836	57.321949
834.514526	1529.811523	2728.254395	2216.919922	57.333431
834.821716	1531.465576	2712.705811	2214.053223	57.785675
835.128784	1532.678711	2701.347900	2214.384033	58.331760
835.435852	1535.986816	2698.260254	2212.509277	58.206825
835.742798	1532.568359	2687.894531	2212.068359	58.814560
836.049805	1535.545776	2679.734131	2210.414307	58.982292
836.356750	1536.207520	2666.501465	2207.988037	59.434143
836.663574	1530.031982	2653.048096	2203.025879	59.927361
836.970398	1527.495850	2640.036133	2201.592529	60.590767
837.277161	1529.039673	2629.339355	2195.417236	60.563278
837.583923	1527.385498	2611.916504	2189.793457	61.077827
837.890564	1527.937012	2592.287842	2178.986572	61.168701
838.197205	1528.267822	2561.301270	2159.358154	61.090988
838.503784	1532.237671	2521.272217	2143.589111	61.812950
838.810303	1530.693970	2469.223633	2122.196045	63.024334
839.116699	1530.252808	2421.255127	2100.803223	64.034676
839.423096	1531.024658	2384.203613	2078.417480	64.159203
839.729492	1529.591064	2343.182373	2057.906738	64.936249
840.035828	1528.929443	2307.123535	2034.198486	64.928406
840.342102	1526.723999	2272.056641	2024.052979	66.725777
840.648315	1525.952148	2245.150391	2010.268921	67.341209
840.954529	1526.613892	2223.205811	1998.579834	67.753578
841.260620	1527.606201	2202.033203	1986.670776	68.067345
841.566711	1527.385620	2181.963867	1970.571045	67.705490
841.872803	1526.944458	2162.004395	1959.323120	68.084702
842.178772	1525.731445	2151.308105	1947.083130	67.354126
842.484680	1522.974609	2137.193115	1938.261353	67.612213
842.790588	1521.872070	2127.158203	1929.770264	67.389320
843.096436	1525.841675	2118.667236	1923.926025	67.150337
843.402222	1526.944458	2110.837891	1916.427490	66.704475
843.707947	1523.415771	2102.346924	1910.583008	66.876213
844.013611	1522.423218	2091.429932	1903.635742	66.996140
844.319275	1526.172485	2078.527832	1896.688599	67.079300
844.624817	1527.936890	2068.162598	1890.844116	67.176964
844.930359	1527.826538	2049.857422	1881.691650	67.786240
845.235901	1526.613647	2036.955566	1865.481445	66.400146
845.541321	1525.841797	2020.855713	1857.541870	67.008232
845.846680	1525.510864	2005.638062	1849.932983	67.570038
846.152039	1528.047119	1993.287598	1845.191406	68.167816
846.457275	1528.378052	1981.929443	1844.970825	69.803062
846.762512	1530.032104	1968.806885	1836.259155	69.791397
847.067749	1533.891602	1959.543945	1834.605103	70.647682
847.372925	1534.332764	1948.736938	1831.296875	71.660500
847.677979	1535.325317	1941.789795	1826.996338	71.758057
847.983032	1537.861572	1936.937866	1825.452515	72.064148
848.288025	1535.656006	1930.211548	1821.151733	72.358818
848.592957	1541.390259	1925.138916	1823.798340	73.591942
848.897888	1539.956665	1923.926025	1821.372437	73.291206
849.202759	1540.618286	1920.617798	1817.181885	72.779991
849.507507	1541.831299	1917.199463	1818.063965	73.589798
849.812317	1539.295044	1913.560303	1822.364746	75.633446
850.117004	1541.169678	1907.936401	1819.277100	75.826790
850.421631	1541.941650	1902.863892	1818.174316	76.535233
850.726257	1541.390137	1901.540527	1817.622803	76.699257
851.030823	1540.397827	1898.673584	1817.622925	77.377579
851.335327	1539.736084	1893.821411	1813.763550	77.390236
851.639771	1540.177246	1885.881836	1819.056763	80.669891
851.944153	1540.177124	1881.470825	1818.946411	81.680176
852.248535	1538.964233	1874.854492	1816.740845	82.698624
852.552856	1535.325317	1873.641602	1815.528076	82.822723
852.857056	1534.663696	1873.089844	1816.520508	83.284584
853.161255	1537.861572	1875.515991	1815.638184	82.266541
853.465393	1536.317749	1874.192505	1809.904175	80.972733
853.769531	1532.568359	1873.310669	1805.493286	80.097160
854.073547	1527.165039	1870.884644	1802.736572	80.173355
854.377563	1524.408203	1868.458496	1805.383057	81.666794
854.681580	1520.548828	1865.150269	1806.485718	82.976112
854.985474	1517.681519	1855.446411	1802.515869	84.329178
855.289307	1517.571289	1853.020264	1800.310303	84.286743
855.593140	1517.791870	1852.910156	1799.207397	83.974983
855.896851	1516.137817	1852.469116	1797.443115	83.639343
856.200623	1517.902100	1850.153687	1791.598633	82.376289
856.504272	1518.453613	1852.800049	1794.245117	82.486748
856.807922	1515.917358	1854.454102	1793.803955	82.084618
857.111389	1513.711914	1852.579468	1790.165039	81.581467
857.414978	1516.248169	1844.419312	1787.297852	82.594002
857.718445	1516.358398	1844.419434	1788.179932	82.857002
858.021790	1517.350952	1843.978394	1787.849121	82.815506
858.325195	1517.681763	1841.993530	1788.731445	83.576889
858.628479	1515.917358	1841.000977	1789.062256	84.022964
858.931763	1516.468750	1837.141357	1791.819214	85.866539
859.234985	1515.476318	1831.297119	1789.613647	86.801544
859.538147	1512.609131	1827.547607	1790.055054	88.095276
859.841248	1511.065308	1827.988647	1792.150269	88.691780
860.144287	1514.924927	1826.996094	1797.333008	90.494766
860.447266	1520.989990	1828.098755	1798.104858	90.233459
860.750305	1525.180298	1825.121460	1795.458374	90.110367
861.053223	1529.150146	1825.011353	1793.914429	89.489357
861.356018	1530.804199	1831.076294	1793.473389	87.477058
861.658813	1531.245239	1826.555054	1794.576050	89.171036
861.961609	1528.378296	1823.247070	1796.781494	91.024628
862.264343	1529.370605	1821.813599	1795.678711	91.063255
862.567017	1529.701416	1819.718384	1796.230103	91.901070
862.869629	1529.480957	1819.608032	1795.237671	91.600105
863.172180	1532.017212	1819.497803	1795.568604	91.676239
863.474670	1527.385742	1816.961304	1797.663818	93.335945
863.777161	1522.643921	1821.151733	1796.781616	91.836021
864.079590	1521.541138	1821.151733	1796.450562	91.755577
864.381958	1521.982300	1821.703369	1789.724121	89.330330
864.684265	1520.107666	1823.688110	1785.092651	87.286583
864.986511	1518.784302	1824.680420	1785.533691	87.202606
865.288757	1520.217896	1824.901001	1782.997437	86.246834
865.590942	1520.438477	1827.106445	1776.601929	83.531204
865.893066	1519.556396	1829.532593	1773.734619	81.999275
866.195068	1517.791992	1828.429932	1771.639282	81.718056
866.497131	1518.894775	1829.311890	1768.000610	80.248741
866.799133	1514.263062	1824.459961	1763.810059	80.447937
867.100952	1509.852295	1821.703125	1761.273804	80.622360
867.402832	1512.939819	1822.364746	1762.927856	80.791176
867.704651	1513.491211	1821.372192	1763.589600	81.232162
868.006409	1515.696533	1822.364624	1762.707397	80.546646
868.308105	1519.335571	1826.775635	1756.642456	77.188019
868.609802	1517.681519	1830.524902	1754.436768	75.678520
868.911438	1515.696655	1832.620361	1751.790405	74.495453
869.213013	1517.571411	1829.863281	1749.805664	74.364487
869.514465	1518.343384	1829.311768	1750.136353	74.539078
869.815979	1522.423340	1833.281616	1747.489746	72.401611
870.117371	1526.834351	1834.825562	1751.018555	72.789154
870.418701	1529.370605	1835.487183	1750.687866	72.298355
870.720093	1530.914429	1839.015991	1753.223999	72.154640
871.021301	1533.671265	1839.787964	1753.665161	71.866020
871.322571	1535.656128	1838.133911	1752.121338	71.564003
871.623718	1534.553467	1840.339233	1749.585205	70.321045
871.924805	1534.222656	1845.191406	1751.569702	69.893532
872.225891	1536.207397	1847.837769	1753.224121	69.639145
872.526917	1541.279907	1846.845459	1755.208862	70.010818
872.827881	1541.831299	1848.389282	1757.855225	70.467560
873.128784	1544.808594	1851.476807	1760.060669	70.190536
873.429626	1546.462646	1858.203491	1759.178589	68.234863
873.730408	1542.603149	1858.313599	1759.178345	68.599312
874.031189	1541.279907	1857.651978	1758.847656	68.769585
874.331848	1539.956543	1858.534180	1761.384155	69.505074
874.632568	1537.530640	1857.431396	1767.669678	71.940758
874.933167	1537.640869	1854.123169	1770.536865	73.588951
875.233704	1539.956665	1853.130737	1770.316162	73.556374
875.534241	1538.082031	1853.902710	1776.050415	75.349213
875.834717	1537.751221	1853.351318	1775.388794	75.297050
876.135071	1536.427979	1851.256104	1780.130615	77.408150
876.435425	1533.450684	1851.035767	1776.932861	76.666756
876.735779	1531.355469	1852.579468	1776.712036	76.381767
877.036011	1528.488403	1853.240845	1783.548950	78.539993
877.336182	1526.172729	1851.586914	1785.974854	79.837372
877.636353	1526.944580	1856.659424	1785.533813	78.428146
877.936462	1525.841797	1863.276001	1792.370728	78.986931
878.236511	1527.937012	1868.348633	1797.443237	79.170692
878.536560	1527.165161	1875.295776	1803.398071	79.347488
878.836487	1523.415771	1889.961914	1814.425171	79.392296
879.136414	1521.431030	1918.963745	1827.106567	76.893181
879.436279	1522.313232	1970.460938	1850.815063	73.302132
879.736084	1522.313110	2053.055176	1893.270142	69.894035
880.035828	1522.864502	2156.711426	1945.318604	66.649231
880.335510	1523.967285	2274.923584	2005.086548	64.067543
880.635193	1523.305664	2391.922607	2058.017334	61.558971
880.934753	1524.518555	2499.879639	2112.271484	60.260036
881.234314	1524.959717	2592.508545	2160.680908	59.549614
881.533752	1523.415771	2675.213135	2206.554199	59.310642
881.833252	1523.085083	2748.654541	2240.628418	58.547749
882.132629	1521.320679	2812.833252	2273.269043	58.222301
882.431946	1519.776855	2872.160156	2298.080322	57.550510
882.731323	1522.864502	2918.805176	2327.412842	57.634853
883.030579	1526.613647	2956.518555	2352.665283	57.769691
883.329712	1526.723877	2991.364746	2365.677490	57.280499
883.628845	1526.282837	3021.027832	2382.108154	57.255608
883.927979	1529.480713	3040.325439	2398.538818	57.521339
884.226990	1530.693604	3058.410156	2405.816895	57.283092
884.526001	1530.803833	3066.460205	2407.250488	57.073097
884.824951	1530.142212	3073.297119	2411.220215	57.095890
885.123840	1530.473145	3074.620361	2405.596436	56.673565
885.422729	1530.473145	3053.227539	2394.458984	56.738358
885.721497	1530.914307	3009.008301	2376.043457	57.176956
886.020203	1532.899292	2928.619141	2340.315186	57.849422
886.318909	1532.678711	2828.602051	2291.243896	58.534725
886.617554	1529.149902	2714.249512	2234.012207	59.477051
886.916138	1528.047241	2597.140137	2181.191895	61.093349
887.214661	1524.408203	2491.829590	2127.930176	62.384602
887.513184	1524.518677	2402.067871	2075.881592	62.829857
887.811523	1527.495850	2321.127686	2034.639893	63.901676
888.109924	1514.483765	2151.307861	1891.946777	59.272728
888.408264	1528.378052	2035.521729	1836.369385	60.730587
888.706543	1546.903931	1977.628662	1838.685181	67.741928
889.004761	1565.429688	1931.314087	1861.842407	81.012672
889.302979	1509.852295	1919.735474	1813.212158	74.011299
889.601135	1470.484985	1905.841187	1841.000854	85.106369
889.899170	1489.010742	1859.526611	1808.580688	86.250000
890.197205	1468.169312	1882.683960	1834.053711	88.268150
890.495178	1528.378052	1875.736694	1715.951782	54.000019
890.793091	1560.798218	1901.209717	1797.002075	69.387741
>>>>>End Processed Spectral Data<<<<<
