Jaz Data File
++++++++++++++++++++++++++++++++++++
Date: Thu Sep 26 04:31:39 2019
User: jaz
Dark Spectrum Present: Yes
Reference Spectrum Present: Yes
Processed Spectrum Present: Yes
Spectrometers: JAZA3541
Integration Time (usec): 100000 (JAZA3541)
Spectra Averaged: 1 (JAZA3541)
Boxcar Smoothing: 10 (JAZA3541)
Correct for Electrical Dark: No (JAZA3541)
Strobe/Lamp Enabled: Yes (JAZA3541)
Correct for Detector Non-linearity: No (JAZA3541)
Correct for Stray Light: No (JAZA3541)
Number of Pixels in Processed Spectrum: 2048
>>>>>Begin Processed Spectral Data<<<<<
W	D	R	S	P
190.543274	0.000000	0.000000	0.000000	0.000000
190.921555	0.000000	0.000000	0.000000	0.000000
191.299805	1296.805664	1336.172974	1088.390503	-529.411743
191.678024	1229.649658	1322.278564	1227.333862	-2.500079
192.056229	1345.435913	1313.015747	1169.440796	542.856934
192.434387	1331.541504	1278.279907	1187.966553	269.565613
192.812531	1303.752808	1324.594360	1176.387939	-611.110291
193.190659	1310.699951	1296.805664	1150.915039	1150.004395
193.568741	1319.962891	1359.330200	1201.860962	-300.000000
193.946793	0.000000	0.000000	0.000000	0.000000
194.324829	1207.815674	1211.785522	1083.758789	-3124.977783
194.702835	1271.994385	1273.317627	1142.644409	-9775.230469
195.080811	1337.606445	1335.070313	1198.221802	5495.952148
195.458755	1337.827148	1332.203125	1202.412231	2407.794434
195.836685	1338.268188	1331.541626	1198.552612	2077.072510
196.214569	1339.811890	1336.172974	1201.199341	3809.171387
196.592422	1341.907104	1340.032471	1204.838257	7311.766602
196.970261	1342.679077	1342.127686	1205.941040	24798.716797
197.348068	1343.781860	1343.120117	1208.367065	20463.345703
197.725861	1344.222900	1342.127563	1208.367065	6483.722656
198.103622	1343.561279	1338.157837	1208.366943	2502.003906
198.481323	1340.253052	1337.496216	1208.256714	4787.964844
198.859039	1337.937378	1335.290771	1207.595093	4924.883301
199.236694	1335.070313	1335.621460	1203.184204	-23929.369141
199.614334	1333.416138	1335.511230	1203.515137	-6200.250488
199.991959	1329.115479	1337.937134	1208.477295	-1367.523193
200.369553	1324.373657	1337.826904	1204.727905	-889.344788
200.747101	1322.499023	1341.355835	1207.595093	-609.349731
201.124619	1320.514038	1341.576294	1204.507568	-550.778931
201.502136	1316.323608	1346.538452	1205.941162	-365.325226
201.879623	1313.677246	1349.736450	1205.389648	-300.305023
202.257065	1311.030640	1351.500854	1204.727905	-262.669067
202.634476	1309.927979	1352.934570	1200.317139	-254.869858
203.011871	1305.186279	1354.809082	1203.184204	-205.554840
203.389221	1303.091064	1361.866455	1205.169067	-166.603729
203.766571	1304.745117	1367.931519	1206.823242	-154.973022
204.143875	1300.334229	1365.064331	1204.507568	-148.040329
204.521164	1296.254272	1365.284912	1199.324829	-140.415100
204.898392	1297.798096	1363.300049	1200.096680	-149.158020
205.275620	1298.459717	1368.703369	1201.530151	-137.990494
205.652817	1293.718018	1368.482910	1199.986328	-125.368584
206.029984	1293.607666	1372.673218	1199.655640	-118.828018
206.407135	1291.953613	1374.988892	1200.427490	-110.225586
206.784225	1292.394775	1374.437378	1202.192017	-109.946243
207.161301	1293.607910	1372.893555	1201.971313	-115.577789
207.538376	1298.570190	1373.555176	1201.861084	-128.971298
207.915405	1302.209229	1370.798462	1199.545410	-149.679199
208.292404	1303.422119	1370.798584	1203.184448	-148.772522
208.669373	1305.406860	1366.718506	1200.427490	-171.222565
209.046310	1302.319336	1363.961670	1196.898804	-171.019699
209.423218	1303.863159	1361.645874	1195.575439	-187.405045
209.800095	1305.737793	1357.124756	1197.009033	-211.588226
210.176956	1308.715210	1353.265137	1199.324707	-245.545868
210.553787	1308.163818	1355.911743	1202.743164	-220.785828
210.930603	1309.597412	1356.242554	1202.412354	-229.788254
211.307358	1315.221313	1353.485718	1200.868408	-298.849304
211.684113	1317.316406	1349.846680	1197.670532	-367.798553
212.060837	1316.985596	1348.413086	1199.434937	-374.037689
212.437531	1316.765015	1350.839233	1199.986206	-342.718964
212.814178	1314.008179	1354.037109	1202.522583	-278.512543
213.190826	1312.574585	1351.280273	1201.971191	-285.754883
213.567413	1313.125977	1352.383057	1201.199341	-285.111969
213.943985	1310.258789	1357.345337	1201.640381	-230.678223
214.320541	1309.266479	1357.124756	1198.001343	-232.488815
214.697052	1307.612305	1361.315186	1196.678101	-206.570297
215.073563	1309.266357	1363.300049	1197.339722	-207.142303
215.449997	1303.863159	1360.874023	1197.560303	-186.460693
215.826431	1301.326904	1362.086914	1197.670532	-170.599670
216.202850	1300.334351	1364.954102	1197.891235	-158.532211
216.579224	1298.459717	1369.695923	1199.104126	-139.473450
216.955582	1300.885742	1374.989014	1200.868530	-134.970032
217.331894	1300.554932	1374.217041	1199.655518	-136.975998
217.708191	1300.003418	1376.863647	1197.670532	-133.141525
218.084442	1300.113770	1383.480103	1198.332275	-122.089447
218.460678	1296.915771	1384.141602	1199.765869	-111.377449
218.836899	1295.041260	1385.685303	1200.427490	-104.379471
219.213074	1292.615234	1387.339478	1199.545288	-98.253563
219.589233	1294.269287	1392.191650	1206.051392	-90.089630
219.965347	1296.805542	1398.697510	1208.697876	-86.471649
220.341431	1295.592529	1399.359131	1210.792969	-81.721443
220.717499	1296.254150	1400.241455	1206.271851	-86.532005
221.093552	1295.041260	1402.336548	1204.838379	-84.069748
221.469543	1299.011108	1407.078247	1207.595093	-84.591873
221.845535	1302.980835	1407.409058	1209.469727	-89.545822
222.221466	1305.296631	1411.709595	1210.021118	-89.533745
222.597397	1305.186279	1417.884766	1209.690186	-84.735916
222.973297	1302.760376	1426.706543	1210.572510	-74.377342
223.349167	1300.554932	1437.403076	1213.329224	-63.739052
223.725006	1297.467285	1446.996826	1216.637329	-54.056179
224.100800	1295.041260	1454.385010	1216.858032	-49.065765
224.476578	1295.372070	1465.081543	1221.709961	-43.404831
224.852325	1297.577515	1475.778076	1228.216064	-38.923248
225.228058	1298.680298	1495.847778	1230.972900	-34.340042
225.603760	1297.577637	1523.195313	1237.920044	-26.441896
225.979416	1295.261963	1552.086792	1244.205566	-19.879852
226.355057	1295.372192	1590.351318	1248.726807	-15.813114
226.730652	1296.805664	1642.069214	1254.019897	-12.392205
227.106232	1296.915894	1691.912231	1268.024536	-7.314335
227.481796	1294.159180	1736.903687	1275.633423	-4.184299
227.857315	1292.946167	1778.145630	1279.272339	-2.818187
228.232788	1296.033813	1815.638184	1283.683105	-2.376945
228.608246	1296.695435	1848.058350	1291.733032	-0.900025
228.983704	1297.026245	1883.345459	1302.429565	0.921566
229.359100	1297.577637	1916.206665	1307.943115	1.675556
229.734482	1293.166748	1945.870117	1311.361572	2.787610
230.109833	1290.189453	1973.768921	1316.875122	3.903814
230.485153	1290.189331	1989.979126	1320.844971	4.380692
230.860443	1289.527710	2012.585205	1324.042969	4.773515
231.235703	1293.166748	2031.331421	1324.484009	4.242585
231.610931	1293.607788	2055.481445	1326.027954	4.255321
231.986145	1293.056396	2079.300049	1332.754395	5.049071
232.361313	1290.189209	2098.708252	1336.724365	5.755604
232.736465	1287.983765	2121.313965	1337.165405	5.901819
233.111572	1285.888550	2134.656982	1343.230347	6.755882
233.486664	1288.865845	2141.052734	1343.671631	6.431193
233.861725	1290.409668	2141.604248	1342.458496	6.114798
234.236755	1292.284302	2138.957520	1341.576538	5.821873
234.611771	1296.474731	2120.873047	1342.127808	5.537745
234.986740	1298.900635	2101.023926	1340.583984	5.196626
235.361679	1299.782959	2083.710938	1342.458496	5.443809
235.736588	1298.570068	2073.235107	1343.892090	5.850532
236.111496	1297.908447	2069.375488	1347.751709	6.460841
236.486343	1298.459717	2071.139893	1354.147461	7.207088
236.861160	1301.106323	2071.250000	1359.440430	7.574445
237.235962	1300.334351	2079.961426	1369.144409	8.826022
237.610733	1302.760376	2089.996338	1378.848511	9.665226
237.985474	1301.437134	2106.978271	1392.853027	11.348383
238.360199	1300.665283	2140.501221	1404.431763	12.355565
238.734879	1301.767944	2177.662842	1424.391235	13.999772
239.109543	1300.334473	2227.616455	1450.194824	16.161249
239.484177	1304.635132	2281.650146	1477.211670	17.663652
239.858749	1310.810303	2350.680908	1501.361450	18.324505
240.233322	1311.361694	2434.047119	1529.039673	19.389044
240.607864	1313.126099	2511.899414	1563.444702	20.881229
240.982391	1314.559570	2592.618896	1590.130737	21.561687
241.356857	1316.213745	2651.063232	1621.337769	22.858309
241.731308	1315.000610	2704.435059	1644.605225	23.722214
242.105728	1317.977905	2744.684814	1673.937866	24.949760
242.480118	1312.354126	2785.926758	1697.646362	26.146811
242.854492	1310.479492	2835.880127	1719.259888	26.798231
243.228836	1309.045898	2893.442383	1740.211670	27.213249
243.603134	1312.905518	2957.290283	1775.278442	28.118294
243.977402	1312.023193	3046.721436	1820.269531	29.298832
244.351654	1310.920532	3168.241699	1870.774414	30.143084
244.725861	1310.810303	3315.235107	1931.093384	30.945690
245.100067	1311.912964	3466.970215	1992.074463	31.561182
245.474213	1311.361694	3603.377197	2057.245605	32.542706
245.848343	1316.985474	3710.341553	2109.735352	33.122940
246.222443	1318.198486	3794.700195	2157.262939	33.881035
246.596512	1318.419067	3855.019287	2193.652832	34.504208
246.970566	1321.286133	3892.181641	2211.958252	34.644432
247.344574	1320.845093	3904.862793	2223.646973	34.937916
247.718567	1317.206055	3891.740234	2228.829590	35.409260
248.092529	1318.749756	3859.430420	2227.175293	35.755203
248.466431	1315.441650	3833.075195	2225.852051	36.161354
248.840332	1313.236206	3807.051025	2224.197754	36.528835
249.214203	1311.030640	3809.476563	2221.771973	36.452316
249.588043	1313.787598	3825.797363	2234.894287	36.668118
249.961838	1310.038330	3853.696045	2242.393066	36.654095
250.335617	1313.677124	3886.888428	2259.595459	36.760227
250.709381	1313.456665	3901.664795	2273.489746	37.092579
251.083084	1318.198608	3899.569824	2278.672607	37.207901
251.456787	1314.780029	3882.367188	2270.732910	37.231564
251.830460	1316.434204	3829.656738	2250.112061	37.150623
252.204071	1313.456787	3746.069824	2217.802246	37.175888
252.577667	1310.038452	3638.995117	2172.259521	37.021774
252.951248	1310.369263	3513.615234	2127.489014	37.087086
253.324799	1308.604858	3406.099365	2081.174561	36.832977
253.698303	1305.737671	3326.152100	2045.997803	36.639023
254.071793	1305.296631	3267.817627	2016.995850	36.264542
254.445236	1304.083618	3233.853760	1995.492554	35.828564
254.818665	1300.113770	3219.959473	1987.111938	35.784031
255.192062	1300.003418	3219.077393	1986.891357	35.792675
255.565430	1300.444458	3243.888672	1999.021606	35.945316
255.938782	1301.878052	3283.365967	2015.562500	36.017601
256.312103	1304.745117	3340.266846	2031.331299	35.695328
256.685364	1306.730225	3419.442383	2065.405518	35.910015
257.058594	1304.965820	3518.357178	2108.963135	36.324226
257.431793	1302.098633	3646.714600	2157.813721	36.497025
257.804993	1302.760254	3790.178955	2212.288574	36.565147
258.178162	1299.672729	3928.240234	2262.793457	36.640518
258.551270	1298.128906	4052.517578	2309.438721	36.716309
258.924377	1294.379639	4145.587402	2351.011719	37.059105
259.297485	1293.938599	4222.999023	2377.146484	36.981411
259.670502	1293.056396	4286.625977	2400.083252	36.980160
260.043518	1295.151489	4346.063477	2425.114746	37.036900
260.416473	1298.569946	4394.473145	2448.272217	37.136246
260.789459	1297.026123	4449.830078	2467.569824	37.127068
261.162354	1297.246704	4497.467773	2480.802490	36.983562
261.535278	1298.349365	4541.796875	2496.902100	36.953049
261.908142	1298.790527	4576.092285	2508.039795	36.897709
262.280975	1301.216553	4595.279297	2516.641113	36.897430
262.653717	1302.870605	4609.834961	2519.508301	36.790165
263.026520	1300.113892	4627.809570	2523.588135	36.766407
263.399261	1297.357056	4643.688477	2517.302734	36.456211
263.771973	1296.915894	4654.495605	2515.538330	36.294670
264.144653	1298.239258	4653.502930	2512.671387	36.194836
264.517334	1301.106323	4633.103027	2504.731689	36.123249
264.889954	1302.208862	4586.678223	2485.323975	36.021500
265.262543	1305.627563	4506.179199	2449.264648	35.732498
265.635071	1308.053589	4405.610840	2409.566406	35.560696
266.007599	1311.802856	4310.224609	2361.597900	35.011585
266.380127	1312.133545	4240.201660	2323.774414	34.549774
266.752594	1315.882935	4205.575684	2297.860352	33.982067
267.125031	1315.000732	4197.084473	2293.559814	33.953178
267.497437	1313.236328	4212.963867	2290.141357	33.689545
267.869843	1316.544556	4239.098633	2290.913086	33.339622
268.242218	1313.567261	4277.473633	2297.639404	33.201866
268.614532	1311.913208	4335.697754	2313.408447	33.120586
268.986816	1312.354126	4430.973633	2340.756104	32.976192
269.359100	1311.471924	4539.150879	2373.065918	32.890324
269.731354	1310.038452	4652.510742	2404.714355	32.750488
270.103516	1311.030762	4749.219727	2433.495361	32.646973
270.475708	1311.361572	4830.049805	2463.379395	32.739979
270.847839	1314.890381	4902.499023	2481.022949	32.504452
271.219971	1318.419067	4961.053711	2505.282959	32.582565
271.592041	1320.403809	5006.596191	2515.979248	32.433887
271.964081	1321.065552	5036.369629	2523.919189	32.375645
272.336151	1316.434204	5064.048340	2524.360107	32.231865
272.708130	1316.654785	5090.182129	2525.242432	32.028061
273.080109	1313.015869	5107.385254	2527.557861	32.009060
273.452026	1311.582275	5141.238770	2534.946289	31.944485
273.823914	1310.369263	5176.085449	2547.517334	32.003075
274.195770	1310.369263	5215.893555	2560.860352	32.018520
274.567627	1309.376831	5261.987793	2569.351074	31.877012
274.939423	1310.700073	5304.332031	2578.173096	31.737352
275.311249	1312.243896	5345.464355	2590.413574	31.691044
275.682983	1310.479492	5376.120117	2596.698975	31.636330
276.054688	1309.707520	5401.151855	2600.889404	31.558094
276.426422	1307.943115	5403.577148	2592.288086	31.358881
276.798065	1312.243896	5370.495117	2578.945313	31.212986
277.169708	1313.236206	5325.172852	2560.750244	31.095058
277.541321	1317.757446	5277.536133	2544.099121	30.969954
277.912903	1316.985352	5267.832031	2540.570557	30.970201
278.284424	1316.764893	5279.741211	2535.828613	30.761318
278.655945	1315.882813	5301.685547	2546.194092	30.867340
279.027435	1312.574707	5332.010254	2553.141602	30.864206
279.398865	1310.920532	5391.226563	2574.423828	30.965895
279.770294	1307.502075	5467.424805	2601.771484	31.112822
280.141663	1310.810303	5539.763672	2629.670166	31.186438
280.513031	1313.015869	5615.631348	2658.892578	31.280434
280.884369	1315.993164	5680.912598	2693.297363	31.553944
281.255676	1314.559570	5725.462402	2706.971436	31.567503
281.626953	1313.787720	5763.727051	2727.923340	31.778761
281.998199	1316.654907	5805.189453	2741.707520	31.748728
282.369385	1313.346680	5856.245605	2764.092529	31.934362
282.740540	1313.236328	5915.572754	2784.493408	31.967613
283.111694	1311.802856	5983.280273	2812.723145	32.129456
283.482819	1310.479492	6070.064941	2844.701904	32.234371
283.853912	1314.559570	6165.339844	2878.555664	32.242153
284.224945	1315.441772	6257.858398	2918.364014	32.431953
284.595978	1313.346436	6348.502930	2960.047119	32.704063
284.966980	1311.030762	6425.914551	2992.136475	32.866940
285.337952	1309.817749	6500.238281	3025.218262	33.049355
285.708893	1306.730103	6535.746094	3046.169922	33.265144
286.079803	1305.406860	6558.352051	3069.989014	33.592243
286.450684	1304.745239	6574.893066	3082.780518	33.737862
286.821533	1307.391846	6588.677246	3101.967773	33.979908
287.192322	1306.399414	6596.506836	3117.957520	34.244259
287.563110	1307.391968	6602.571289	3132.844482	34.473858
287.933868	1303.642700	6627.272461	3159.089355	34.853035
288.304596	1299.672852	6668.735352	3193.604492	35.274902
288.675262	1300.885742	6725.304199	3219.628662	35.372326
289.045929	1301.326782	6777.683594	3256.569824	35.703354
289.416565	1300.113770	6826.645020	3295.827393	36.111504
289.787170	1296.805664	6843.957520	3328.027100	36.617374
290.157745	1293.718018	6845.170898	3350.632813	37.051826
290.528259	1293.497437	6840.870605	3377.318848	37.564110
290.898773	1294.820801	6830.614746	3387.794678	37.808018
291.269226	1294.269287	6813.852539	3400.476074	38.158802
291.639679	1290.630371	6797.202148	3420.655762	38.681515
292.010101	1294.820801	6810.876465	3451.532471	39.098801
292.380463	1293.828369	6840.539551	3486.267822	39.526836
292.750824	1298.680298	6882.332031	3522.767822	39.832130
293.121155	1300.775391	6928.756836	3567.869141	40.282539
293.491455	1307.502197	6990.068359	3613.742676	40.584488
293.861725	1310.920532	7072.000977	3666.453613	40.887005
294.231964	1313.125977	7184.479004	3728.426270	41.137032
294.602142	1314.669678	7298.721680	3784.444824	41.272625
294.972321	1314.669800	7398.077148	3845.977051	41.610023
295.342468	1316.213623	7496.991699	3900.341553	41.809101
295.712555	1317.095825	7559.295410	3941.252686	42.038975
296.082672	1318.419067	7583.776855	3961.652832	42.188076
296.452728	1315.882813	7585.761719	3978.635010	42.468956
296.822693	1319.080688	7589.400879	3996.830078	42.705147
297.192657	1321.065552	7589.180664	3996.608887	42.684975
297.562622	1322.388916	7606.824219	4010.503662	42.774162
297.932556	1326.027954	7627.886230	4025.610840	42.837887
298.302460	1328.233398	7634.833496	4031.125000	42.858143
298.672333	1327.792358	7640.347656	4046.011475	43.060524
299.042145	1329.005127	7636.597656	4051.745117	43.166073
299.411957	1330.218140	7623.033691	4051.083984	43.237652
299.781677	1326.027954	7584.768555	4041.379883	43.384960
300.151428	1326.579224	7523.125977	4024.839355	43.544579
300.521149	1326.248291	7458.727051	4001.461670	43.623688
300.890839	1322.829956	7386.829590	3968.821045	43.634422
301.260468	1317.095825	7310.961914	3930.997314	43.609604
301.630096	1318.418945	7223.515625	3887.550293	43.507015
301.999695	1319.080688	7102.436523	3840.573730	43.599136
302.369232	1316.323975	6976.063965	3789.296387	43.694096
302.738739	1314.449219	6859.727051	3728.757080	43.538086
303.108246	1310.699951	6722.106445	3674.613525	43.683907
303.477692	1311.251343	6610.841309	3619.257080	43.550652
303.847137	1311.361816	6522.182129	3575.478516	43.450294
304.216553	1311.361572	6456.680176	3543.609863	43.384064
304.585876	1310.369141	6397.794434	3510.307617	43.242668
304.955231	1309.597046	6350.267090	3487.370605	43.204048
305.324493	1306.619751	6311.010254	3467.741699	43.184521
305.693787	1306.178711	6280.244629	3454.399170	43.188419
306.063049	1306.509521	6274.399414	3453.847412	43.224346
306.432251	1307.391846	6272.414551	3448.002930	43.113823
306.801422	1305.627319	6267.783691	3442.709717	43.067619
307.170593	1304.524658	6268.334961	3443.040527	43.082142
307.539673	1303.642456	6275.171875	3444.584717	43.064060
307.908783	1304.304077	6290.831055	3441.166748	42.852730
308.277832	1302.650146	6307.150879	3448.003418	42.868477
308.646851	1300.444702	6338.357910	3455.612061	42.778973
309.015839	1303.973389	6378.717773	3473.255615	42.746632
309.384796	1298.239258	6410.586914	3491.230225	42.895966
309.753723	1295.151733	6446.205566	3506.558105	42.931145
310.122620	1294.600220	6472.339844	3519.460205	42.969711
310.491486	1296.144165	6484.690430	3525.084473	42.958862
310.860352	1299.342041	6501.231445	3527.399902	42.831703
311.229126	1299.452148	6515.456055	3532.803223	42.817280
311.597931	1298.680298	6523.726074	3529.163574	42.688301
311.966675	1300.224121	6544.016602	3534.456787	42.607189
312.335388	1300.665161	6579.523926	3552.541260	42.658386
312.704071	1298.680298	6617.236816	3569.523438	42.696609
313.072723	1301.326904	6632.564941	3571.177490	42.576424
313.441345	1301.988525	6630.139160	3569.412842	42.555561
313.809875	1302.650146	6611.061523	3554.416260	42.418835
314.178436	1298.459839	6573.018066	3540.190918	42.500828
314.546967	1304.193970	6535.194824	3529.936035	42.549068
314.915466	1304.635132	6494.283691	3503.911377	42.378139
315.283936	1308.604858	6440.911621	3478.548828	42.280090
315.652374	1309.266602	6398.125977	3454.950439	42.164337
316.020752	1307.943237	6345.084961	3429.808105	42.124382
316.389130	1313.236328	6299.542480	3412.275391	42.096073
316.757416	1313.346680	6259.072266	3390.992676	42.008923
317.125732	1312.574585	6233.378418	3377.980713	41.972946
317.494019	1313.126099	6201.399414	3358.241455	41.837173
317.862274	1315.441895	6169.530762	3347.655518	41.866016
318.230469	1314.338989	6137.441406	3339.495117	41.988659
318.598663	1315.441772	6109.211914	3328.357422	41.990242
318.966797	1315.221069	6076.571289	3314.021973	41.979710
319.334930	1314.449341	6049.113281	3304.097412	42.023003
319.703003	1310.148682	6018.347656	3284.027832	41.924290
320.071045	1307.612305	5975.341309	3261.091553	41.850742
320.439056	1306.178711	5939.722656	3242.345215	41.785866
320.807037	1306.399292	5937.627441	3234.626221	41.635326
321.175049	1305.296631	5958.910156	3233.743652	41.439777
321.542969	1301.878052	5990.778809	3247.086670	41.485386
321.910828	1306.178711	6035.219238	3260.980957	41.336128
322.278717	1304.965820	6093.112305	3279.837891	41.245022
322.646515	1308.053345	6142.183594	3305.531738	41.320324
323.014313	1307.501953	6192.908691	3321.630859	41.227455
323.382111	1304.855469	6229.739746	3339.605225	41.315685
323.749817	1304.745117	6278.259766	3354.051270	41.204384
324.117523	1303.752808	6305.828125	3360.336670	41.114616
324.485199	1301.326782	6320.052734	3368.055420	41.180340
324.852814	1304.193970	6319.501465	3364.968018	41.089680
325.220428	1306.399292	6317.957520	3361.218750	41.001606
325.588013	1305.075928	6324.794434	3352.176270	40.781178
325.955536	1308.384155	6334.498535	3347.765625	40.575710
326.323059	1308.825317	6352.804199	3348.316650	40.434177
326.690552	1309.597168	6376.622070	3357.689697	40.420021
327.058014	1311.030640	6396.030273	3365.960205	40.411602
327.425415	1314.338989	6409.152344	3379.082520	40.526382
327.792816	1317.977905	6423.708984	3381.068115	40.407345
328.160187	1320.955322	6430.545410	3379.083008	40.279705
328.527496	1321.837646	6416.541504	3376.656738	40.332451
328.894775	1322.940430	6410.255859	3368.496582	40.208950
329.262054	1325.697144	6391.839844	3359.013428	40.135395
329.629303	1323.712280	6378.275879	3354.933350	40.185886
329.996490	1321.837646	6364.161621	3344.677734	40.117214
330.363647	1317.977905	6370.558105	3338.723145	39.994324
330.730774	1316.985718	6381.474609	3340.267090	39.950359
331.097839	1316.544434	6412.020020	3345.229248	39.813454
331.464935	1316.103394	6438.044434	3353.830811	39.784283
331.831970	1312.353882	6459.437500	3366.511963	39.909168
332.198975	1311.802490	6487.336426	3372.025391	39.806961
332.565948	1311.582153	6516.007324	3383.383301	39.808453
332.932892	1304.965698	6553.610352	3394.190186	39.805031
333.299744	1305.406860	6581.950195	3407.754150	39.843266
333.666656	1301.878174	6619.553711	3420.434814	39.839897
334.033478	1300.444702	6650.540039	3430.911133	39.821091
334.400299	1300.665283	6674.027344	3440.063965	39.814896
334.767090	1298.570068	6710.527344	3451.311768	39.777508
335.133850	1299.562622	6735.669434	3455.612305	39.661652
335.500549	1296.805786	6758.166016	3461.236328	39.631714
335.867218	1291.622803	6781.985352	3472.483887	39.721622
336.233917	1292.725586	6818.154785	3483.621338	39.651142
336.600525	1292.505005	6834.694824	3491.781250	39.682442
336.967102	1293.938599	6855.757324	3499.831543	39.661362
337.333649	1296.915894	6867.004395	3499.059570	39.535164
337.700195	1294.269287	6866.563965	3505.896240	39.689697
338.066681	1296.254150	6856.970215	3498.728516	39.607750
338.433136	1295.813110	6847.266602	3488.914063	39.504990
338.799591	1296.254272	6825.983398	3477.335449	39.442822
339.165985	1296.584961	6811.758789	3466.418457	39.342976
339.532318	1300.775391	6816.390625	3461.566895	39.175892
339.898651	1300.995972	6828.851074	3463.772217	39.125057
340.264954	1300.444580	6846.163574	3457.045410	38.887669
340.631226	1305.627319	6861.712891	3463.110596	38.830997
340.997467	1305.406860	6901.410645	3477.556641	38.816090
341.363678	1306.840454	6942.652344	3494.869385	38.823666
341.729828	1308.274048	6995.914551	3513.174805	38.766529
342.095947	1305.627563	7056.674316	3536.883301	38.797386
342.462067	1306.178833	7114.677734	3565.553955	38.897743
342.828156	1305.076050	7183.377441	3591.136963	38.889824
343.194183	1304.414551	7254.171875	3618.594971	38.895374
343.560211	1309.597290	7313.718750	3636.458984	38.754410
343.926178	1311.582275	7371.282227	3650.463623	38.597313
344.292114	1310.259155	7404.143066	3670.974365	38.739094
344.658020	1307.502197	7440.643066	3677.811035	38.647552
345.023926	1307.943237	7478.025391	3693.469971	38.662807
345.389771	1309.817871	7515.187500	3698.101563	38.487373
345.755585	1307.061157	7535.036621	3709.680420	38.577850
346.121368	1309.376953	7556.099121	3721.920654	38.620953
346.487122	1309.707642	7582.233398	3733.830322	38.646671
346.852844	1309.597412	7608.037109	3745.739502	38.678501
347.218536	1308.163818	7628.216309	3755.222900	38.718967
347.584167	1309.487061	7650.822266	3767.132080	38.755955
347.949768	1309.487061	7669.127930	3781.577637	38.871544
348.315369	1310.259033	7693.718750	3789.517822	38.838795
348.680939	1312.684937	7708.384766	3784.444824	38.647213
349.046448	1312.464478	7717.426270	3787.532471	38.642975
349.411957	1310.810303	7721.727051	3787.312012	38.629444
349.777435	1313.677490	7716.654785	3776.615234	38.465508
350.142792	1315.772705	7705.848145	3762.500488	38.289497
350.508209	1317.757568	7707.170898	3756.435303	38.167477
350.873566	1320.734985	7710.369629	3759.302734	38.164433
351.238892	1324.153320	7723.822754	3767.683350	38.182129
351.604187	1317.647217	7751.722656	3778.931641	38.253895
351.969482	1319.521973	7817.224609	3794.369873	38.088043
352.334717	1317.647339	7876.330566	3821.055420	38.169373
352.699890	1318.308838	7959.255371	3845.535645	38.055222
353.065063	1317.647217	8043.062500	3877.514893	38.062599
353.430237	1317.095825	8157.305176	3922.947510	38.096077
353.795319	1313.456787	8287.425781	3969.592529	38.086430
354.160370	1313.897827	8413.466797	4021.530762	38.137989
354.525421	1315.441650	8548.000977	4081.077637	38.238689
354.890442	1315.993164	8704.146484	4141.286621	38.240860
355.255402	1310.589600	8870.106445	4206.237305	38.304668
355.620331	1311.912964	9055.035156	4280.561035	38.339161
355.985260	1311.913086	9232.242188	4352.680176	38.391930
356.350098	1310.699951	9388.499023	4423.033691	38.529480
356.714935	1313.015869	9533.837891	4482.912598	38.559364
357.079742	1313.456909	9660.432617	4542.018066	38.679413
357.444519	1311.361694	9805.770508	4608.402344	38.814243
357.809296	1311.030762	9967.540039	4677.874023	38.893772
358.173981	1309.266479	10156.877930	4751.866211	38.909931
358.538605	1307.171265	10367.388672	4827.403809	38.853729
358.903259	1303.091187	10606.127930	4923.120117	38.912334
359.267914	1305.958008	10871.113281	5031.849121	38.952751
359.632477	1302.208740	11147.125000	5146.201660	39.045464
359.997009	1303.091064	11412.661133	5256.473633	39.105347
360.361542	1299.893188	11615.783203	5335.208496	39.117474
360.726013	1303.201416	11769.945313	5399.717773	39.138405
361.090485	1304.304321	11863.676758	5436.989746	39.137608
361.454895	1310.259033	11911.866211	5458.713867	39.130436
361.819244	1311.251343	11933.588867	5465.330078	39.107010
362.183594	1308.935791	11933.038086	5463.235352	39.102596
362.547913	1305.958374	11891.907227	5448.238281	39.129978
362.912201	1310.148682	11832.580078	5424.088379	39.096851
363.276489	1311.692383	11753.514648	5390.234375	39.059677
363.640686	1309.045898	11666.289063	5354.395508	39.058170
364.004883	1308.053467	11603.984375	5324.842773	39.013367
364.369049	1307.502075	11540.247070	5289.996582	38.919125
364.733154	1305.627319	11501.651367	5264.413086	38.826756
365.097198	1305.296631	11440.780273	5233.536621	38.757301
365.461273	1304.855469	11349.916992	5196.043945	38.737328
365.825287	1303.863037	11219.022461	5146.090332	38.751041
366.189270	1305.517212	11049.423828	5078.824219	38.724789
366.553223	1306.509644	10853.798828	4992.260254	38.605206
366.917114	1304.083740	10603.810547	4890.038086	38.559784
367.281006	1309.156250	10322.946289	4776.126465	38.462955
367.644867	1308.715088	10066.894531	4664.420898	38.315105
368.008698	1311.251465	9856.163086	4587.781250	38.344803
368.372498	1305.958374	9704.648438	4519.743164	38.265308
368.736237	1305.075928	9600.442383	4468.576172	38.135750
369.099976	1302.429565	9538.358398	4438.582031	38.078915
369.463654	1301.988525	9494.360352	4418.291992	38.039085
369.827332	1302.208862	9463.153320	4398.442871	37.939651
370.190948	1304.193848	9440.435547	4382.012207	37.828503
370.554535	1302.650146	9416.837891	4365.581543	37.747852
370.918091	1301.106445	9393.791016	4364.147949	37.849510
371.281647	1303.091309	9380.999023	4362.273926	37.870979
371.645111	1305.848267	9366.443359	4358.413574	37.870224
372.008575	1305.186523	9363.686523	4362.713867	37.941643
372.371979	1305.406982	9347.367188	4358.303223	37.962093
372.735382	1308.604858	9362.143555	4352.128418	37.791134
373.098724	1308.384155	9392.909180	4364.479004	37.801785
373.462067	1307.501953	9422.242188	4382.232422	37.890682
373.825348	1305.847900	9491.492188	4416.196289	37.997601
374.188599	1304.855347	9567.139648	4448.727051	38.050877
374.551819	1305.517090	9684.690430	4496.364746	38.080696
374.915009	1303.091187	9826.390625	4546.758789	38.056477
375.278168	1303.532227	9977.463867	4601.233887	38.018536
375.641266	1299.672729	10109.459961	4648.209961	38.009285
376.004395	1302.319214	10216.204102	4688.569824	37.988495
376.367462	1305.296631	10289.535156	4720.658691	38.015041
376.730469	1302.980957	10335.959961	4743.155273	38.084606
377.093475	1300.995972	10366.173828	4748.999512	38.035694
377.456421	1299.672852	10399.367188	4761.350098	38.041687
377.819336	1303.201538	10434.763672	4784.176270	38.120251
378.182281	1304.304199	10477.661133	4801.599609	38.124485
378.545135	1306.619873	10523.974609	4804.576660	37.949684
378.907928	1304.965820	10570.621094	4815.163086	37.883961
379.270752	1303.752808	10610.319336	4822.440918	37.808659
379.633484	1304.304077	10644.283203	4828.836426	37.735973
379.996246	1308.604858	10675.931641	4835.672852	37.652874
380.358948	1305.737671	10694.016602	4851.001465	37.762657
380.721558	1306.509521	10717.394531	4856.294434	37.719990
381.084198	1307.281494	10758.856445	4862.028320	37.610100
381.446747	1309.156006	10778.814453	4870.740234	37.610485
381.809326	1310.589722	10797.670898	4877.467285	37.597206
382.171875	1312.574707	10791.716797	4876.695313	37.599609
382.534363	1312.354126	10755.877930	4870.630371	37.679543
382.896790	1311.361572	10704.710938	4852.986816	37.703541
383.259247	1315.441772	10669.204102	4836.114746	37.639107
383.621613	1316.544556	10660.161133	4835.894531	37.665825
383.983948	1316.765015	10687.950195	4845.377441	37.653851
384.346283	1317.647217	10738.124023	4857.066406	37.571552
384.708588	1315.772705	10823.144531	4890.699219	37.601627
385.070831	1320.073242	10899.012695	4924.774414	37.631527
385.433075	1315.662354	10992.963867	4947.380371	37.528210
385.795258	1316.765015	11075.448242	4976.161133	37.498871
386.157440	1312.133667	11151.536133	5009.903809	37.581245
386.519531	1312.795288	11244.496094	5036.920898	37.497356
386.881622	1310.810303	11316.504883	5067.577148	37.546288
387.243683	1310.700073	11391.710938	5096.027344	37.549084
387.605713	1307.391724	11473.091797	5134.182129	37.644142
387.967682	1309.817749	11555.907227	5163.513672	37.611382
388.329651	1307.832886	11652.283203	5202.329590	37.648174
388.691559	1308.053345	11748.441406	5237.175781	37.633877
389.053467	1303.752686	11868.749023	5270.588379	37.546967
389.415314	1301.326782	11987.513672	5321.975586	37.624729
389.777130	1303.752808	12107.820313	5360.240234	37.545929
390.138885	1299.782959	12230.442383	5397.842773	37.491421
390.500641	1300.665039	12323.181641	5437.872070	37.534142
390.862366	1296.584961	12410.408203	5474.702637	37.593884
391.224060	1296.364502	12484.620117	5500.506836	37.576389
391.585693	1297.246704	12571.514648	5530.059570	37.544018
391.947296	1298.569946	12659.623047	5565.236816	37.555206
392.308868	1304.524658	12724.023438	5590.599609	37.532951
392.670441	1304.304077	12789.525391	5608.243164	37.473713
393.031952	1307.171265	12819.077148	5622.358398	37.484558
393.393433	1306.399414	12846.205078	5635.590332	37.515285
393.754883	1308.494507	12861.644531	5638.458008	37.478638
394.116302	1307.502075	12850.395508	5638.458008	37.520542
394.477692	1311.141113	12853.373047	5630.077148	37.418549
394.839020	1310.589722	12852.491211	5624.784668	37.378544
395.200348	1310.589722	12851.718750	5611.882324	37.269253
395.561646	1308.825317	12834.958008	5608.684570	37.305309
395.922882	1312.574585	12799.230469	5583.763184	37.183914
396.284088	1313.787476	12739.682617	5564.575684	37.203106
396.645264	1316.103271	12662.161133	5541.087402	37.237465
397.006409	1316.985474	12567.545898	5494.772949	37.134041
397.367523	1312.905396	12464.992188	5455.516113	37.146507
397.728577	1317.426514	12368.834961	5422.985352	37.149643
398.089600	1319.080688	12297.267578	5386.154297	37.046864
398.450592	1319.631958	12241.248047	5352.631348	36.926765
398.811584	1319.631958	12182.804688	5332.341797	36.938656
399.172546	1317.536865	12098.225586	5301.686035	36.956352
399.533447	1316.323853	12017.835938	5262.428711	36.874275
399.894318	1310.479492	11962.148438	5235.080566	36.844940
400.255127	1308.935791	11911.533203	5216.555176	36.855301
400.615936	1307.502197	11882.752930	5211.482422	36.916195
400.976685	1307.171387	11886.833008	5209.938477	36.889336
401.337433	1305.517212	11916.826172	5214.349121	36.836475
401.698151	1304.745483	11971.852539	5240.594238	36.897057
402.058807	1301.657715	12056.542969	5278.417969	36.976318
402.419434	1299.672729	12151.487305	5328.371094	37.124653
402.780060	1297.467285	12260.105469	5367.518066	37.126560
403.140594	1296.364624	12359.020508	5403.466797	37.125820
403.501129	1292.394775	12453.856445	5449.891602	37.248680
403.861633	1291.181763	12540.641602	5485.840332	37.287643
404.222076	1289.196777	12626.102539	5511.424316	37.243206
404.582550	1287.983765	12698.000000	5539.212891	37.258743
404.942932	1289.307007	12768.574219	5564.686035	37.244354
405.303284	1293.607666	12843.891602	5587.953613	37.179569
405.663605	1292.174316	12899.579102	5601.737793	37.127712
406.023895	1293.056396	12936.077148	5625.887695	37.213978
406.384125	1290.409912	12989.669922	5646.619141	37.234913
406.744354	1290.850952	13056.826172	5665.696289	37.182171
407.104553	1291.291992	13123.429688	5690.286621	37.178360
407.464691	1296.364624	13183.198242	5707.709473	37.111183
407.824829	1296.916016	13253.110352	5735.057129	37.120014
408.184906	1296.805664	13333.279297	5756.559570	37.051998
408.544922	1298.129028	13397.016602	5783.355957	37.071400
408.904938	1299.562500	13444.985352	5802.323242	37.073727
409.264923	1300.224121	13466.709961	5809.600586	37.063919
409.624847	1298.239258	13452.485352	5806.292969	37.090363
409.984802	1301.437256	13428.113281	5788.869629	37.004639
410.344666	1303.091187	13393.708008	5777.511719	37.007378
410.704529	1305.076050	13355.223633	5761.081055	36.978840
411.064331	1307.612305	13323.023438	5741.672852	36.903111
411.424133	1306.399414	13317.508789	5734.395020	36.865833
411.783875	1306.509644	13312.107422	5730.094727	36.846020
412.143555	1310.369263	13321.479492	5730.645996	36.801567
412.503235	1308.274048	13338.792969	5741.894043	36.853107
412.862885	1304.635010	13348.716797	5743.437500	36.854637
413.222473	1305.406860	13404.625000	5773.872559	36.931858
413.582062	1303.642578	13483.800781	5796.147461	36.883797
413.941559	1302.870605	13553.383789	5819.305176	36.867310
414.301086	1304.855591	13638.513672	5855.144043	36.893261
414.660522	1306.399414	13709.198242	5891.533691	36.968544
415.019958	1303.863037	13795.209961	5924.726074	36.992516
415.379364	1302.429688	13906.364258	5958.248047	36.939404
415.738708	1300.555054	14027.223633	5996.182129	36.895962
416.098053	1300.996216	14169.366211	6040.181152	36.828167
416.457336	1300.996094	14353.409180	6112.629883	36.863941
416.816559	1302.870728	14553.443359	6175.264648	36.771198
417.175812	1306.840454	14794.830078	6269.546875	36.793526
417.535004	1302.319336	15084.958008	6373.644531	36.795025
417.894135	1306.289063	15413.351563	6497.922852	36.801662
418.253265	1303.091187	15806.914063	6640.173340	36.797760
418.612335	1300.775513	16211.945313	6783.748535	36.770912
418.971405	1302.870728	16630.541016	6933.939941	36.737934
419.330414	1304.304077	17066.005859	7098.466309	36.761017
419.689423	1303.642334	17500.701172	7255.053711	36.743778
420.048370	1306.178711	17901.873047	7404.583496	36.746906
420.407257	1306.619751	18312.748047	7555.436035	36.744495
420.766144	1307.281372	18696.716797	7698.349609	36.752594
421.125000	1310.479370	19089.509766	7845.343750	36.756020
421.483795	1311.692383	19479.652344	7984.727539	36.729687
421.842560	1309.817749	19892.181641	8131.722656	36.711720
422.201324	1305.627563	20295.669922	8266.034180	36.652927
422.560028	1306.730225	20666.406250	8407.843750	36.679920
422.918671	1310.259033	21005.935547	8538.516602	36.699718
423.277283	1307.281494	21295.291016	8645.810547	36.714657
423.635925	1306.950806	21519.697266	8725.979492	36.704704
423.994476	1306.178833	21684.664063	8784.534180	36.697308
424.353027	1301.437134	21815.447266	8835.259766	36.725258
424.711487	1299.562500	21918.664063	8862.717773	36.680332
425.069946	1303.422119	21966.853516	8873.193359	36.633659
425.428375	1300.003662	21932.335938	8856.763672	36.625816
425.786743	1302.980957	21839.044922	8814.638672	36.577885
426.145081	1302.650146	21688.634766	8758.179688	36.571838
426.503418	1303.201538	21511.423828	8686.833008	36.537758
426.861725	1303.642578	21295.402344	8596.079102	36.477211
427.219971	1305.958252	21063.716797	8516.573242	36.495110
427.578186	1305.737671	20870.742188	8440.264648	36.465759
427.936371	1306.509521	20683.941406	8373.219727	36.468765
428.294495	1304.524658	20465.931641	8278.164063	36.394196
428.652618	1305.406982	20213.738281	8190.057129	36.410671
429.010712	1308.604858	19949.083984	8096.104004	36.412685
429.368744	1307.502197	19655.095703	7986.162109	36.400742
429.726746	1309.266479	19377.318359	7885.813477	36.398758
430.084717	1308.163818	19099.431641	7791.088379	36.438801
430.442688	1307.060913	18835.882813	7686.550781	36.394287
430.800568	1309.376709	18608.390625	7604.839355	36.392033
431.158417	1306.840454	18434.820313	7542.204102	36.404549
431.516235	1306.068604	18281.431641	7479.348145	36.366112
431.874023	1311.692505	18144.582031	7436.452148	36.385674
432.231812	1313.567261	18015.671875	7392.342773	36.395264
432.589508	1312.574707	17917.308594	7351.101074	36.366295
432.947205	1313.015869	17823.136719	7315.482910	36.356285
433.304840	1313.015747	17743.410156	7280.636719	36.320621
433.662476	1316.213623	17696.322266	7267.183594	36.330467
434.020050	1314.890381	17657.066406	7254.282227	36.343945
434.377594	1312.795166	17623.541016	7239.395020	36.335552
434.735138	1308.825195	17599.613281	7223.736816	36.308319
435.092621	1308.935669	17586.931641	7209.621094	36.249458
435.450043	1307.612305	17582.742188	7201.682129	36.215195
435.807465	1309.707520	17606.451172	7208.629395	36.196934
436.164856	1308.053345	17642.402344	7219.216309	36.188545
436.522156	1303.973267	17711.433594	7233.110352	36.136837
436.879486	1305.737671	17791.822266	7267.404785	36.161816
437.236755	1306.840454	17887.759766	7307.322754	36.189079
437.593994	1306.730225	17994.613281	7331.032227	36.099857
437.951172	1304.635010	18134.107422	7377.125977	36.082481
438.308380	1308.053467	18255.406250	7414.067871	36.029312
438.665497	1306.840454	18378.800781	7453.214844	36.002747
439.022583	1309.266602	18541.562500	7505.152344	35.955078
439.379608	1306.399414	18692.748047	7545.954102	35.887669
439.736633	1303.973389	18803.460938	7580.137695	35.864845
440.093628	1303.311646	18901.603516	7616.858398	35.875908
440.450562	1302.098633	18996.988281	7645.639648	35.849564
440.807495	1300.003540	19074.402344	7682.691895	35.909451
441.164368	1297.687866	19164.937500	7700.775879	35.837009
441.521210	1294.820679	19226.908203	7728.785645	35.879620
441.878021	1295.813232	19294.947266	7760.654785	35.917515
442.234833	1294.820801	19409.521484	7791.089355	35.861858
442.591522	1293.056274	19506.119141	7821.413574	35.844368
442.948242	1294.379517	19605.806641	7855.158691	35.828880
443.304901	1289.748169	19723.906250	7905.441895	35.888233
443.661530	1290.961060	19876.414063	7943.927734	35.796635
444.018127	1295.372070	20038.294922	7994.101074	35.740047
444.374664	1293.717773	20193.007813	8035.674316	35.673069
444.731201	1294.710327	20324.121094	8074.490234	35.627903
445.087738	1294.159058	20459.091797	8123.892090	35.636612
445.444183	1294.048950	20529.777344	8149.144531	35.637306
445.800598	1288.535278	20607.960938	8179.799805	35.670132
446.156982	1294.710449	20632.111328	8191.709961	35.666634
446.513336	1294.379639	20623.511719	8180.902344	35.627686
446.869598	1296.143921	20639.279297	8178.917480	35.582512
447.225891	1296.254272	20655.710938	8185.423340	35.585548
447.582153	1298.569946	20644.904297	8182.776855	35.584038
447.938354	1298.900757	20658.910156	8196.782227	35.629536
448.294495	1300.113892	20673.464844	8185.423340	35.540104
448.650665	1300.775269	20647.441406	8189.833984	35.608505
449.006775	1304.304199	20650.308594	8177.483398	35.527641
449.362823	1304.634888	20653.947266	8177.814941	35.521572
449.718842	1306.068604	20646.886719	8190.275879	35.594189
450.074860	1303.201416	20633.435547	8184.873535	35.600559
450.430817	1299.121338	20615.460938	8177.816406	35.610760
450.786713	1303.091187	20522.720703	8138.448730	35.564461
451.142578	1302.429443	20414.103516	8101.728516	35.576679
451.498444	1299.672852	20259.611328	8043.614746	35.569431
451.854248	1298.790649	20091.447266	7982.964355	35.568008
452.210022	1296.364624	19887.664063	7903.788574	35.540409
452.565765	1297.687866	19641.093750	7810.606445	35.505501
452.921478	1298.790527	19413.382813	7726.138184	35.481602
453.277191	1300.665039	19194.601563	7634.061035	35.394089
453.632813	1293.717896	19016.619141	7557.311035	35.341808
453.988434	1291.953491	18836.214844	7496.551270	35.365395
454.343964	1291.512451	18654.484375	7445.052734	35.440590
454.699524	1291.512451	18502.417969	7375.691895	35.350723
455.054993	1289.858398	18362.921875	7320.005371	35.319656
455.410400	1292.946045	18256.728516	7269.059570	35.228657
455.765839	1292.505005	18209.533203	7256.818359	35.256275
456.121216	1291.843384	18214.494141	7250.532227	35.211323
456.476593	1290.850952	18258.162109	7268.948730	35.233028
456.831909	1292.505005	18381.447266	7309.417969	35.209396
457.187195	1290.299438	18541.011719	7345.146484	35.099113
457.542450	1292.725586	18748.433594	7414.397949	35.069748
457.897644	1294.049072	18936.558594	7470.636719	35.009689
458.252808	1294.710571	19188.201172	7547.938477	34.946945
458.607971	1291.733398	19381.619141	7613.551270	34.946697
458.963013	1290.079224	19505.677734	7656.557129	34.950695
459.318085	1288.755859	19596.982422	7689.088379	34.958778
459.673096	1285.116821	19666.013672	7720.074219	35.008942
460.028076	1286.440063	19745.630859	7740.915039	34.966187
460.383057	1284.786133	19806.941406	7755.139648	34.933048
460.737976	1287.983887	19834.839844	7769.365234	34.945984
461.092865	1292.725586	19855.791016	7780.392090	34.949326
461.447723	1296.916016	19856.453125	7780.282227	34.932800
461.802551	1298.239258	19856.453125	7764.403320	34.842598
462.157288	1297.467407	19858.546875	7772.783691	34.886528
462.512054	1300.224121	19875.419922	7776.533691	34.865364
462.866760	1298.349487	19855.460938	7769.916504	34.873783
463.221405	1300.224121	19807.162109	7752.273926	34.862873
463.576019	1303.091187	19712.216797	7722.940430	34.873188
463.930603	1302.539917	19614.736328	7683.573730	34.845810
464.285156	1299.121338	19475.904297	7623.363770	34.792969
464.639709	1298.128906	19264.953125	7548.378906	34.787727
464.994171	1297.908203	19023.126953	7459.058105	34.759232
465.348633	1296.584961	18747.886719	7361.907715	34.755707
465.703033	1295.923462	18464.816406	7253.289551	34.698605
466.057434	1298.790649	18214.716797	7166.284180	34.686211
466.411774	1299.562622	18037.949219	7097.032715	34.635777
466.766083	1301.106445	17885.222656	7038.146484	34.593582
467.120331	1305.737793	17779.470703	6995.692871	34.539562
467.474548	1301.106445	17689.046875	6969.006836	34.585800
467.828735	1303.752930	17619.908203	6936.917480	34.525074
468.182922	1304.083740	17569.181641	6914.643555	34.494473
468.537048	1303.752808	17523.308594	6899.977539	34.502945
468.891144	1301.878296	17492.320313	6881.671875	34.463501
469.245178	1301.878174	17462.218750	6876.378906	34.494946
469.599213	1302.539917	17443.248047	6864.910156	34.461746
469.953186	1298.680298	17429.464844	6858.625000	34.467915
470.307129	1296.805664	17448.871094	6861.711914	34.453217
470.661041	1296.364624	17470.375000	6862.042969	34.411243
471.014923	1294.159180	17540.398438	6875.386230	34.353962
471.368713	1291.402344	17554.513672	6882.663574	34.380020
471.722504	1291.733154	17527.056641	6883.325684	34.440907
472.076294	1294.159180	17506.875000	6877.371094	34.437241
472.429993	1294.820679	17450.636719	6857.302246	34.430210
472.783722	1298.680298	17445.673828	6853.552734	34.401901
473.137329	1298.900757	17468.169922	6874.063477	34.479992
473.490967	1297.136353	17501.912109	6874.282715	34.416683
473.844543	1299.893188	17586.824219	6907.254395	34.428593
474.198090	1304.304077	17671.072266	6933.499023	34.394051
474.551605	1302.319214	17800.201172	6967.022949	34.335941
474.905060	1308.384155	17940.027344	7014.439941	34.308430
475.258484	1308.935547	18086.910156	7069.795898	34.335850
475.611877	1306.178711	18251.660156	7120.410645	34.311401
475.965240	1308.273926	18447.281250	7183.486816	34.279774
476.318573	1309.266235	18634.302734	7251.525391	34.298683
476.671844	1309.597168	18851.650391	7323.863770	34.284851
477.025116	1311.912964	19080.025391	7396.863770	34.246464
477.378326	1311.582275	19312.589844	7482.104004	34.278755
477.731506	1315.882690	19547.250000	7556.758789	34.231529
478.084656	1316.323975	19827.232422	7651.482910	34.223923
478.437744	1317.867554	20118.792969	7743.892090	34.179298
478.790833	1320.844971	20460.417969	7849.422852	34.110367
479.143890	1321.506836	20876.585938	7983.183105	34.066223
479.496826	1319.191040	21361.125000	8144.180664	34.053551
479.849823	1318.308838	22011.734375	8361.417969	34.035492
480.202728	1315.441650	22825.765625	8638.864258	34.046082
480.555603	1315.110840	23823.623047	8969.020508	34.004513
480.908478	1315.441772	25161.562500	9429.298828	34.025898
481.261292	1316.985596	26807.597656	10038.004883	34.212673
481.614075	1312.574707	28644.851563	10761.502930	34.570583
481.966797	1312.464355	30482.433594	11500.108398	34.925114
482.319489	1309.045898	32214.595703	12165.492188	35.127819
482.672150	1305.296631	33764.917969	12734.059570	35.209167
483.024780	1306.730103	35107.265625	13210.435547	35.217506
483.377350	1302.870605	36224.988281	13596.830078	35.203934
483.729919	1298.018677	37244.351563	13955.105469	35.211067
484.082428	1299.011108	38192.691406	14280.851563	35.187168
484.434937	1295.702881	39178.636719	14625.894531	35.187855
484.787384	1295.151489	40234.167969	14990.565430	35.171444
485.139771	1292.725586	41388.390625	15402.102539	35.189285
485.492157	1292.835815	42569.632813	15810.000000	35.170277
485.844482	1293.387207	43648.093750	16183.162109	35.154949
486.196777	1294.710449	44636.695313	16533.718750	35.159924
486.549072	1296.033813	45404.960938	16798.263672	35.145336
486.901276	1296.695313	45975.839844	16991.572266	35.127972
487.253448	1298.239258	46288.355469	17103.279297	35.130028
487.605591	1302.208984	46303.132813	17106.146484	35.119141
487.957703	1299.672607	46083.031250	17049.357422	35.168610
488.309784	1299.562378	45554.933594	16871.708984	35.187019
488.661835	1296.033691	44797.800781	16570.666016	35.112675
489.013855	1298.349365	44004.054688	16216.357422	34.932117
489.365814	1299.231567	43266.445313	15859.623047	34.694683
489.717743	1303.532349	42634.578125	15567.401367	34.511269
490.069611	1305.186401	42050.355469	15338.255859	34.441063
490.421509	1304.965820	41502.742188	15154.429688	34.453308
490.773315	1302.981079	41014.894531	14979.207031	34.438595
491.125092	1306.619995	40491.542969	14790.861328	34.411812
491.476807	1304.524780	39882.945313	14578.585938	34.407993
491.828522	1307.612305	39140.375000	14319.335938	34.392742
492.180176	1309.707520	38236.800781	13999.213867	34.363674
492.531830	1309.156128	37205.195313	13632.448242	34.330505
492.883423	1306.178711	36045.132813	13234.033203	34.335678
493.234985	1304.745239	34956.851563	12853.372070	34.317696
493.586487	1304.965698	33935.281250	12494.656250	34.292313
493.937988	1305.296509	33071.078125	12189.533203	34.264027
494.289429	1307.391846	32372.283203	11949.689453	34.258282
494.640869	1306.950562	31790.261719	11747.889648	34.251331
494.992218	1303.752808	31337.705078	11588.106445	34.242424
495.343567	1308.053345	30892.642578	11418.948242	34.176220
495.694855	1309.266479	30385.390625	11239.314453	34.151897
496.046112	1310.589722	29761.578125	11025.605469	34.146496
496.397339	1310.479492	28948.871094	10736.360352	34.104305
496.748535	1314.008179	28032.728516	10415.577148	34.064392
497.099670	1311.030884	27087.691406	10082.775391	34.029793
497.450806	1309.817871	26246.529297	9779.635742	33.965260
497.801880	1306.840576	25569.789063	9531.520508	33.898102
498.152924	1311.582275	24976.521484	9322.004883	33.849327
498.503937	1313.897827	24514.037109	9161.115234	33.824009
498.854889	1314.449219	24176.052734	9035.074219	33.771145
499.205841	1312.243774	23892.431641	8934.948242	33.758377
499.556702	1311.140991	23686.552734	8859.631836	33.735649
499.907562	1307.943115	23485.634766	8779.904297	33.691338
500.258362	1310.148560	23315.595703	8716.276367	33.655884
500.609161	1309.707520	23158.457031	8662.794922	33.654499
500.959900	1308.494507	22990.400391	8601.151367	33.634758
501.310608	1307.171265	22819.037109	8531.348633	33.582291
501.661255	1307.171265	22611.285156	8471.250977	33.627682
502.011902	1309.266602	22391.291016	8396.595703	33.617878
502.362488	1311.913086	22170.857422	8320.949219	33.602062
502.713043	1309.487061	21960.457031	8247.948242	33.598717
503.063568	1309.817871	21776.964844	8180.240234	33.568050
503.414063	1310.369263	21571.416016	8105.475586	33.537785
503.764496	1309.487061	21409.425781	8039.532715	33.482918
504.114899	1307.722656	21250.632813	7987.485352	33.494423
504.465271	1306.950684	21128.449219	7944.699219	33.487621
504.815613	1310.699951	21029.423828	7906.435059	33.449097
505.165894	1314.559570	20931.613281	7869.604980	33.415035
505.516174	1314.890381	20892.464844	7847.880371	33.369762
505.866394	1313.125977	20881.437500	7840.933105	33.359070
506.216583	1311.802856	20873.714844	7839.718750	33.370541
506.566711	1311.802734	20907.458984	7838.063965	33.304630
506.916840	1310.810303	20949.033203	7854.825684	33.322849
507.266907	1311.251343	21002.847656	7876.329590	33.339493
507.616882	1312.464355	21083.457031	7892.099121	33.279236
507.966858	1310.589966	21133.298828	7907.096191	33.277523
508.316803	1311.251587	21188.214844	7922.865234	33.262695
508.666748	1311.030884	21251.291016	7945.250977	33.270481
509.016632	1309.707642	21313.376953	7957.711426	33.233921
509.366486	1309.046021	21402.917969	7984.617676	33.221931
509.716309	1306.840454	21490.474609	8019.243164	33.256660
510.066040	1308.715088	21588.066406	8054.639648	33.264992
510.415771	1308.935669	21689.849609	8094.007324	33.291302
510.765503	1303.863037	21797.253906	8134.808105	33.332432
511.115173	1302.870483	21897.271484	8168.110352	33.335468
511.464752	1302.650024	21996.625000	8196.120117	33.311485
511.814270	1304.965820	22078.666016	8225.121094	33.312099
512.163818	1302.980835	22163.134766	8259.085938	33.346375
512.513306	1300.444580	22225.990234	8284.779297	33.377075
512.862793	1297.797974	22280.796875	8301.320313	33.377129
513.212219	1294.931030	22320.494141	8313.009766	33.378792
513.561646	1295.482178	22372.982422	8332.307617	33.385483
513.911011	1294.710449	22402.203125	8346.754883	33.410149
514.260315	1298.128906	22437.380859	8358.551758	33.399586
514.609558	1299.893188	22506.414063	8375.754883	33.366444
514.958801	1300.665283	22600.585938	8413.689453	33.394608
515.308044	1304.193970	22745.705078	8467.612305	33.409111
515.657227	1303.311890	22949.488281	8531.349609	33.391754
516.006348	1307.171387	23197.712891	8614.605469	33.381699
516.355408	1308.935669	23468.322266	8691.133789	33.314091
516.704529	1306.950684	23702.210938	8773.838867	33.341377
517.053467	1310.810181	23927.384766	8855.440430	33.358856
517.402466	1309.817627	24100.404297	8915.539063	33.372208
517.751404	1310.589600	24227.660156	8962.625000	33.390110
518.100281	1315.882813	24354.253906	8988.208008	33.302376
518.449219	1316.764893	24445.224609	9020.408203	33.308071
518.798035	1314.228638	24541.933594	9052.607422	33.315296
519.146851	1311.471924	24637.761719	9081.278320	33.309227
519.495544	1311.582275	24703.267578	9101.458008	33.301903
519.844299	1311.582031	24792.478516	9118.771484	33.249111
520.192932	1310.589600	24892.824219	9151.743164	33.250256
520.541626	1311.912964	24987.878906	9179.863281	33.231800
520.890198	1313.236084	25089.660156	9211.730469	33.219856
521.238770	1315.993042	25211.404297	9248.562500	33.197041
521.587280	1313.897827	25350.234375	9280.320313	33.143250
521.935791	1315.000488	25468.556641	9318.585938	33.136261
522.284180	1312.905273	25587.652344	9359.607422	33.148449
522.632629	1310.810181	25735.308594	9404.708008	33.138443
522.981018	1313.346436	25881.085938	9456.867188	33.147209
523.329346	1309.376709	26049.583984	9529.537109	33.225914
523.677551	1312.795288	26239.253906	9606.287109	33.271843
524.025818	1310.810303	26502.146484	9678.736328	33.217476
524.374023	1305.848267	26813.333984	9764.198242	33.160263
524.722229	1304.304443	27208.441406	9886.820313	33.131836
525.070374	1302.760376	27733.115234	10052.669922	33.105530
525.418457	1301.878174	28432.574219	10290.197266	33.129704
525.766541	1303.532227	29419.845703	10617.595703	33.126904
526.114563	1305.406860	30673.535156	11056.701172	33.203659
526.462585	1304.414429	32059.880859	11554.583008	33.327957
526.810547	1302.319214	33429.792969	12051.029297	33.456444
527.158447	1303.311523	34649.191406	12486.605469	33.537258
527.506348	1306.509521	35670.535156	12853.923828	33.603203
527.854065	1305.406860	36507.835938	13139.419922	33.617035
528.201904	1305.296631	37179.289063	13368.125000	33.625553
528.549622	1304.965820	37700.105469	13554.596680	33.657326
528.897339	1304.965820	38087.820313	13684.829102	33.656612
529.245056	1305.848022	38392.945313	13786.721680	33.652874
529.592712	1304.965942	38621.097656	13869.864258	33.671490
529.940369	1302.209106	38808.785156	13942.202148	33.700741
530.287903	1298.239258	39002.093750	14009.579102	33.713634
530.635437	1300.003662	39242.042969	14073.098633	33.664757
530.982910	1296.254272	39534.929688	14161.205078	33.643818
531.330383	1298.349487	39778.742188	14255.266602	33.671478
531.677795	1296.364624	39893.535156	14313.710938	33.726166
532.025208	1296.805664	39896.734375	14334.553711	33.776611
532.372498	1296.144043	39700.453125	14266.404297	33.772930
532.719788	1294.379639	39259.023438	14120.073242	33.783257
533.067078	1295.261841	38522.738281	13869.642578	33.777149
533.414307	1297.577637	37499.183594	13507.068359	33.726379
533.761536	1299.782959	36364.812500	13088.033203	33.618252
534.108643	1298.790649	35301.566406	12689.838867	33.500347
534.455811	1298.349487	34402.292969	12367.511719	33.437592
534.802856	1298.459717	33658.390625	12093.705078	33.359913
535.149902	1300.996094	33076.042969	11894.662109	33.339577
535.496887	1300.665161	32572.203125	11728.703125	33.346741
535.843811	1298.790527	32153.277344	11586.230469	33.341793
536.190796	1300.113892	31807.683594	11467.688477	33.328037
536.537659	1300.885742	31473.228516	11364.473633	33.353683
536.884460	1301.216553	31187.402344	11258.501953	33.317352
537.231323	1303.973267	30885.589844	11141.944336	33.257042
537.578064	1306.950806	30573.738281	11038.949219	33.252705
537.924805	1308.274048	30209.177734	10917.208008	33.247864
538.271423	1307.502197	29892.691406	10809.361328	33.240498
538.618164	1308.935547	29722.433594	10742.867188	33.202290
538.964783	1312.795288	29751.984375	10740.440430	33.150192
539.311279	1312.354126	29938.345703	10778.595703	33.068691
539.657776	1313.787720	30217.447266	10882.912109	33.106964
540.004333	1312.023193	30474.714844	10966.278320	33.104813
540.350769	1311.030762	30722.937500	11047.439453	33.103630
540.697144	1310.920410	30910.619141	11100.479492	33.073170
541.043518	1307.501953	31016.039063	11147.566406	33.122009
541.389893	1307.832764	30991.449219	11143.707031	33.135700
541.736145	1312.243652	30870.919922	11108.199219	33.140709
542.082458	1311.030762	30728.115234	11069.273438	33.172024
542.428711	1313.677490	30558.958984	11007.298828	33.145931
542.774902	1311.030884	30414.613281	10943.672852	33.097786
543.121033	1314.559570	30309.851563	10899.010742	33.055199
543.467102	1315.772705	30228.580078	10871.775391	33.051109
543.813171	1314.449341	30173.115234	10858.873047	33.072990
544.159180	1314.118530	30124.265625	10837.039063	33.054050
544.505127	1316.103394	30064.390625	10809.692383	33.023148
544.851135	1315.882813	29946.505859	10762.164063	32.993629
545.197021	1314.228760	29733.347656	10692.472656	32.999771
545.542908	1312.574585	29327.765625	10564.776367	33.025661
545.888733	1313.125977	28734.279297	10353.494141	32.968594
546.234558	1312.574585	27955.421875	10090.935547	32.948284
546.580322	1314.449219	27086.472656	9800.916992	32.928993
546.926025	1314.449219	26190.398438	9479.251953	32.822075
547.271667	1315.331421	25366.664063	9211.951172	32.832359
547.617371	1312.464233	24569.062500	8953.693359	32.856178
547.962952	1309.376709	23836.634766	8719.584961	32.894409
548.308533	1316.875244	23176.984375	8498.709961	32.853611
548.654053	1318.749878	22597.058594	8298.895508	32.804043
548.999573	1316.985596	22105.242188	8129.847656	32.772652
549.344971	1317.426514	21676.394531	7976.347656	32.707554
549.690430	1313.456787	21303.451172	7853.944824	32.718811
550.035767	1313.897827	20995.458984	7760.543945	32.754749
550.381104	1314.338867	20720.439453	7664.937500	32.724751
550.726440	1308.715088	20440.898438	7575.947266	32.757538
551.071655	1308.053345	20193.007813	7481.333496	32.688881
551.416931	1305.737671	19905.525391	7389.476074	32.708645
551.762085	1305.958130	19601.064453	7297.068359	32.747066
552.107178	1303.752686	19293.402344	7184.700684	32.690731
552.452332	1302.539795	18985.742188	7079.389648	32.668571
552.797424	1304.304077	18713.041016	6982.791016	32.618603
553.142395	1299.011108	18451.914063	6912.877930	32.728378
553.487366	1300.113770	18255.408203	6843.626465	32.694878
553.832336	1301.106323	18065.296875	6792.240234	32.755138
554.177185	1299.782959	17916.652344	6758.606445	32.851093
554.522095	1301.326782	17807.810547	6706.337891	32.744774
554.866943	1304.745361	17704.042969	6669.837891	32.715382
555.211731	1306.068604	17624.757813	6636.755859	32.666149
555.556396	1300.885742	17547.566406	6597.938965	32.603912
555.901123	1302.760376	17476.771484	6577.649414	32.613365
556.245789	1303.201538	17389.656250	6543.023926	32.572884
556.590454	1305.406860	17291.294922	6512.588379	32.573616
556.934998	1303.642700	17206.494141	6470.905273	32.492680
557.279541	1307.722656	17093.353516	6421.833984	32.397255
557.624023	1306.620117	16953.750000	6378.276855	32.412697
557.968567	1311.361694	16822.525391	6331.852051	32.366947
558.312988	1313.567017	16687.994141	6292.374023	32.383694
558.657349	1316.213745	16581.359375	6268.775879	32.443596
559.001770	1315.000732	16496.228516	6248.927246	32.500183
559.346069	1317.757568	16420.470703	6235.252930	32.560345
559.690308	1318.970459	16366.767578	6222.020508	32.583176
560.034485	1318.529541	16310.417969	6206.141602	32.601711
560.378723	1321.727173	16279.982422	6187.395020	32.528313
560.722900	1318.970459	16237.306641	6179.234863	32.579132
561.067017	1315.662354	16214.701172	6162.583496	32.531769
561.411072	1315.110962	16186.361328	6151.115234	32.519154
561.755127	1317.206055	16158.242188	6154.423340	32.593529
562.099182	1316.213745	16149.860352	6151.666992	32.597874
562.443115	1316.103394	16154.382813	6159.606445	32.641945
562.787048	1318.198486	16166.845703	6166.112793	32.648861
563.130920	1317.536865	16204.117188	6175.045410	32.630119
563.474792	1314.559570	16275.242188	6201.290039	32.663818
563.818604	1309.817749	16366.658203	6235.253906	32.712280
564.162354	1314.890259	16455.423828	6275.061523	32.760876
564.506042	1312.133545	16567.021484	6312.113770	32.776253
564.849731	1311.582153	16664.722656	6344.644531	32.781975
565.193420	1309.376709	16735.189453	6376.843750	32.850567
565.537048	1304.304077	16789.001953	6385.003906	32.811100
565.880615	1304.965820	16818.666016	6384.452148	32.741940
566.224121	1303.201416	16827.597656	6378.056641	32.689552
566.567627	1303.642578	16828.146484	6372.432129	32.650249
566.911072	1306.509766	16823.736328	6365.705566	32.603737
567.254517	1305.848022	16856.265625	6373.975586	32.591583
567.597839	1307.612305	16881.408203	6384.341309	32.597893
567.941223	1305.847900	16914.271484	6393.935059	32.598339
568.284485	1305.186401	16938.753906	6399.008301	32.582596
568.627808	1306.289063	17000.615234	6402.977539	32.474720
568.970947	1304.855591	17070.197266	6423.377930	32.466930
569.314148	1310.589600	17146.837891	6445.211914	32.423222
569.657288	1314.449341	17232.078125	6465.943359	32.363453
570.000366	1315.772461	17313.900391	6500.127930	32.406013
570.343445	1316.213745	17378.958984	6516.447754	32.374504
570.686462	1319.301392	17399.359375	6526.924805	32.385601
571.029419	1319.521851	17410.937500	6518.543945	32.309288
571.372314	1314.559570	17389.546875	6504.539551	32.286060
571.715210	1314.780029	17336.173828	6497.150879	32.346569
572.058105	1315.441650	17284.566406	6481.051270	32.347481
572.400879	1318.308716	17266.921875	6473.221680	32.322014
572.743713	1316.985474	17250.712891	6469.803711	32.339066
573.086426	1315.882813	17256.779297	6465.502930	32.304459
573.429077	1315.993042	17280.599609	6473.332031	32.304829
573.771790	1313.456787	17288.978516	6476.970215	32.321407
574.114441	1308.825317	17280.158203	6486.674316	32.419643
574.457031	1309.376709	17246.634766	6474.213379	32.407310
574.799561	1306.399414	17192.378906	6454.805664	32.408489
575.142029	1312.684937	17144.080078	6434.846680	32.354454
575.484436	1316.103271	17057.294922	6411.579590	32.370335
575.826904	1311.471802	16940.076172	6387.429199	32.478634
576.169250	1314.890381	16794.847656	6339.241211	32.457134
576.511597	1309.266357	16627.013672	6285.868164	32.489120
576.853943	1303.863037	16422.126953	6220.035645	32.518105
577.196167	1302.980835	16207.315430	6144.608887	32.484695
577.538391	1300.885742	15981.145508	6071.167969	32.494537
577.880554	1295.923462	15774.605469	5997.946289	32.475491
578.222717	1297.798096	15546.340820	5933.988281	32.537998
578.564819	1298.459717	15335.276367	5874.551758	32.600639
578.906860	1297.798096	15149.357422	5804.859375	32.538296
579.248901	1294.489990	14957.482422	5741.452637	32.547504
579.590942	1292.505005	14756.014648	5676.501953	32.562065
579.932861	1296.474854	14573.073242	5607.030273	32.467319
580.274780	1295.813232	14376.127930	5551.783691	32.537220
580.616638	1297.577515	14177.304688	5490.030762	32.550789
580.958496	1300.665161	13971.095703	5427.947754	32.574131
581.300232	1301.988525	13802.267578	5357.373047	32.442352
581.641968	1302.760376	13638.404297	5300.362305	32.406918
581.983704	1300.885620	13495.599609	5261.987305	32.482121
582.325317	1296.915771	13360.736328	5208.725586	32.425961
582.666992	1296.474731	13243.408203	5165.499023	32.385082
583.008606	1298.018555	13132.584961	5132.747559	32.402782
583.350098	1295.482300	13037.419922	5096.909180	32.374783
583.691589	1294.710449	12956.919922	5065.592285	32.334198
584.033081	1295.813232	12896.602539	5043.758789	32.307678
584.374512	1293.276978	12835.179688	5014.977051	32.245121
584.715881	1293.607666	12787.429688	5004.942383	32.289822
585.057190	1291.512451	12741.335938	4984.321289	32.252102
585.398499	1289.086548	12694.800781	4964.031250	32.220207
585.739807	1291.071655	12657.087891	4950.026855	32.192062
586.081055	1291.622803	12628.416992	4935.250488	32.139843
586.422180	1291.622803	12602.281250	4928.412598	32.153652
586.763367	1289.637939	12593.017578	4918.819336	32.107048
587.104431	1289.196777	12593.017578	4926.648438	32.178959
587.445496	1290.189331	12597.098633	4923.450684	32.133106
587.786499	1287.211914	12592.797852	4911.871582	32.060787
588.127502	1283.021484	12621.468750	4912.092285	32.006771
588.468445	1284.234619	12627.754883	4922.016602	32.069252
588.809326	1284.124390	12634.040039	4924.552734	32.074493
589.150208	1287.322266	12639.332031	4918.488281	31.986988
589.491028	1290.740723	12626.099609	4920.252441	32.019379
589.831848	1290.299683	12624.998047	4915.621094	31.984278
590.172546	1291.291992	12613.971680	4906.799316	31.931551
590.513245	1289.307251	12605.810547	4902.277832	31.926565
590.853943	1289.307251	12610.994141	4907.350586	31.956753
591.194458	1290.189331	12623.235352	4908.784180	31.929586
591.535095	1288.645508	12624.227539	4912.423340	31.968168
591.875610	1289.527588	12644.406250	4910.879395	31.892473
592.216125	1291.622803	12648.376953	4914.408691	31.899836
592.556580	1291.071411	12667.343750	4924.774414	31.941071
592.897034	1287.763184	12700.867188	4929.074219	31.904654
593.237366	1287.652954	12718.510742	4942.969238	31.977623
593.577698	1288.535156	12771.110352	4952.121582	31.905617
593.918030	1289.307007	12819.409180	4968.332031	31.907999
594.258301	1292.284302	12873.332031	4986.967773	31.902843
594.598511	1292.063843	12952.838867	5007.919434	31.866282
594.938721	1294.379639	13037.417969	5039.126465	31.889080
595.278809	1299.231567	13118.026367	5062.394043	31.840494
595.618958	1298.790527	13172.391602	5078.603516	31.833754
595.958984	1299.011108	13228.298828	5094.703613	31.818264
596.299011	1302.098633	13252.007813	5100.658691	31.787355
596.638977	1299.011108	13278.141602	5102.533203	31.751234
596.978943	1297.908447	13289.832031	5104.297852	31.741274
597.318848	1300.665161	13285.533203	5105.841309	31.749838
597.658630	1300.113770	13271.526367	5100.658691	31.746840
597.998474	1298.128662	13238.885742	5086.213379	31.723991
598.338257	1297.356934	13184.189453	5072.098633	31.755657
598.677979	1298.680298	13151.439453	5061.732910	31.748327
599.017700	1297.026245	13096.192383	5044.860840	31.763554
599.357361	1300.444580	13052.415039	5032.290039	31.755060
599.696960	1305.737671	13013.156250	5012.440430	31.661142
600.036560	1307.171265	12965.298828	4997.442871	31.654066
600.376038	1303.973389	12926.591797	4981.674316	31.642620
600.715576	1303.422119	12884.029297	4972.411133	31.682180
601.055054	1302.870850	12840.801758	4963.038086	31.722908
601.394409	1301.878174	12806.395508	4951.018555	31.719194
601.733826	1303.752930	12760.414063	4934.588379	31.691916
602.073120	1301.878296	12756.113281	4927.861328	31.656263
602.412415	1297.577515	12743.873047	4929.735840	31.732172
602.751587	1296.915894	12771.220703	4932.382324	31.683544
603.090820	1298.459839	12801.544922	4944.732910	31.698217
603.429993	1293.166748	12848.080078	4959.620117	31.730688
603.769104	1292.063965	12883.807617	4985.313477	31.861034
604.108154	1293.828369	12909.392578	4998.545898	31.894424
604.447205	1296.144165	12946.553711	5001.964844	31.808504
604.786194	1298.349487	12976.877930	5016.851074	31.840498
605.125183	1302.319336	13007.534180	5030.525391	31.850813
605.464111	1300.665039	13028.486328	5036.920898	31.858055
605.802979	1299.562378	13050.870117	5043.427246	31.859133
606.141846	1300.113770	13074.911133	5051.036133	31.855516
606.480652	1297.908325	13114.829102	5061.071289	31.845547
606.819336	1295.702881	13167.648438	5084.449219	31.913441
607.158020	1295.261719	13228.960938	5102.974609	31.907230
607.496765	1300.003296	13292.807617	5116.758789	31.825378
607.835388	1301.216431	13331.182617	5123.485352	31.772900
608.173950	1305.076050	13348.386719	5123.816406	31.708393
608.512512	1303.201416	13325.559570	5120.838867	31.754480
608.851013	1301.216431	13280.789063	5106.393066	31.763878
609.189514	1304.965820	13184.080078	5083.787109	31.810631
609.527893	1305.186279	13073.698242	5049.933594	31.820059
609.866333	1304.414673	12945.449219	5007.588867	31.811386
610.204712	1303.091309	12806.505859	4961.604980	31.803720
610.542969	1304.304321	12678.920898	4925.656250	31.837135
610.881226	1305.627563	12564.238281	4877.136230	31.722466
611.219482	1303.532349	12470.395508	4842.841309	31.694748
611.557678	1301.547363	12383.722656	4811.193359	31.669287
611.895813	1299.011108	12310.279297	4784.396973	31.652899
612.233948	1298.018555	12237.611328	4757.269531	31.621387
612.571960	1302.098633	12167.256836	4738.743652	31.629959
612.910034	1306.619873	12098.998047	4709.300781	31.528557
613.247986	1306.730103	12027.210938	4690.555176	31.564119
613.585938	1308.935547	11942.411133	4666.625977	31.576603
613.923828	1305.737671	11822.654297	4626.817871	31.578457
614.261658	1308.715088	11693.414063	4587.450195	31.572750
614.599487	1306.730103	11548.295898	4547.641602	31.644690
614.937317	1307.943115	11424.239258	4508.936035	31.641947
615.275024	1307.612305	11309.556641	4467.252441	31.590260
615.612732	1306.399414	11213.178711	4423.253906	31.461834
615.950378	1305.627441	11119.227539	4388.296875	31.412220
616.288025	1302.429443	11032.443359	4353.561523	31.357943
616.625549	1303.421997	10971.901367	4331.727539	31.321426
616.963074	1304.414307	10919.523438	4316.069336	31.322109
617.300537	1305.517212	10871.445313	4301.292480	31.317144
617.638000	1305.296631	10823.035156	4284.971680	31.306545
617.975464	1309.266357	10790.614258	4280.340820	31.335993
618.312744	1310.369141	10753.563477	4277.914551	31.425228
618.650024	1309.486938	10720.259766	4271.739258	31.477251
618.987305	1308.274048	10683.428711	4263.579102	31.522736
619.324585	1305.958374	10658.507813	4254.646973	31.528177
619.661743	1302.429565	10644.723633	4248.472656	31.534472
619.998901	1299.783081	10616.824219	4247.149414	31.634144
620.336060	1298.018799	10589.255859	4234.247559	31.602129
620.673096	1295.151611	10567.752930	4221.455566	31.558607
621.010193	1298.459717	10548.125000	4221.124512	31.597521
621.347168	1296.254272	10527.833984	4216.162109	31.629555
621.684082	1297.908447	10493.208984	4214.066895	31.713573
622.020996	1297.356934	10457.591797	4203.040039	31.720619
622.357849	1298.128906	10433.993164	4192.563965	31.682116
622.694641	1299.562500	10412.929688	4187.270996	31.686516
623.031433	1303.863037	10391.095703	4184.844727	31.703621
623.368164	1305.296631	10386.905273	4179.220703	31.645540
623.704895	1306.619873	10376.759766	4172.494141	31.596804
624.041504	1307.832886	10383.927734	4179.882813	31.644114
624.378174	1305.737671	10402.343750	4184.514160	31.646708
624.714783	1311.692505	10445.901367	4189.917480	31.510393
625.051331	1308.715210	10478.101563	4190.799316	31.431589
625.387756	1309.156250	10514.711914	4188.704102	31.280544
625.724304	1309.486938	10534.119141	4191.020020	31.237379
626.060669	1310.589600	10552.314453	4193.446289	31.193926
626.397034	1310.369141	10560.364258	4201.275879	31.253063
626.733337	1310.369141	10564.333984	4202.488281	31.252756
627.069641	1307.502075	10570.950195	4205.686523	31.286240
627.405884	1309.486938	10560.474609	4201.165039	31.258049
627.742126	1308.935669	10550.439453	4195.761719	31.237623
628.078308	1308.053467	10538.639648	4183.631836	31.152718
628.414429	1304.524780	10513.057617	4176.022461	31.183006
628.750488	1304.414551	10493.319336	4161.687012	31.094810
629.086548	1301.767944	10460.126953	4159.040527	31.198519
629.422546	1299.121338	10419.546875	4149.447266	31.252115
629.758545	1297.798096	10365.293945	4135.552246	31.295897
630.094421	1294.710571	10318.648438	4122.871094	31.340651
630.430298	1293.497437	10264.283203	4109.197754	31.387442
630.766113	1293.276855	10200.986328	4092.766846	31.427721
631.101929	1292.615479	10124.567383	4067.183350	31.415113
631.437622	1293.166626	10043.185547	4043.695801	31.434553
631.773376	1288.865967	9950.115234	4014.803955	31.472805
632.109070	1292.725586	9856.714844	3994.844971	31.552111
632.444641	1292.946167	9763.423828	3975.768311	31.672621
632.780273	1293.387329	9687.446289	3953.382324	31.689022
633.115784	1294.489990	9618.195313	3931.107422	31.676008
633.451294	1297.246826	9549.165039	3905.855225	31.612146
633.786682	1299.121338	9481.458008	3880.271973	31.545397
634.122131	1302.650146	9403.604492	3858.768555	31.553301
634.457458	1301.106323	9351.556641	3838.919189	31.523865
634.792847	1303.311768	9290.575195	3817.967529	31.483320
635.128113	1303.201538	9227.279297	3796.244141	31.461611
635.463318	1304.414429	9176.002930	3778.048828	31.424843
635.798584	1300.775513	9127.813477	3761.948975	31.444504
636.133728	1301.657715	9074.221680	3740.666016	31.379713
636.468872	1304.965820	9012.358398	3722.361328	31.364634
636.803955	1305.737793	8963.067383	3702.181641	31.296078
637.139038	1303.201416	8913.554688	3680.678467	31.240034
637.473999	1305.406860	8849.266602	3663.806885	31.262510
637.808899	1305.958374	8783.101563	3638.774902	31.199301
638.143799	1307.391846	8715.173828	3612.640137	31.119278
638.478638	1309.156128	8654.302734	3592.680908	31.088896
638.813538	1309.156006	8589.573242	3573.493408	31.101755
639.148315	1305.516968	8517.233398	3544.712402	31.049410
639.483032	1306.509521	8454.048828	3516.923828	30.925529
639.817749	1303.421875	8386.782227	3492.443115	30.903711
640.152405	1302.098633	8323.044922	3465.977783	30.820335
640.487000	1301.547363	8252.250000	3443.702393	30.819260
640.821594	1301.326782	8187.410156	3425.176758	30.842642
641.156128	1299.121338	8138.338379	3411.282471	30.883085
641.490662	1297.687744	8078.791504	3398.159912	30.975374
641.825134	1298.569946	8018.140625	3385.147705	31.052246
642.159546	1298.459717	7977.560059	3375.553955	31.098412
642.493896	1302.760376	7925.291016	3359.454346	31.056011
642.828186	1301.216553	7883.938477	3339.715332	30.967415
643.162537	1299.562622	7849.974609	3327.034180	30.951817
643.496765	1293.718140	7814.246094	3322.953857	31.120728
643.830994	1292.505005	7780.061523	3316.558350	31.199009
644.165100	1293.387329	7751.059570	3310.934570	31.242640
644.499268	1292.615479	7734.409180	3307.516113	31.278564
644.833313	1291.071655	7720.955566	3309.721436	31.394810
645.167358	1288.535278	7705.075684	3306.523438	31.449785
645.501343	1287.652954	7682.139648	3298.473877	31.446165
645.835327	1287.873535	7662.069824	3290.534180	31.418245
646.169189	1289.638062	7648.727539	3287.666992	31.420048
646.503052	1289.417358	7636.818359	3289.762695	31.514400
646.836914	1293.387207	7626.342285	3289.982910	31.527079
647.170654	1295.041260	7611.676270	3285.572266	31.512524
647.504395	1296.584961	7607.376465	3278.184082	31.400167
647.838074	1296.695435	7601.641602	3276.198730	31.396038
648.171753	1299.562500	7598.995605	3268.920410	31.262463
648.505371	1300.665283	7600.097656	3266.494385	31.206448
648.838928	1301.988525	7603.184570	3262.414551	31.111965
649.172424	1304.635010	7610.131836	3259.767822	31.006800
649.505920	1302.870728	7606.382324	3260.429199	31.055046
649.839294	1308.274048	7598.001465	3258.554688	31.007395
650.172729	1310.920532	7596.127441	3260.760498	31.022684
650.506104	1314.890381	7600.207520	3253.151367	30.837917
650.839355	1317.536987	7584.989746	3250.284668	30.837851
651.172668	1318.308838	7565.913086	3247.858154	30.884626
651.505859	1316.875244	7542.977051	3237.934082	30.854923
651.839111	1319.080688	7527.979980	3228.119873	30.746820
652.172241	1321.175903	7515.959961	3222.716064	30.695826
652.505371	1319.521729	7502.616211	3216.430908	30.678961
652.838379	1320.845093	7475.930176	3213.343018	30.746902
653.171387	1319.632202	7461.924805	3214.225342	30.845049
653.504333	1318.088379	7438.988281	3202.315918	30.783504
653.837280	1318.970459	7418.918945	3191.840088	30.703041
654.170227	1319.080811	7399.731934	3189.744873	30.764206
654.503052	1315.662354	7379.772461	3187.759766	30.871758
654.835876	1315.441895	7365.657715	3181.033203	30.835119
655.168579	1312.243896	7348.234375	3171.219238	30.798183
655.501343	1312.574707	7332.906250	3171.439453	30.876451
655.833984	1310.920532	7323.863770	3168.021240	30.885052
656.166626	1312.464233	7319.673340	3171.108887	30.940237
656.499268	1313.456787	7342.720215	3184.010742	31.024584
656.831787	1312.684937	7376.904785	3205.844971	31.218527
657.164307	1311.912964	7422.889160	3217.092529	31.176355
657.496765	1311.140991	7469.424316	3234.184814	31.226948
657.829224	1311.361572	7518.275391	3246.094482	31.170609
658.161621	1315.110718	7566.463379	3255.798096	31.044279
658.493958	1317.095703	7605.831055	3265.612305	30.984236
658.826233	1310.920410	7635.494629	3274.434570	31.045792
659.158508	1310.479370	7661.739746	3278.183350	30.981316
659.490723	1311.140991	7680.155273	3284.138428	30.978065
659.822876	1310.479492	7699.012695	3287.115234	30.940369
660.154968	1306.399414	7700.555664	3282.594482	30.906267
660.487061	1307.943115	7699.343750	3283.697266	30.912695
660.819153	1303.642700	7693.719727	3279.507080	30.920822
661.151123	1305.406982	7679.934570	3274.985596	30.897642
661.483093	1308.935791	7668.576660	3270.464355	30.843388
661.815002	1310.479614	7652.807129	3268.920654	30.878901
662.146851	1312.354126	7623.915039	3264.730225	30.933332
662.478760	1314.008057	7595.354980	3256.349365	30.922371
662.810486	1311.802612	7558.523926	3252.269287	31.063763
663.142212	1309.597168	7505.482910	3236.059570	31.092607
663.473938	1306.730103	7453.654785	3208.932373	30.945593
663.805603	1306.840332	7388.263184	3179.820313	30.798384
664.137207	1307.060913	7295.854980	3152.472900	30.814417
664.468689	1306.730103	7208.187500	3127.551270	30.853754
664.800293	1304.965820	7131.107910	3102.850342	30.858919
665.131775	1304.083496	7048.623535	3078.700439	30.892237
665.463196	1302.539795	6980.255859	3057.748779	30.913998
665.794617	1304.965820	6923.795410	3035.473877	30.798372
666.125916	1309.156250	6865.902344	3023.233887	30.846786
666.457275	1308.715210	6822.564941	3010.883301	30.870775
666.788574	1305.627563	6776.801270	2999.745361	30.964430
667.119812	1306.730225	6747.910645	2995.334229	31.033779
667.450928	1307.612305	6727.731445	2989.930908	31.038406
667.782104	1311.582153	6713.063965	2994.451904	31.155704
668.113159	1308.384155	6691.230469	2989.379883	31.228752
668.444214	1304.414307	6669.286621	2980.006592	31.232660
668.775208	1303.311523	6650.980469	2972.177246	31.207350
669.106201	1304.414307	6636.645996	2967.986816	31.198431
669.437134	1303.311646	6629.367676	2955.416016	31.019281
669.768005	1302.870605	6622.200195	2949.681396	30.958992
670.098877	1300.444702	6610.951660	2945.932373	30.985512
670.429688	1303.201416	6591.874023	2942.734375	31.000839
670.760437	1299.893311	6567.504395	2939.205811	31.120605
671.091187	1298.349487	6559.564941	2935.566650	31.118612
671.421814	1296.033813	6542.692871	2922.003174	30.990566
671.752441	1295.261963	6521.189941	2917.702637	31.045984
672.083008	1292.946167	6507.185059	2913.181396	31.073284
672.413574	1293.607788	6493.731934	2910.865479	31.100368
672.744080	1296.033813	6466.936035	2904.469971	31.105522
673.074524	1293.828369	6440.581055	2892.781006	31.067211
673.404968	1297.467407	6416.541504	2886.274902	31.037008
673.735352	1301.437256	6396.582520	2878.666016	30.955519
674.065613	1303.752930	6375.410156	2860.691650	30.698816
674.395935	1302.429688	6351.700684	2850.215576	30.653650
674.726196	1301.657837	6320.494141	2837.975342	30.611029
675.056335	1304.414551	6304.504395	2830.807373	30.527308
675.386536	1304.745361	6292.815430	2828.712402	30.552237
675.716614	1306.840454	6281.346680	2819.339355	30.405005
676.046692	1308.274048	6279.913086	2813.053467	30.267269
676.376770	1310.259033	6268.334961	2811.179199	30.272228
676.706726	1312.023315	6257.638184	2806.657959	30.221413
677.036621	1310.038452	6262.820801	2802.467529	30.133146
677.366516	1310.258911	6260.616211	2801.034180	30.114498
677.696411	1314.338989	6274.068359	2804.893799	30.053146
678.026184	1313.787720	6291.381836	2806.437744	29.987379
678.355957	1312.464355	6305.166016	2822.978516	30.254444
678.685669	1312.464355	6330.639160	2828.161377	30.204149
679.015320	1309.817749	6346.187500	2836.872803	30.320551
679.344971	1306.730103	6362.838379	2839.629395	30.317770
679.674561	1305.406860	6371.991211	2849.884766	30.483610
680.004150	1301.547241	6394.928711	2859.588623	30.589529
680.333618	1299.231689	6410.145996	2859.368408	30.525591
680.663086	1299.672729	6424.701660	2861.684082	30.478100
680.992493	1298.680298	6430.987305	2862.455811	30.469250
681.321899	1298.569824	6429.002930	2867.528320	30.581404
681.651184	1298.128784	6429.994629	2868.740967	30.605091
681.980530	1296.585083	6419.849609	2868.410400	30.680151
682.309753	1295.372070	6412.682129	2862.234863	30.618876
682.638977	1290.850952	6387.650391	2864.440430	30.874071
682.968079	1288.314697	6361.735840	2858.044922	30.940271
683.297241	1288.976318	6340.563965	2855.287842	31.006321
683.626343	1288.865845	6318.619629	2846.907471	30.976498
683.955383	1293.056396	6279.803711	2839.629395	31.013664
684.284363	1294.048950	6252.235352	2827.058350	30.918753
684.613281	1292.284546	6209.890137	2811.730713	30.898090
684.942139	1296.144043	6166.111816	2800.041748	30.881062
685.271057	1299.231567	6128.619629	2783.610840	30.736383
685.599792	1301.657593	6088.370117	2769.826904	30.671768
685.928589	1305.737671	6056.721191	2755.601807	30.517138
686.257324	1310.810181	6019.118164	2745.015381	30.461159
686.585999	1310.699951	5994.527344	2731.231201	30.328430
686.914612	1310.810303	5948.323242	2718.550049	30.355492
687.243164	1310.369141	5912.043457	2706.530273	30.340286
687.571777	1307.281494	5879.072754	2688.776367	30.217804
687.900269	1308.825317	5843.344727	2683.593750	30.317841
688.228699	1309.707520	5811.365234	2668.375977	30.181515
688.557129	1305.186401	5783.466309	2650.842529	30.048506
688.885498	1306.950806	5757.552246	2640.587402	29.965311
689.213867	1310.920532	5727.668457	2635.625000	29.992756
689.542114	1311.140991	5706.827148	2625.479980	29.900656
689.870361	1310.369141	5686.095703	2618.643311	29.898445
690.198608	1305.737671	5651.470215	2606.844238	29.939869
690.526794	1305.296631	5620.042969	2599.455811	29.993866
690.854858	1302.870605	5598.098633	2589.862061	29.963285
691.182922	1300.775513	5560.605957	2581.260498	30.059528
691.510986	1300.224121	5533.919922	2569.571777	29.982023
691.838928	1297.908447	5499.404785	2556.669922	29.959839
692.166931	1297.687866	5463.015137	2539.136230	29.804342
692.494812	1296.695557	5415.708496	2528.660400	29.909227
692.822632	1295.702881	5372.591309	2513.884033	29.880169
693.150452	1293.056396	5328.923828	2500.651367	29.921572
693.478149	1296.144043	5291.430664	2487.639404	29.822525
693.805908	1294.379639	5266.067871	2476.060547	29.752609
694.133606	1294.710449	5228.244141	2465.474609	29.763674
694.461243	1296.585083	5198.580078	2463.710449	29.910990
694.788818	1295.261841	5180.605957	2455.880859	29.871717
695.116333	1293.938477	5170.019531	2452.462646	29.889059
695.443848	1295.261719	5164.505371	2457.755859	30.044479
695.771301	1292.284302	5178.620605	2461.504883	30.085419
696.098755	1289.748047	5203.322266	2470.216553	30.163437
696.426147	1293.166626	5236.514160	2486.426270	30.260067
696.753418	1293.717896	5275.661133	2506.275635	30.451406
697.080688	1297.687744	5332.451660	2520.721436	30.312397
697.407898	1298.569946	5386.485352	2533.291992	30.204197
697.735107	1301.768066	5424.308594	2544.980957	30.156475
698.062317	1303.201660	5465.219727	2559.426758	30.183077
698.389404	1306.289307	5499.735352	2572.549316	30.196167
698.716492	1305.407104	5531.273438	2581.481445	30.196753
699.043457	1303.863281	5551.122559	2592.839600	30.348425
699.370483	1305.406982	5568.545410	2594.493652	30.237972
699.697388	1309.597412	5572.294434	2595.045166	30.155737
700.024292	1313.677490	5568.766113	2591.295654	30.025652
700.351135	1314.008423	5560.936523	2586.884766	29.971695
700.677917	1318.860352	5549.137695	2580.048096	29.813358
701.004639	1319.191162	5533.699219	2576.408936	29.830713
701.331299	1319.963013	5514.731934	2569.461426	29.787062
701.658020	1321.286133	5491.244629	2560.750000	29.723650
701.984619	1319.963013	5453.972168	2551.707520	29.795397
702.311218	1319.742432	5411.186523	2537.261963	29.757696
702.637756	1319.191040	5359.027344	2523.036865	29.799370
702.964233	1319.411621	5287.901855	2501.533936	29.787708
703.290649	1316.213867	5216.665527	2470.326904	29.589214
703.617065	1319.080933	5132.086914	2437.906738	29.342358
703.943481	1320.624756	5047.287109	2412.323242	29.294270
704.269775	1320.735107	4959.289551	2387.401855	29.315674
704.596008	1319.522095	4881.105957	2364.244141	29.333073
704.922241	1317.095947	4814.500977	2341.417725	29.288052
705.248474	1316.323975	4747.565430	2320.355713	29.261471
705.574585	1315.882935	4687.687500	2306.020020	29.365196
705.900696	1316.103271	4637.072266	2286.943115	29.233631
706.226746	1314.559570	4597.925781	2276.687744	29.303102
706.552734	1311.692505	4570.799316	2271.284668	29.443409
706.878723	1306.068604	4551.612305	2268.086426	29.641191
707.204651	1302.649902	4529.888672	2262.683105	29.747820
707.530518	1301.547363	4516.986328	2260.478027	29.822699
707.856323	1302.098633	4510.700684	2256.728516	29.752205
708.182068	1301.988403	4514.008789	2249.340332	29.493956
708.507813	1299.341797	4509.597656	2245.701172	29.479250
708.833496	1301.106201	4522.278809	2248.568604	29.413588
709.159180	1301.878052	4538.268066	2249.450684	29.278690
709.484802	1303.091187	4550.949219	2249.891846	29.151543
709.810303	1303.752563	4569.696289	2251.766602	29.027262
710.135864	1306.178711	4579.620117	2260.809082	29.162897
710.461304	1306.288818	4591.309570	2265.661133	29.204453
710.786743	1305.627319	4600.352051	2269.079346	29.242262
711.112122	1305.847900	4608.181152	2272.828613	29.281742
711.437500	1305.406860	4615.128418	2274.262207	29.273016
711.762817	1308.825195	4614.136230	2273.379883	29.181965
712.088013	1307.171143	4618.546875	2275.364502	29.238401
712.413269	1309.266357	4613.364258	2277.239014	29.296125
712.738403	1312.133423	4616.562012	2278.782959	29.253151
713.063538	1313.125977	4610.276855	2273.048584	29.113699
713.388611	1312.243652	4604.983398	2268.968506	29.055586
713.713623	1309.817749	4597.154297	2263.344727	29.006065
714.038574	1312.243652	4596.713379	2264.337158	28.987740
714.363525	1310.258789	4590.096680	2263.234375	29.055571
714.688477	1305.847900	4579.951660	2265.770752	29.318645
715.013306	1306.730103	4555.581543	2267.424805	29.570286
715.338135	1307.391724	4534.299316	2269.520020	29.815798
715.662842	1306.068604	4507.282227	2259.926270	29.796751
715.987549	1306.950684	4475.633789	2246.252441	29.643286
716.312195	1308.274048	4442.441406	2232.248047	29.480684
716.636841	1303.863037	4403.735840	2222.433838	29.632532
716.961426	1300.003540	4372.087891	2204.459473	29.441114
717.285950	1297.687744	4341.210938	2189.793213	29.311604
717.610474	1293.497437	4300.630371	2178.876221	29.442623
717.934937	1293.056396	4265.012695	2166.966797	29.405224
718.259277	1292.615234	4230.827637	2152.741699	29.273802
718.583679	1291.291992	4202.046875	2141.272949	29.201393
718.908020	1288.535156	4169.406738	2127.709717	29.129190
719.232239	1286.881104	4142.720703	2115.689941	29.021547
719.556519	1287.542725	4115.262695	2101.795654	28.795387
719.880737	1287.322144	4084.717285	2093.745605	28.827658
720.204834	1284.344727	4055.274902	2079.520508	28.697071
720.528931	1288.755615	4025.060303	2078.086670	28.846607
720.852966	1286.440063	3988.890625	2065.295166	28.820326
721.176941	1288.424805	3950.295410	2054.157715	28.766722
721.500916	1289.307129	3919.970703	2040.594116	28.558840
721.824829	1284.675537	3898.798096	2030.008179	28.511770
722.148743	1284.785767	3867.370117	2020.855469	28.501284
722.472534	1288.535034	3844.874268	2012.695557	28.328028
722.796326	1289.417236	3823.701660	2012.916138	28.548449
723.119995	1288.424805	3799.882813	2008.615479	28.676199
723.443665	1293.056396	3787.201172	2004.094360	28.508287
723.767334	1294.820801	3769.006348	2002.770996	28.613464
724.090942	1294.600220	3758.751221	1995.713379	28.452526
724.414551	1299.231689	3752.686035	1988.766235	28.104641
724.737976	1300.223999	3747.503418	1984.134644	27.945753
725.061462	1302.539795	3747.393555	1985.899048	27.950926
725.384888	1302.870728	3747.834717	1986.781006	27.972204
725.708252	1303.311768	3747.503662	1990.089111	28.098339
726.031616	1303.863159	3752.465820	1992.294800	28.115288
726.354858	1302.981079	3753.017090	1994.941162	28.242851
726.678162	1301.878296	3762.721436	2001.888550	28.445950
727.001404	1305.517334	3766.580811	2008.946045	28.582306
727.324463	1307.281860	3771.102051	2006.740723	28.389200
727.647583	1309.928345	3778.269775	2012.364380	28.457817
727.970642	1306.179077	3790.069092	2016.113892	28.581572
728.293701	1308.715210	3792.384766	2019.973389	28.637394
728.616699	1309.707642	3797.126221	2021.737671	28.625261
728.939575	1309.928223	3815.431152	2022.178711	28.427446
729.262512	1305.958252	3825.686768	2024.935425	28.533915
729.585266	1305.627441	3834.950195	2030.779907	28.669827
729.908142	1304.193848	3854.909180	2032.654541	28.559074
730.230896	1302.098633	3868.252197	2034.198242	28.529064
730.553467	1304.193848	3887.329346	2033.426514	28.230524
730.876160	1301.106201	3901.333740	2037.616821	28.324852
731.198792	1296.695313	3912.360840	2047.100098	28.688866
731.521362	1294.159058	3927.357910	2052.613770	28.803551
731.843872	1293.056152	3925.152832	2052.834229	28.865889
732.166321	1289.968506	3925.152832	2056.473389	29.087334
732.488770	1291.732910	3926.476074	2049.416016	28.757380
732.811157	1289.196655	3919.639404	2041.476807	28.598991
733.133484	1288.755615	3912.250732	2040.925415	28.670525
733.455811	1290.299438	3894.386475	2034.970581	28.596247
733.778015	1290.961182	3877.845947	2027.802856	28.483746
734.100281	1289.527710	3869.685547	2018.429688	28.250288
734.422424	1286.660522	3857.666016	2011.813232	28.205025
734.744507	1290.189331	3842.668945	2005.417358	28.020912
735.066589	1288.645508	3832.192627	1999.241943	27.937223
735.388611	1291.512695	3820.062988	1996.705566	27.889217
735.710571	1290.630493	3804.293945	1990.971313	27.861359
736.032532	1292.505005	3794.038574	1986.781006	27.754013
736.354431	1292.284424	3781.467529	1979.944214	27.625923
736.676270	1293.276733	3765.367920	1978.400269	27.714329
736.998108	1298.900879	3751.914551	1977.959106	27.682611
737.319824	1297.687866	3736.807373	1979.833740	27.966888
737.641541	1301.547485	3717.729980	1977.518066	27.976801
737.963135	1302.209106	3696.888672	1969.027344	27.845821
738.284790	1303.311890	3671.305176	1962.300537	27.828993
738.606323	1303.532227	3660.498047	1957.889893	27.762712
738.927856	1305.517334	3650.022217	1952.927612	27.613945
739.249390	1307.391968	3639.436279	1955.684204	27.799309
739.570740	1311.913086	3628.740234	1955.353394	27.772478
739.892212	1310.810303	3617.933350	1949.840088	27.698124
740.213562	1308.604858	3610.214355	1943.113281	27.568033
740.534790	1310.479614	3603.818359	1942.782593	27.571283
740.856079	1306.730347	3588.931641	1940.908081	27.787985
741.177246	1304.304443	3578.455322	1937.158691	27.828156
741.498413	1306.399536	3569.964600	1932.858032	27.675747
741.819580	1307.943237	3562.245605	1926.241821	27.427492
742.140625	1309.707642	3551.989990	1919.956299	27.215515
742.461670	1307.722534	3536.992920	1915.986206	27.285324
742.782654	1306.950562	3515.489990	1906.171875	27.132017
743.103577	1309.155884	3498.728760	1897.791260	26.883572
743.424438	1309.707275	3477.335938	1890.954224	26.814877
743.745300	1305.847900	3448.003418	1882.794067	26.932974
744.066101	1304.745117	3421.758545	1870.884521	26.742363
744.386902	1303.421875	3399.924561	1865.701782	26.819899
744.707581	1302.649902	3381.399170	1862.062744	26.911030
745.028198	1302.429443	3367.504395	1857.982910	26.902340
745.348816	1299.562378	3355.815430	1852.138428	26.872961
745.669373	1297.357056	3337.620605	1846.073608	26.894396
745.989929	1295.261963	3316.558350	1837.362183	26.819433
746.310364	1293.497437	3301.892090	1833.061401	26.865435
746.630798	1294.159180	3289.431641	1829.642822	26.837620
746.951172	1290.409912	3286.343750	1826.555298	26.861881
747.271545	1286.109375	3276.529297	1823.136719	26.980606
747.591858	1290.299683	3275.537109	1824.018921	26.884403
747.912109	1295.261841	3266.936035	1825.342041	26.884777
748.232300	1291.512695	3258.555176	1827.657715	27.256403
748.552429	1294.159180	3245.542725	1831.627563	27.542940
748.872559	1289.637817	3235.066895	1835.707764	28.069384
749.192627	1293.387329	3235.287598	1836.920776	27.989771
749.512695	1293.166626	3236.941162	1840.780273	28.172693
749.832642	1293.938477	3234.956543	1846.183350	28.451300
750.152588	1295.592651	3234.625732	1842.654785	28.213140
750.472473	1295.592651	3243.116455	1839.567139	27.931597
750.792358	1297.246704	3246.204346	1839.015869	27.797894
751.112122	1298.570068	3241.242188	1839.787720	27.859444
751.431824	1300.775391	3249.181641	1835.156494	27.426575
751.751587	1300.334351	3246.093750	1835.266602	27.492210
752.071228	1299.452148	3243.447510	1835.377075	27.568220
752.390869	1300.665161	3240.911133	1833.281860	27.450989
752.710327	1303.752808	3238.595215	1833.833374	27.396576
753.029846	1303.201416	3238.595215	1832.730469	27.360275
753.349304	1304.524780	3236.610596	1832.068848	27.304380
753.668762	1305.186279	3230.545654	1834.494995	27.491425
753.988098	1304.965820	3223.157471	1834.715454	27.617138
754.307434	1304.193848	3213.674072	1830.966187	27.587212
754.626770	1303.862915	3210.917480	1826.334595	27.396788
754.946045	1302.760376	3209.262939	1819.938843	27.127079
755.265259	1299.011108	3208.050293	1814.535400	27.004385
755.584351	1300.885742	3207.277832	1806.044312	26.498146
755.903442	1299.562500	3202.756592	1799.427979	26.264557
756.222534	1298.459839	3192.391357	1797.774048	26.363899
756.541565	1296.033813	3191.288330	1792.260376	26.182581
756.860535	1295.813354	3191.178223	1795.348267	26.355606
757.179443	1294.820923	3185.995605	1797.443237	26.577255
757.498291	1297.467529	3183.789795	1796.340454	26.446856
757.817139	1300.665405	3188.752197	1792.370728	26.042517
758.135925	1302.540039	3184.892822	1796.230103	26.227287
758.454651	1301.657837	3183.569092	1797.002075	26.321339
758.773376	1305.958374	3179.820313	1797.884277	26.251982
759.092041	1306.178955	3185.002930	1797.222656	26.135695
759.410645	1302.540039	3189.193359	1798.325317	26.278557
759.729187	1301.547485	3180.482178	1798.986938	26.474546
760.047607	1301.768188	3185.223633	1795.458496	26.211945
760.366089	1305.406982	3187.319092	1793.252808	25.922880
760.684509	1305.186523	3201.543945	1790.826782	25.609110
761.002869	1305.627563	3227.237305	1799.097046	25.680006
761.321228	1304.193970	3265.833008	1808.691040	25.718140
761.639465	1306.840576	3313.470703	1824.570068	25.800943
761.957642	1306.730225	3365.739990	1842.323975	26.012201
762.275879	1304.965820	3409.297607	1857.321045	26.248486
762.593994	1303.752930	3447.561768	1870.112671	26.418388
762.912109	1302.539673	3483.180176	1879.265381	26.447536
763.230103	1305.296387	3503.359863	1888.307861	26.523869
763.548157	1302.649780	3515.710449	1892.167358	26.638113
763.866150	1302.980713	3529.274170	1896.688599	26.667997
764.184021	1301.326660	3539.860596	1902.422852	26.852226
764.501892	1298.018555	3546.587158	1901.871338	26.854986
764.819702	1295.923340	3544.491699	1899.114380	26.825560
765.137451	1296.474731	3548.792725	1894.924072	26.570377
765.455200	1292.504883	3554.416748	1892.939331	26.545439
765.772888	1293.607666	3544.161377	1892.277710	26.601011
766.090515	1293.828247	3534.347168	1887.094849	26.478981
766.408081	1295.371948	3534.897949	1881.912231	26.190378
766.725586	1293.938477	3525.415283	1884.558594	26.467678
767.043091	1294.269287	3515.600342	1882.683960	26.489283
767.360535	1294.820679	3500.824463	1882.022339	26.618341
767.677917	1293.497437	3468.404053	1867.466309	26.390505
767.995239	1291.512573	3422.089355	1853.572144	26.380630
768.312500	1292.174194	3362.983643	1835.487549	26.236761
768.629822	1290.299561	3302.553467	1815.748657	26.112465
768.947021	1290.520142	3246.204346	1793.583496	25.723139
769.264160	1294.379639	3190.406738	1776.822144	25.444916
769.581299	1294.379639	3148.392822	1765.243652	25.397015
769.898376	1292.505005	3111.230713	1752.782959	25.307716
770.215393	1292.174072	3077.928467	1744.622803	25.336559
770.532349	1292.504883	3049.698975	1733.485352	25.095718
770.849304	1291.512451	3019.925293	1724.773804	25.067005
771.166199	1290.740601	2998.863281	1720.914063	25.183990
771.483032	1287.542725	2981.770752	1716.282593	25.305912
771.799866	1288.645508	2961.260010	1713.856812	25.421955
772.116577	1291.622803	2940.528564	1709.556030	25.346096
772.433350	1293.938599	2928.509033	1708.563599	25.365992
772.749939	1294.931030	2919.025391	1706.468384	25.339499
773.066589	1294.048828	2905.131348	1704.373169	25.468859
773.383057	1297.357178	2888.811035	1698.859619	25.228657
773.699646	1298.680420	2876.460205	1693.125244	24.999992
774.016113	1300.885864	2860.029785	1687.501343	24.796652
774.332520	1303.201660	2851.208008	1687.721924	24.839708
774.648804	1308.494751	2842.055176	1682.869751	24.412146
774.965149	1307.943359	2831.689697	1677.246094	24.236498
775.281433	1313.126099	2820.993164	1671.732300	23.782349
775.597656	1313.677490	2814.156494	1674.930420	24.075840
775.913879	1312.905640	2807.540283	1669.416870	23.852734
776.229980	1314.449463	2797.836426	1663.792969	23.550396
776.546082	1312.023315	2787.691162	1660.374390	23.606333
776.862122	1315.882935	2780.854248	1654.419678	23.108763
777.178162	1317.978149	2771.812012	1649.457642	22.800369
777.494141	1315.331421	2767.621582	1649.236938	22.991653
777.809998	1314.780151	2755.822266	1645.598022	22.956850
778.125854	1316.544556	2750.309082	1641.958862	22.696495
778.441711	1317.426758	2744.133789	1637.327515	22.422316
778.757446	1316.323975	2737.847900	1635.011719	22.418739
779.073181	1313.567017	2733.547363	1630.710938	22.334389
779.388855	1316.323853	2727.702637	1631.924072	22.361128
779.704468	1315.552124	2723.623047	1629.167236	22.272678
780.020020	1310.258911	2717.888672	1625.748901	22.412853
780.335571	1311.251343	2708.736328	1622.330322	22.259916
780.651062	1310.479492	2703.222168	1621.999634	22.367386
780.966553	1307.722656	2697.708740	1619.573608	22.435545
781.281860	1301.657471	2686.020020	1621.558594	23.108191
781.597290	1301.767944	2678.631592	1621.889282	23.250040
781.912476	1299.231812	2675.102783	1622.661255	23.507252
782.227722	1300.775635	2666.060547	1623.212402	23.616812
782.542908	1299.011108	2654.923096	1624.315308	23.991543
782.858093	1299.452148	2642.682373	1623.653687	24.135962
783.173218	1302.539917	2640.256836	1618.911987	23.650150
783.488281	1300.003662	2639.595215	1618.911987	23.806385
783.803345	1299.562622	2630.883789	1617.698853	23.896280
784.118225	1301.547485	2618.202148	1610.751709	23.484079
784.433167	1302.208862	2609.821533	1609.649048	23.511564
784.748047	1303.532227	2603.425537	1606.230713	23.286409
785.062866	1306.619995	2590.193115	1602.701782	23.066998
785.377686	1305.958374	2579.276123	1602.260742	23.270103
785.692444	1306.619995	2568.689697	1599.724487	23.224113
786.007141	1305.517334	2564.830078	1592.446655	22.784595
786.321716	1308.825439	2558.765137	1591.674438	22.629011
786.636353	1311.141113	2562.073242	1592.446411	22.487656
786.950928	1309.487061	2567.256104	1595.975220	22.777485
787.265442	1308.715088	2574.313721	1595.534058	22.662712
787.579834	1304.414551	2570.674561	1594.762329	22.929554
787.894226	1308.163696	2576.850098	1591.012817	22.294643
788.208618	1304.193970	2578.834961	1591.123169	22.510590
788.522949	1305.517212	2574.424072	1592.335938	22.603607
788.837219	1302.870605	2574.424072	1587.704590	22.400473
789.151367	1303.752808	2579.937500	1585.719727	22.094522
789.465515	1301.657593	2579.937744	1583.624634	22.058313
789.779602	1299.893188	2571.005615	1586.822510	22.573088
790.093689	1303.973267	2559.427002	1581.088379	22.072905
790.407776	1300.554688	2555.016113	1579.323975	22.222229
790.721741	1299.672607	2549.943848	1580.095947	22.429001
791.035645	1298.018555	2541.562988	1578.221313	22.532589
791.349548	1296.695190	2534.615967	1578.331665	22.750767
791.663391	1293.938477	2536.270020	1579.434326	22.980648
791.977173	1296.805664	2532.630859	1579.323975	22.860703
792.290894	1296.254150	2521.714111	1576.015869	22.829119
792.604614	1298.790771	2510.466064	1576.677490	22.934092
792.918274	1299.231812	2501.754639	1574.913086	22.925243
793.231812	1298.680542	2485.764893	1570.392090	22.888985
793.545410	1298.459839	2473.083496	1566.422241	22.812618
793.858948	1300.113892	2456.983398	1563.555054	22.771900
794.172363	1304.524780	2451.690186	1560.798218	22.339710
794.485840	1302.209106	2442.427490	1560.246826	22.630552
794.799194	1308.494629	2439.449951	1557.931152	22.055382
795.112488	1307.171265	2438.126953	1552.527832	21.694622
795.425781	1309.156128	2435.370117	1550.432617	21.423681
795.738953	1305.958374	2428.533203	1548.999023	21.650286
796.052185	1307.061035	2428.753906	1542.713501	21.008644
796.365234	1307.171265	2428.754150	1539.295166	20.696098
796.678284	1305.627441	2429.966797	1537.861572	20.655163
796.991333	1308.825317	2427.540771	1536.648682	20.364729
797.304382	1309.927979	2429.305176	1535.215088	20.126112
797.617310	1312.023193	2428.974121	1536.317749	20.080967
797.930115	1312.574463	2422.468262	1533.891602	19.940390
798.242981	1314.890259	2417.726318	1533.009399	19.778021
798.555786	1313.236084	2413.425781	1526.282959	19.364559
798.868530	1317.205933	2412.764160	1524.959595	18.963270
799.181213	1313.346436	2411.110352	1520.107666	18.834763
799.493896	1313.125854	2406.479004	1516.137695	18.567820
799.806519	1316.985474	2406.037842	1515.034912	18.185484
800.119080	1318.198608	2402.068115	1511.726807	17.855305
800.431580	1315.000610	2392.033203	1505.882202	17.722918
800.744080	1313.897949	2382.329346	1501.471313	17.555958
801.056458	1315.000732	2373.948486	1499.376221	17.411198
801.368835	1312.133667	2360.054199	1499.155762	17.846973
801.681152	1314.890381	2348.144531	1499.265991	17.844168
801.993408	1316.765015	2338.440430	1499.707153	17.906092
802.305664	1319.962891	2329.397949	1495.847778	17.424091
802.617798	1320.845093	2318.812012	1499.266235	17.878462
802.929993	1320.403809	2310.431396	1497.501831	17.888191
803.242065	1321.396240	2301.058105	1497.832642	18.009928
803.554016	1318.418945	2295.985596	1496.178589	18.183889
803.865967	1318.639404	2289.479492	1494.303955	18.094076
804.177979	1316.103271	2288.045898	1490.554565	17.948723
804.489807	1314.890381	2288.045654	1489.893066	17.983017
804.801697	1311.251343	2286.281494	1484.489624	17.767479
805.113464	1310.369263	2280.547363	1483.386963	17.833601
805.425232	1306.730225	2282.311523	1480.740479	17.836571
805.736938	1305.627563	2277.900879	1479.858154	17.919920
806.048584	1300.554932	2273.269287	1477.432251	18.183891
806.360168	1297.467285	2267.535400	1475.337036	18.335800
806.671753	1296.915771	2257.280029	1474.344604	18.475161
806.983276	1298.790527	2257.831299	1472.580322	18.121210
807.294739	1300.223999	2252.979248	1474.675415	18.310202
807.606140	1301.437012	2248.568359	1475.888428	18.418926
807.917542	1301.326782	2247.906738	1472.911011	18.126755
808.228760	1301.216431	2242.393311	1470.264526	17.961353
808.540100	1300.223999	2231.917236	1463.868774	17.564234
808.851318	1297.026123	2225.080322	1463.096802	17.894503
809.162476	1297.356934	2217.361328	1459.347412	17.607576
809.473633	1297.246704	2212.840088	1456.149536	17.355175
809.784668	1291.071411	2206.113525	1452.841309	17.678957
810.095703	1295.813110	2194.975830	1450.415283	17.194016
810.406738	1298.570068	2186.594971	1445.673584	16.565247
810.717590	1302.870605	2174.465332	1447.217407	16.561230
811.028503	1303.311890	2163.548096	1441.372803	16.049187
811.339294	1303.201416	2153.733887	1436.079834	15.622969
811.650085	1302.209106	2148.661377	1435.969727	15.802500
811.960876	1299.231812	2137.082764	1435.638916	16.280594
812.271545	1301.988525	2129.143311	1436.520874	16.264471
812.582153	1309.045898	2126.496582	1435.087524	15.418866
812.892761	1307.281616	2116.902832	1433.102539	15.540714
813.203308	1302.980957	2115.579590	1431.999756	15.877310
813.513855	1303.973511	2111.058594	1430.455933	15.671511
813.824280	1303.311768	2107.530029	1427.919678	15.494290
814.134705	1301.988525	2105.765869	1420.972534	14.803105
814.445068	1301.437012	2096.943604	1420.972534	15.026340
814.755371	1301.437012	2098.156738	1421.303467	15.044996
815.065613	1299.562378	2102.016113	1424.832153	15.610841
815.375854	1302.980835	2101.354492	1423.398682	15.082893
815.686035	1302.208984	2104.111328	1427.258301	15.594083
815.996155	1303.311646	2104.442139	1427.148071	15.457709
816.306152	1308.053467	2105.544922	1429.684326	15.251682
816.616211	1306.840454	2114.036133	1432.551392	15.573788
816.926208	1303.091187	2117.675049	1436.079956	16.325977
817.236145	1303.752930	2126.166016	1437.623901	16.277826
817.546021	1304.524780	2139.619141	1444.240112	16.730484
817.855774	1305.186401	2151.638916	1454.054199	17.587259
818.165588	1305.958252	2168.951660	1459.126831	17.748522
818.475281	1309.928101	2192.218750	1465.743164	17.660288
818.784973	1305.406860	2222.102783	1476.108887	18.621445
819.094604	1299.231689	2250.112061	1488.018311	19.853878
819.404175	1298.790405	2295.434082	1503.125610	20.502333
819.713684	1298.680298	2358.620117	1525.069946	21.358727
820.023254	1297.577515	2484.661865	1572.487183	23.158394
820.332642	1295.923340	2704.766113	1644.605469	24.749542
820.642090	1295.923584	2994.231445	1746.276611	26.517750
820.951416	1296.144043	3298.804688	1834.605103	26.887283
821.260681	1292.725586	3552.982910	1907.385010	27.194223
821.569946	1293.497559	3751.914551	1967.924683	27.433390
821.879150	1294.159180	3915.779785	2019.201294	27.656256
822.188293	1295.592773	4045.460449	2056.804199	27.681747
822.497437	1298.018799	4152.204102	2090.106689	27.751802
822.806458	1298.018799	4247.811035	2121.313721	27.910269
823.115479	1298.790649	4328.861328	2143.809326	27.887754
823.424438	1300.334473	4405.721191	2166.194824	27.882528
823.733337	1295.813232	4468.245605	2185.712891	28.051020
824.042236	1296.144043	4520.073730	2201.702637	28.088657
824.351013	1295.372192	4567.932129	2214.494141	28.085716
824.659790	1297.467407	4607.079102	2227.837158	28.111145
824.968445	1297.908447	4665.522949	2244.598145	28.111582
825.277100	1301.106445	4735.656250	2263.344482	28.016424
825.585693	1304.635010	4822.220703	2284.406738	27.853529
825.894287	1309.376709	4879.562012	2300.506592	27.761301
826.202820	1314.890381	4901.395996	2302.270996	27.530436
826.511292	1313.787720	4834.019531	2277.239258	27.368979
826.819702	1316.213745	4662.435059	2215.817627	26.884172
827.128113	1320.073242	4409.911133	2128.481689	26.163458
827.436401	1319.962769	4141.618164	2047.541626	25.785534
827.744751	1321.506592	3911.148438	1979.282959	25.400284
828.052917	1322.057983	3731.293945	1926.020996	25.068655
828.361145	1319.521729	3583.308105	1881.581055	24.828285
828.669312	1320.183350	3465.977295	1843.978027	24.410297
828.977356	1315.993164	3366.732178	1813.653320	24.267357
829.285400	1312.464233	3275.867920	1780.792236	23.852863
829.593384	1310.920532	3197.353516	1757.634888	23.680372
829.901306	1307.833008	3122.257813	1733.485352	23.459354
830.209167	1312.133667	3057.858887	1709.776611	22.778095
830.517029	1312.795288	2998.532471	1694.669067	22.653221
830.824829	1314.669922	2946.704346	1679.561768	22.358097
831.132568	1311.802856	2898.073975	1663.241455	22.155014
831.440247	1308.935791	2841.724609	1646.369751	22.014380
831.747925	1308.384399	2783.059814	1630.931519	21.872414
832.055481	1305.848022	2716.786133	1618.360718	22.149284
832.363037	1306.178833	2668.706787	1604.135376	21.867922
832.670532	1304.635010	2628.898438	1594.541626	21.891914
832.977966	1306.178833	2611.034180	1582.191040	21.152706
833.285400	1308.825317	2591.847168	1583.404175	21.400949
833.592712	1306.840454	2572.659668	1577.449463	21.378172
833.900085	1307.391724	2552.700195	1572.817871	21.314089
834.207275	1302.760254	2539.798096	1566.311890	21.305059
834.514526	1301.767822	2527.668213	1558.372314	20.931921
834.821716	1302.760376	2517.964111	1557.049072	20.925602
835.128784	1303.091187	2508.921631	1552.417480	20.676729
835.435852	1306.399292	2503.297852	1551.314819	20.462513
835.742798	1308.163696	2494.696533	1550.873657	20.455393
836.049805	1307.722534	2485.323730	1550.653198	20.629282
836.356750	1309.597168	2474.847656	1551.535400	20.762766
836.663574	1306.950562	2463.930664	1553.520386	21.311501
836.970398	1307.060913	2452.021484	1549.440186	21.169224
837.277161	1304.524658	2437.244629	1544.919067	21.222757
837.583923	1305.075928	2424.122314	1543.926636	21.344130
837.890564	1308.053345	2396.774658	1537.751343	21.097961
838.197205	1308.604858	2354.650391	1525.290527	20.714745
838.503784	1311.692505	2308.005371	1505.882568	19.490871
838.810303	1309.376709	2257.059326	1489.451904	19.001635
839.116699	1306.509766	2211.626953	1475.888306	18.713438
839.423096	1309.046021	2160.791260	1467.948730	18.656132
839.729492	1308.715210	2120.541992	1452.510620	17.712572
840.035828	1304.745361	2089.996582	1443.468262	17.666054
840.342102	1302.760620	2067.500732	1437.403320	17.606335
840.648315	1308.494751	2039.601807	1433.323242	17.073900
840.954529	1311.692505	2021.517090	1428.691650	16.482824
841.260620	1313.015747	2003.432251	1420.421265	15.556626
841.566711	1310.258911	1989.207275	1415.789673	15.543267
841.872803	1309.707397	1968.365845	1409.945313	15.218497
842.178772	1312.795044	1954.250977	1409.173340	15.024929
842.484680	1310.920532	1935.394165	1402.556885	14.674175
842.790588	1312.574585	1921.830688	1396.932983	13.846131
843.096436	1313.567017	1911.354858	1388.993530	12.617606
843.402222	1314.118286	1899.996826	1383.920776	11.914157
843.707947	1315.551880	1889.300415	1375.981201	10.532371
844.013611	1315.993042	1878.162720	1365.946289	8.885796
844.319275	1313.125977	1861.070679	1362.307251	8.975591
844.624817	1314.118530	1844.529785	1352.052124	7.151732
844.930359	1311.913086	1820.380005	1345.104858	6.527813
845.235901	1311.030884	1800.530884	1337.937256	5.496705
845.541321	1315.993164	1778.035400	1332.092773	3.484445
845.846680	1311.913086	1765.354004	1324.814941	2.845322
846.152039	1311.472046	1751.459839	1318.529541	1.604021
846.457275	1316.323975	1736.793335	1316.434204	0.026216
846.762512	1318.308838	1724.553223	1310.258911	-1.981548
847.067749	1316.654785	1716.392822	1308.274048	-2.096557
847.372925	1315.110840	1705.365479	1306.399414	-2.232241
847.677979	1313.125977	1699.410889	1306.178833	-1.798451
847.983032	1314.669922	1687.391235	1301.878296	-3.431955
848.288025	1310.369263	1681.767456	1300.113892	-2.761287
848.592957	1309.045898	1679.782349	1295.923584	-3.539526
848.897888	1312.905518	1675.812744	1295.041260	-4.922541
849.202759	1312.133667	1675.151001	1293.166626	-5.224831
849.507507	1308.715210	1670.739990	1289.417358	-5.330534
849.812317	1308.825439	1668.093506	1285.116577	-6.599212
850.117004	1308.163818	1667.211182	1288.865845	-5.374771
850.421631	1305.958374	1663.682617	1286.660522	-5.394617
850.726257	1304.745361	1661.146240	1282.470093	-6.250060
851.030823	1304.635010	1660.154053	1281.698242	-6.451628
851.335327	1303.421875	1660.264282	1282.911377	-5.747775
851.639771	1301.326782	1656.404785	1283.793579	-4.937846
851.944153	1296.805664	1654.419800	1281.918945	-4.162788
852.248535	1297.136353	1657.507446	1283.021729	-3.916692
852.552856	1295.041260	1663.792725	1289.086670	-1.614798
852.857056	1291.733032	1663.131104	1289.858521	-0.504718
853.161255	1286.770874	1662.579834	1288.755737	0.528158
853.465393	1284.124268	1660.594727	1291.733032	2.021079
853.769531	1279.382568	1652.765381	1290.961182	3.101003
854.073547	1280.044189	1649.788086	1289.968750	2.684172
854.377563	1280.375000	1644.715576	1291.622803	3.087167
854.681580	1280.485474	1645.156616	1290.961182	2.872645
854.985474	1280.926392	1640.194336	1290.961182	2.793121
855.289307	1279.492920	1640.525269	1286.550415	1.954810
855.593140	1276.736084	1639.312134	1283.242310	1.794444
855.896851	1277.066895	1640.525269	1284.234619	1.972090
856.200623	1276.736084	1638.981445	1286.109131	2.587486
856.504272	1275.633423	1635.783691	1285.557861	2.755638
856.807922	1278.169678	1635.452759	1289.637939	3.209853
857.111389	1280.044312	1639.312256	1288.645508	2.394089
857.414978	1278.390259	1637.768555	1289.527710	3.099088
857.718445	1279.382568	1635.121826	1290.409912	3.099839
858.021790	1284.565308	1632.585693	1289.748291	1.489276
858.325195	1287.322144	1635.452881	1288.314697	0.285109
858.628479	1291.071655	1630.380371	1286.770874	-1.267513
858.931763	1289.637817	1624.315308	1282.801025	-2.042800
859.234985	1288.866089	1626.410522	1281.257202	-2.254188
859.538147	1291.071533	1623.763916	1282.249634	-2.651669
859.841248	1294.710571	1626.410522	1278.500366	-4.887009
860.144287	1297.687866	1629.828857	1279.051758	-5.610903
860.447266	1298.459717	1628.615723	1280.375000	-5.477628
860.750305	1296.915894	1632.585571	1280.816040	-4.796339
861.053223	1299.121338	1634.680786	1279.272339	-5.915196
861.356018	1295.592651	1635.342407	1275.522949	-5.907201
861.658813	1294.489746	1634.460205	1277.287354	-5.059967
861.961609	1299.672607	1630.049316	1281.588135	-5.473895
862.264343	1299.562256	1629.056885	1280.595581	-5.756292
862.567017	1301.216309	1630.821289	1278.720947	-6.824946
862.869629	1302.539673	1627.843994	1277.397705	-7.728753
863.172180	1302.429443	1623.322754	1277.287476	-7.834993
863.474670	1302.980713	1619.463135	1277.066772	-8.188113
863.777161	1304.083496	1617.037231	1276.625732	-8.773746
864.079590	1303.973267	1616.044800	1272.766235	-9.999961
864.381958	1302.760254	1622.330322	1273.538086	-9.144213
864.684265	1300.665161	1622.991943	1273.427734	-8.450253
864.986511	1297.246704	1621.889160	1272.655884	-7.574739
865.288757	1299.341797	1621.338013	1272.214722	-8.424657
865.590942	1301.988281	1621.117432	1271.883911	-9.433288
865.893066	1303.642578	1622.661133	1273.427734	-9.471187
866.195068	1301.988403	1619.352905	1271.884155	-9.485702
866.497131	1300.223999	1619.353027	1267.583496	-10.227996
866.799133	1304.193848	1623.874023	1264.385498	-12.452555
867.100952	1304.965698	1619.794067	1263.282837	-13.239868
867.402832	1306.619751	1616.816650	1265.047119	-13.402014
867.704651	1309.597168	1615.272827	1268.134766	-13.564182
868.006409	1309.045898	1617.808960	1269.899170	-12.678566
868.308105	1307.612305	1620.345459	1267.252808	-12.905411
868.609802	1310.810303	1620.896973	1271.553345	-12.659995
868.911438	1310.148682	1618.360474	1273.758789	-11.806782
869.213013	1310.479370	1617.478394	1274.530640	-11.709722
869.514465	1310.258911	1621.117432	1273.868896	-11.706295
869.815979	1312.133545	1620.345459	1271.332642	-13.237938
870.117371	1311.802734	1622.771362	1271.222412	-13.049651
870.418701	1315.000610	1624.425537	1278.169556	-11.903067
870.720093	1317.536987	1622.440674	1277.177002	-13.236962
871.021301	1319.080811	1621.558350	1277.177124	-13.853487
871.322571	1320.955322	1622.550781	1280.044067	-13.564944
871.623718	1319.301392	1625.638550	1278.941406	-13.175021
871.924805	1318.088379	1625.417969	1277.507813	-13.204249
872.225891	1318.970581	1625.528442	1273.317505	-14.892157
872.526917	1321.396484	1629.277588	1273.758667	-15.472796
872.827881	1323.491699	1626.631104	1277.508057	-15.169141
873.128784	1318.970459	1619.242920	1276.405151	-14.175562
873.429626	1317.867798	1620.345581	1276.074463	-13.816994
873.730408	1317.757568	1618.691406	1274.640869	-14.327634
874.031189	1314.338989	1621.338013	1272.986694	-13.469846
874.331848	1314.780151	1621.227661	1270.119751	-14.573589
874.632568	1311.692627	1620.786499	1267.362793	-14.341867
874.933167	1311.251343	1620.896973	1265.047119	-14.921645
875.233704	1309.156250	1623.102295	1263.944458	-14.401134
875.534241	1308.494629	1626.630981	1265.157471	-13.622196
875.834717	1307.171509	1627.513184	1260.526001	-14.561173
876.135071	1303.752930	1634.570679	1265.488281	-11.566686
876.435425	1302.539917	1634.019165	1267.914307	-10.445786
876.735779	1304.635132	1635.893799	1254.019897	-15.279671
877.036011	1298.901001	1636.004150	1252.586426	-13.738992
877.336182	1297.246948	1638.650635	1255.894531	-12.112470
877.636353	1294.931152	1645.928589	1254.791748	-11.435811
877.936462	1294.931030	1651.001099	1252.365845	-11.954160
878.236511	1297.908447	1661.366821	1254.461060	-11.953883
878.536560	1297.798218	1679.782349	1261.628662	-9.468863
878.836487	1297.246826	1703.049805	1273.979248	-5.733713
879.136414	1294.379639	1762.486816	1293.166626	-0.259131
879.436279	1291.843506	1852.138428	1323.270996	5.609098
879.736084	1293.276855	1963.513550	1358.117188	9.674244
880.035828	1290.961182	2086.908691	1396.161255	13.216961
880.335510	1293.938477	2202.694824	1429.683960	14.937500
880.635193	1293.276855	2303.594238	1463.206787	16.819460
880.934753	1297.797852	2393.576904	1491.767456	17.701525
881.234314	1296.474854	2473.193359	1515.917236	18.648672
881.533752	1298.569946	2539.467529	1537.420410	19.248201
881.833252	1297.798096	2600.889404	1552.527954	19.548120
882.132629	1298.570068	2658.892822	1571.274170	20.047014
882.431946	1298.680298	2704.766113	1582.521973	20.186653
882.731323	1299.893433	2746.559326	1593.880005	20.321663
883.030579	1298.459839	2780.192627	1613.729126	21.277067
883.329712	1298.018677	2813.053955	1625.087036	21.588167
883.628845	1298.790527	2833.675049	1631.703491	21.689774
883.927979	1298.900879	2847.128174	1636.996704	21.837608
884.226990	1299.452148	2858.045166	1643.281982	22.060270
884.526001	1296.144043	2861.684082	1642.179321	22.103252
884.824951	1296.695435	2855.398682	1642.068970	22.157747
885.123840	1295.702881	2838.306396	1629.057129	21.609846
885.422729	1297.687744	2793.645996	1612.626343	21.052633
885.721497	1300.223999	2709.948975	1587.042969	20.345739
886.020203	1301.216553	2605.962158	1552.968628	19.295109
886.318909	1302.760376	2484.331299	1515.475952	18.002777
886.617554	1302.980835	2367.773193	1483.717407	16.973879
886.916138	1302.980957	2268.858643	1451.076782	15.332772
887.214661	1300.554932	2181.522705	1430.455933	14.745261
887.513184	1301.106323	2099.369629	1407.960327	13.385809
887.811523	1298.018677	2028.905518	1387.008545	12.175601
888.109924	1303.752808	1794.686401	1264.385498	-8.018867
888.408264	1292.174194	1871.105347	1363.961670	12.400002
888.706543	1294.489868	1690.478760	1338.488647	11.111115
889.004761	1331.541504	1743.740479	1264.385498	-16.292133
889.302979	1313.015747	1655.742920	1280.595581	-9.459468
889.601135	1329.225830	1637.217163	1285.227051	-14.285720
889.899170	1282.911255	1678.900146	1264.385498	-4.678353
890.197205	1313.015747	1667.321533	1359.330200	13.071887
890.495178	1299.121338	1597.849854	1308.384277	3.100789
890.793091	1271.332642	1570.061157	1269.016968	-0.775177
>>>>>End Processed Spectral Data<<<<<
