Jaz Data File
++++++++++++++++++++++++++++++++++++
Date: Thu Sep 26 04:31:44 2019
User: jaz
Dark Spectrum Present: Yes
Reference Spectrum Present: Yes
Processed Spectrum Present: Yes
Spectrometers: JAZA3541
Integration Time (usec): 100000 (JAZA3541)
Spectra Averaged: 1 (JAZA3541)
Boxcar Smoothing: 10 (JAZA3541)
Correct for Electrical Dark: No (JAZA3541)
Strobe/Lamp Enabled: Yes (JAZA3541)
Correct for Detector Non-linearity: No (JAZA3541)
Correct for Stray Light: No (JAZA3541)
Number of Pixels in Processed Spectrum: 2048
>>>>>Begin Processed Spectral Data<<<<<
W	D	R	S	P
190.543274	0.000000	0.000000	0.000000	0.000000
190.921555	0.000000	0.000000	0.000000	0.000000
191.299805	1296.805664	1336.172974	1106.916260	-482.353027
191.678024	1229.649658	1322.278564	1155.546509	-80.000023
192.056229	1345.435913	1313.015747	1141.652100	628.571167
192.434387	1331.541504	1278.279907	1148.599243	343.478729
192.812531	1303.752808	1324.594360	1185.650879	-566.665710
193.190659	1310.699951	1296.805664	1220.386719	650.002625
193.568741	1319.962891	1359.330200	1190.282349	-329.411743
193.946793	0.000000	0.000000	0.000000	0.000000
194.324829	1207.815674	1211.785522	1074.055176	-3369.410645
194.702835	1271.994385	1273.317627	1132.720093	-10525.230469
195.080811	1337.606445	1335.070313	1188.848877	5865.527344
195.458755	1337.827148	1332.203125	1190.943970	2611.709961
195.836685	1338.268188	1331.541626	1191.936523	2175.430176
196.214569	1339.811890	1336.172974	1192.156982	4057.661865
196.592422	1341.907104	1340.032471	1196.236938	7770.593262
196.970261	1342.679077	1342.127686	1196.237061	26558.623047
197.348068	1343.781860	1343.120117	1197.670532	22079.763672
197.725861	1344.222900	1342.127563	1200.427246	6862.650879
198.103622	1343.561279	1338.157837	1198.222046	2689.752686
198.481323	1340.253052	1337.496216	1197.780884	5167.959473
198.859039	1337.937378	1335.290771	1198.883667	5254.038086
199.236694	1335.070313	1335.621460	1196.236938	-25189.878906
199.614334	1333.416138	1335.511230	1193.149414	-6695.012695
199.991959	1329.115479	1337.937134	1193.811157	-1533.774780
200.369553	1324.373657	1337.826904	1194.141846	-968.032532
200.747101	1322.499023	1341.355835	1194.693237	-677.769836
201.124619	1320.514038	1341.576294	1193.370117	-603.657654
201.502136	1316.323608	1346.538452	1197.670654	-392.697571
201.879623	1313.677246	1349.736450	1198.994019	-318.041473
202.257065	1311.030640	1351.500854	1196.678223	-282.559448
202.634476	1309.927979	1352.934570	1196.237183	-264.356689
203.011871	1305.186279	1354.809082	1196.457642	-219.110229
203.389221	1303.091064	1361.866455	1196.237061	-181.800583
203.766571	1304.745117	1367.931519	1196.016602	-172.075821
204.143875	1300.334229	1365.064331	1200.096558	-154.854797
204.521164	1296.254272	1365.284912	1198.332275	-141.852951
204.898392	1297.798096	1363.300049	1194.252075	-158.080811
205.275620	1298.459717	1368.703369	1191.385132	-152.433105
205.652817	1293.718018	1368.482910	1188.848877	-140.265213
206.029984	1293.607666	1372.673218	1186.863892	-135.006683
206.407135	1291.953613	1374.988892	1184.989258	-128.817963
206.784225	1292.394775	1374.437378	1184.327637	-131.720764
207.161301	1293.607910	1372.893555	1187.194824	-134.214828
207.538376	1298.570190	1373.555176	1186.753662	-149.118561
207.915405	1302.209229	1370.798462	1184.217407	-172.026733
208.292404	1303.422119	1370.798584	1185.651001	-174.795639
208.669373	1305.406860	1366.718506	1183.445557	-198.920288
209.046310	1302.319336	1363.961670	1188.959229	-183.899765
209.423218	1303.863159	1361.645874	1187.194702	-201.908920
209.800095	1305.737793	1357.124756	1185.651001	-233.691162
210.176956	1308.715210	1353.265137	1187.084473	-273.021179
210.553787	1308.163818	1355.911743	1188.407593	-250.809280
210.930603	1309.597412	1356.242554	1186.091797	-264.777008
211.307358	1315.221313	1353.485718	1186.973999	-335.160889
211.684113	1317.316406	1349.846680	1189.951538	-391.527191
212.060837	1316.985596	1348.413086	1191.605469	-398.950500
212.437531	1316.765015	1350.839233	1193.480225	-361.812531
212.814178	1314.008179	1354.037109	1197.229492	-291.735718
213.190826	1312.574585	1351.280273	1197.670654	-296.865753
213.567413	1313.125977	1352.383057	1197.560303	-294.381744
213.943985	1310.258789	1357.345337	1200.978760	-232.083328
214.320541	1309.266479	1357.124756	1201.750732	-224.654449
214.697052	1307.612305	1361.315186	1199.324829	-201.641830
215.073563	1309.266357	1363.300049	1199.214478	-203.672699
215.449997	1303.863159	1360.874023	1203.184326	-176.595871
215.826431	1301.326904	1362.086914	1208.477539	-152.813278
216.202850	1300.334351	1364.954102	1207.484985	-143.685730
216.579224	1298.459717	1369.695923	1208.146606	-126.779785
216.955582	1300.885742	1374.989014	1205.389771	-128.868759
217.331894	1300.554932	1374.217041	1205.500000	-129.041824
217.708191	1300.003418	1376.863647	1202.522583	-126.828705
218.084442	1300.113770	1383.480103	1202.081421	-117.592255
218.460678	1296.915771	1384.141602	1200.427368	-110.619072
218.836899	1295.041260	1385.685303	1202.302124	-102.311340
219.213074	1292.615234	1387.339478	1206.161621	-91.268730
219.589233	1294.269287	1392.191650	1204.838379	-91.328377
219.965347	1296.805542	1398.697510	1204.728027	-90.367783
220.341431	1295.592529	1399.359131	1201.971191	-90.223000
220.717499	1296.254150	1400.241455	1202.743042	-89.925507
221.093552	1295.041260	1402.336548	1202.302002	-86.433670
221.469543	1299.011108	1407.078247	1201.750610	-90.000069
221.845535	1302.980835	1407.409058	1198.773193	-99.788773
222.221466	1305.296631	1411.709595	1197.780884	-101.036324
222.597397	1305.186279	1417.884766	1200.317139	-93.052841
222.973297	1302.760376	1426.706543	1199.214600	-83.540924
223.349167	1300.554932	1437.403076	1200.096680	-73.408562
223.725006	1297.467285	1446.996826	1196.457642	-67.551628
224.100800	1295.041260	1454.385010	1198.883545	-60.346085
224.476578	1295.372070	1465.081543	1205.169312	-53.151279
224.852325	1297.577515	1475.778076	1208.146606	-50.185535
225.228058	1298.680298	1495.847778	1207.926025	-46.029026
225.603760	1297.577637	1523.195313	1210.793091	-38.465313
225.979416	1295.261963	1552.086792	1210.903198	-32.846809
226.355057	1295.372192	1590.351318	1216.306641	-26.803778
226.730652	1296.805664	1642.069214	1226.562134	-20.344902
227.106232	1296.915894	1691.912231	1230.421509	-16.834177
227.481796	1294.159180	1736.903687	1235.825073	-13.175569
227.857315	1292.946167	1778.145630	1237.479126	-11.431802
228.232788	1296.033813	1815.638184	1244.316040	-9.953299
228.608246	1296.695435	1848.058350	1251.042725	-8.279975
228.983704	1297.026245	1883.345459	1257.217773	-6.789556
229.359100	1297.577637	1916.206665	1262.511108	-5.668426
229.734482	1293.166748	1945.870117	1269.127197	-3.683074
230.109833	1290.189453	1973.768921	1274.861572	-2.242297
230.485153	1290.189331	1989.979126	1279.051758	-1.591560
230.860443	1289.527710	2012.585205	1279.051880	-1.448824
231.235703	1293.166748	2031.331421	1279.492920	-1.852409
231.610931	1293.607788	2055.481445	1292.063965	-0.202635
231.986145	1293.056396	2079.300049	1296.364624	0.420764
232.361313	1290.189209	2098.708252	1296.585083	0.791060
232.736465	1287.983765	2121.313965	1300.224121	1.468848
233.111572	1285.888550	2134.656982	1307.502075	2.546457
233.486664	1288.865845	2141.052734	1315.551880	3.131477
233.861725	1290.409668	2141.604248	1321.837524	3.692206
234.236755	1292.284302	2138.957520	1322.499023	3.568640
234.611771	1296.474731	2120.873047	1321.947754	3.089893
234.986740	1298.900635	2101.023926	1322.057983	2.887006
235.361679	1299.782959	2083.710938	1327.020386	3.474481
235.736588	1298.570068	2073.235107	1326.799805	3.644122
236.111496	1297.908447	2069.375488	1330.659180	4.245254
236.486343	1298.459717	2071.139893	1335.070190	4.738115
236.861160	1301.106323	2071.250000	1338.819580	4.896912
237.235962	1300.334351	2079.961426	1343.561157	5.544549
237.610733	1302.760376	2089.996338	1352.603516	6.331410
237.985474	1301.437134	2106.978271	1359.550781	7.214237
238.360199	1300.665283	2140.501221	1370.357544	8.298319
238.734879	1301.767944	2177.662842	1383.700439	9.354147
239.109543	1300.334473	2227.616455	1403.218750	11.095252
239.484177	1304.635132	2281.650146	1418.436279	11.647840
239.858749	1310.810303	2350.680908	1438.064819	12.237534
240.233322	1311.361694	2434.047119	1461.773438	13.397497
240.607864	1313.126099	2511.899414	1488.128540	14.598460
240.982391	1314.559570	2592.618896	1518.563843	15.962034
241.356857	1316.213745	2651.063232	1538.964111	16.687302
241.731308	1315.000610	2704.435059	1560.357056	17.658728
242.105728	1317.977905	2744.684814	1577.780151	18.209925
242.480118	1312.354126	2785.926758	1594.431152	19.142391
242.854492	1310.479492	2835.880127	1612.074951	19.771557
243.228836	1309.045898	2893.442383	1631.041992	20.322948
243.603134	1312.905518	2957.290283	1658.830566	21.036747
243.977402	1312.023193	3046.721436	1688.824829	21.721451
244.351654	1310.920532	3168.241699	1727.089478	22.406946
244.725861	1310.810303	3315.235107	1773.734741	23.095127
245.100067	1311.912964	3466.970215	1824.018921	23.762987
245.474213	1311.361694	3603.377197	1865.371338	24.171286
245.848343	1316.985474	3710.341553	1907.605835	24.677498
246.222443	1318.198486	3794.700195	1933.629883	24.850836
246.596512	1318.419067	3855.019287	1963.734375	25.440166
246.970566	1321.286133	3892.181641	1980.164795	25.628372
247.344574	1320.845093	3904.862793	1988.324951	25.831089
247.718567	1317.206055	3891.740234	1993.728394	26.277466
248.092529	1318.749756	3859.430420	1995.051758	26.618929
248.466431	1315.441650	3833.075195	1988.766235	26.744345
248.840332	1313.236206	3807.051025	1977.738647	26.646021
249.214203	1311.030640	3809.476563	1978.621094	26.720230
249.588043	1313.787598	3825.797363	1986.670898	26.786652
249.961838	1310.038330	3853.696045	1998.249634	27.055971
250.335617	1313.677124	3886.888428	2008.174072	26.989502
250.709381	1313.456665	3901.664795	2014.790405	27.097271
251.083084	1318.198608	3899.569824	2014.239258	26.963991
251.456787	1314.780029	3882.367188	2007.953491	26.997076
251.830460	1316.434204	3829.656738	1996.264282	27.050133
252.204071	1313.456787	3746.069824	1971.894287	27.067087
252.577667	1310.038452	3638.995117	1937.709839	26.950756
252.951248	1310.369263	3513.615234	1902.312256	26.866858
253.324799	1308.604858	3406.099365	1873.972412	26.954422
253.698303	1305.737671	3326.152100	1847.066040	26.792936
254.071793	1305.296631	3267.817627	1829.863647	26.729244
254.445236	1304.083618	3233.853760	1814.866577	26.468590
254.818665	1300.113770	3219.959473	1807.698608	26.438835
255.192062	1300.003418	3219.077393	1806.154785	26.374771
255.565430	1300.444458	3243.888672	1809.462769	26.191557
255.938782	1301.878052	3283.365967	1819.828491	26.139469
256.312103	1304.745117	3340.266846	1834.163696	26.008987
256.685364	1306.730225	3419.442383	1861.180664	26.243540
257.058594	1304.965820	3518.357178	1887.976929	26.340174
257.431793	1302.098633	3646.714600	1915.545044	26.164047
257.804993	1302.760254	3790.178955	1955.133057	26.226900
258.178162	1299.672729	3928.240234	1996.264648	26.500820
258.551270	1298.128906	4052.517578	2035.190674	26.759541
258.924377	1294.379639	4145.587402	2063.751465	26.984068
259.297485	1293.938599	4222.999023	2090.547607	27.196741
259.670502	1293.056396	4286.625977	2109.293945	27.266363
260.043518	1295.151489	4346.063477	2127.268311	27.274363
260.416473	1298.569946	4394.473145	2147.117676	27.408728
260.789459	1297.026123	4449.830078	2159.908936	27.368744
261.162354	1297.246704	4497.467773	2173.913574	27.393946
261.535278	1298.349365	4541.796875	2187.366699	27.409641
261.908142	1298.790527	4576.092285	2194.975830	27.345219
262.280975	1301.216553	4595.279297	2197.953125	27.222815
262.653717	1302.870605	4609.834961	2199.607422	27.116615
263.026520	1300.113892	4627.809570	2198.614990	27.000698
263.399261	1297.357056	4643.688477	2197.181152	26.889868
263.771973	1296.915894	4654.495605	2194.976074	26.747250
264.144653	1298.239258	4653.502930	2194.093750	26.699972
264.517334	1301.106323	4633.103027	2185.492676	26.542234
264.889954	1302.208862	4586.678223	2177.001465	26.634214
265.262543	1305.627563	4506.179199	2160.791260	26.719259
265.635071	1308.053589	4405.610840	2130.025391	26.536131
266.007599	1311.802856	4310.224609	2097.936035	26.218231
266.380127	1312.133545	4240.201660	2066.398193	25.759806
266.752594	1315.882935	4205.575684	2048.423828	25.350130
267.125031	1315.000732	4197.084473	2039.712280	25.145403
267.497437	1313.236328	4212.963867	2037.286255	24.969585
267.869843	1316.544556	4239.098633	2039.050537	24.721731
268.242218	1313.567261	4277.473633	2046.328369	24.722816
268.614532	1311.913208	4335.697754	2062.428223	24.820385
268.986816	1312.354126	4430.973633	2079.630859	24.603088
269.359100	1311.471924	4539.150879	2103.449707	24.537067
269.731354	1310.038452	4652.510742	2130.356445	24.542253
270.103516	1311.030762	4749.219727	2155.277832	24.554993
270.475708	1311.361572	4830.049805	2178.324707	24.638817
270.847839	1314.890381	4902.499023	2195.527344	24.546629
271.219971	1318.419067	4961.053711	2218.574463	24.711657
271.592041	1320.403809	5006.596191	2233.902100	24.781622
271.964081	1321.065552	5036.369629	2242.172852	24.792244
272.336151	1316.434204	5064.048340	2245.260254	24.784462
272.708130	1316.654785	5090.182129	2242.172607	24.526596
273.080109	1313.015869	5107.385254	2243.165039	24.513933
273.452026	1311.582275	5141.238770	2249.891602	24.501135
273.823914	1310.369263	5176.085449	2252.979248	24.383837
274.195770	1310.369263	5215.893555	2266.432373	24.479763
274.567627	1309.376831	5261.987793	2277.790283	24.500603
274.939423	1310.700073	5304.332031	2285.509766	24.409103
275.311249	1312.243896	5345.464355	2292.346680	24.300749
275.682983	1310.479492	5376.120117	2299.514404	24.326668
276.054688	1309.707520	5401.151855	2301.168457	24.232542
276.426422	1307.943115	5403.577148	2302.491699	24.283140
276.798065	1312.243896	5370.495117	2293.118652	24.169888
277.169708	1313.236206	5325.172852	2278.121582	24.050365
277.541321	1317.757446	5277.536133	2266.542480	23.960556
277.912903	1316.985352	5267.832031	2264.337158	23.978451
278.284424	1316.764893	5279.741211	2267.424561	23.988527
278.655945	1315.882813	5301.685547	2276.025879	24.089077
279.027435	1312.574707	5332.010254	2280.547119	24.082296
279.398865	1310.920532	5391.226563	2295.434082	24.128424
279.770294	1307.502075	5467.424805	2315.393311	24.228603
280.141663	1310.810303	5539.763672	2339.102051	24.315516
280.513031	1313.015869	5615.631348	2364.354248	24.434868
280.884369	1315.993164	5680.912598	2381.005615	24.399361
281.255676	1314.559570	5725.462402	2391.922607	24.425001
281.626953	1313.787720	5763.727051	2406.809570	24.562622
281.998199	1316.654907	5805.189453	2420.042236	24.582350
282.369385	1313.346680	5856.245605	2434.046875	24.669273
282.740540	1313.236328	5915.572754	2452.903564	24.762796
283.111694	1311.802856	5983.280273	2472.201172	24.840071
283.482819	1310.479492	6070.064941	2492.381104	24.832029
283.853912	1314.559570	6165.339844	2517.522949	24.799379
284.224945	1315.441772	6257.858398	2536.600342	24.707724
284.595978	1313.346436	6348.502930	2570.674805	24.970989
284.966980	1311.030762	6425.914551	2599.786865	25.196196
285.337952	1309.817749	6500.238281	2626.803467	25.373392
285.708893	1306.730103	6535.746094	2643.564697	25.565701
286.079803	1305.406860	6558.352051	2651.394043	25.623476
286.450684	1304.745239	6574.893066	2666.832031	25.845324
286.821533	1307.391846	6588.677246	2677.308105	25.939070
287.192322	1306.399414	6596.506836	2683.262939	26.027138
287.563110	1307.391968	6602.571289	2694.400635	26.193800
287.933868	1303.642700	6627.272461	2708.956543	26.397663
288.304596	1299.672852	6668.735352	2729.246826	26.626137
288.675262	1300.885742	6725.304199	2751.411377	26.740665
289.045929	1301.326782	6777.683594	2783.390137	27.062943
289.416565	1300.113770	6826.645020	2807.650391	27.278170
289.787170	1296.805664	6843.957520	2826.286377	27.572361
290.157745	1293.718018	6845.170898	2841.283691	27.876768
290.528259	1293.497437	6840.870605	2850.656738	28.070211
290.898773	1294.820801	6830.614746	2860.802002	28.288286
291.269226	1294.269287	6813.852539	2875.357910	28.645073
291.639679	1290.630371	6797.202148	2885.723389	28.967079
292.010101	1294.820801	6810.876465	2908.439697	29.253130
292.380463	1293.828369	6840.539551	2928.619385	29.473160
292.750824	1298.680298	6882.332031	2952.438232	29.617855
293.121155	1300.775391	6928.756836	2979.785889	29.833263
293.491455	1307.502197	6990.068359	3012.977783	30.012419
293.861725	1310.920532	7072.000977	3052.345459	30.227402
294.231964	1313.125977	7184.479004	3094.690186	30.343332
294.602142	1314.669678	7298.721680	3139.571045	30.496082
294.972321	1314.669800	7398.077148	3182.577393	30.704958
295.342468	1316.213623	7496.991699	3226.796875	30.911694
295.712555	1317.095825	7559.295410	3257.342285	31.082737
296.082672	1318.419067	7583.776855	3274.765137	31.224810
296.452728	1315.882813	7585.761719	3285.020508	31.406311
296.822693	1319.080688	7589.400879	3284.910400	31.351345
297.192657	1321.065552	7589.180664	3290.975342	31.427465
297.562622	1322.388916	7606.824219	3305.751953	31.559923
297.932556	1326.027954	7627.886230	3319.645752	31.635395
298.302460	1328.233398	7634.833496	3324.498047	31.653580
298.672333	1327.792358	7640.347656	3337.620605	31.838585
299.042145	1329.005127	7636.597656	3337.289795	31.839161
299.411957	1330.218140	7623.033691	3337.841064	31.903414
299.781677	1326.027954	7584.768555	3328.798340	31.999575
300.151428	1326.579224	7523.125977	3311.044189	32.025337
300.521149	1326.248291	7458.727051	3291.967529	32.054237
300.890839	1322.829956	7386.829590	3265.833008	32.041611
301.260468	1317.095825	7310.961914	3234.515625	31.989700
301.630096	1318.418945	7223.515625	3205.072998	31.949589
301.999695	1319.080688	7102.436523	3164.823242	31.914732
302.369232	1316.323975	6976.063965	3125.125488	31.959091
302.738739	1314.449219	6859.727051	3082.229248	31.879017
303.108246	1310.699951	6722.106445	3033.378418	31.834211
303.477692	1311.251343	6610.841309	2988.607666	31.650682
303.847137	1311.361816	6522.182129	2959.716309	31.633301
304.216553	1311.361572	6456.680176	2933.581787	31.528082
304.585876	1310.369141	6397.794434	2912.960693	31.501034
304.955231	1309.597046	6350.267090	2896.419922	31.480396
305.324493	1306.619751	6311.010254	2874.255127	31.325199
305.693787	1306.178711	6280.244629	2857.824707	31.194721
306.063049	1306.509521	6274.399414	2854.847168	31.166908
306.432251	1307.391846	6272.414551	2843.488770	30.938368
306.801422	1305.627319	6267.783691	2841.834717	30.958466
307.170593	1304.524658	6268.334961	2839.298828	30.919273
307.539673	1303.642456	6275.171875	2840.180664	30.906752
307.908783	1304.304077	6290.831055	2844.040527	30.877934
308.277832	1302.650146	6307.150879	2851.869873	30.956528
308.646851	1300.444702	6338.357910	2863.889404	31.033579
309.015839	1303.973389	6378.717773	2876.019043	30.977831
309.384796	1298.239258	6410.586914	2885.612793	31.049797
309.753723	1295.151733	6446.205566	2893.993408	31.039118
310.122620	1294.600220	6472.339844	2903.146240	31.066568
310.491486	1296.144165	6484.690430	2911.637207	31.135754
310.860352	1299.342041	6501.231445	2917.591797	31.108883
311.229126	1299.452148	6515.456055	2925.421387	31.172699
311.597931	1298.680298	6523.726074	2924.869873	31.122972
311.966675	1300.224121	6544.016602	2935.787109	31.190460
312.335388	1300.665161	6579.523926	2949.350830	31.231857
312.704071	1298.680298	6617.236816	2962.252686	31.278645
313.072723	1301.326904	6632.564941	2969.861572	31.297319
313.441345	1301.988525	6630.139160	2974.052002	31.381687
313.809875	1302.650146	6611.061523	2971.956787	31.446445
314.178436	1298.459839	6573.018066	2964.237305	31.581366
314.546967	1304.193970	6535.194824	2950.343018	31.469103
314.915466	1304.635132	6494.283691	2940.308105	31.517992
315.283936	1308.604858	6440.911621	2920.679688	31.410337
315.652374	1309.266602	6398.125977	2900.279297	31.264624
316.020752	1307.943237	6345.084961	2874.364990	31.097433
316.389130	1313.236328	6299.542480	2851.869141	30.857166
316.757416	1313.346680	6259.072266	2840.180420	30.871784
317.125732	1312.574585	6233.378418	2829.043213	30.817499
317.494019	1313.126099	6201.399414	2816.030762	30.745102
317.862274	1315.441895	6169.530762	2799.820801	30.579969
318.230469	1314.338989	6137.441406	2787.029297	30.534086
318.598663	1315.441772	6109.211914	2774.237793	30.431080
318.966797	1315.221069	6076.571289	2757.145508	30.283941
319.334930	1314.449341	6049.113281	2738.840332	30.084309
319.703003	1310.148682	6018.347656	2725.607422	30.063696
320.071045	1307.612305	5975.341309	2702.781006	29.889668
320.439056	1306.178711	5939.722656	2687.783936	29.817463
320.807037	1306.399292	5937.627441	2676.756592	29.589502
321.175049	1305.296631	5958.910156	2677.639160	29.489828
321.542969	1301.878052	5990.778809	2676.536377	29.317284
321.910828	1306.178711	6035.219238	2682.160400	29.096424
322.278717	1304.965820	6093.112305	2697.488281	29.082705
322.646515	1308.053345	6142.183594	2709.508301	28.990839
323.014313	1307.501953	6192.908691	2722.520020	28.964182
323.382111	1304.855469	6229.739746	2733.988037	29.018602
323.749817	1304.745117	6278.259766	2746.780029	28.994284
324.117523	1303.752808	6305.828125	2758.027832	29.073435
324.485199	1301.326782	6320.052734	2757.807373	29.020922
324.852814	1304.193970	6319.501465	2755.712158	28.941757
325.220428	1306.399292	6317.957520	2753.837158	28.881992
325.588013	1305.075928	6324.794434	2753.947510	28.863602
325.955536	1308.384155	6334.498535	2752.183105	28.725948
326.323059	1308.825317	6352.804199	2752.072754	28.613272
326.690552	1309.597168	6376.622070	2759.902100	28.622416
327.058014	1311.030640	6396.030273	2769.716553	28.686058
327.425415	1314.338989	6409.152344	2771.039795	28.591837
327.792816	1317.977905	6423.708984	2781.295410	28.660294
328.160187	1320.955322	6430.545410	2778.979492	28.535053
328.527496	1321.837646	6416.541504	2781.295166	28.646561
328.894775	1322.940430	6410.255859	2767.290527	28.391205
329.262054	1325.697144	6391.839844	2762.879639	28.368378
329.629303	1323.712280	6378.275879	2763.431152	28.483545
329.996490	1321.837646	6364.161621	2761.005127	28.541748
330.363647	1317.977905	6370.558105	2761.887207	28.577663
330.730774	1316.985718	6381.474609	2767.180176	28.634567
331.097839	1316.544434	6412.020020	2769.385742	28.512379
331.464935	1316.103394	6438.044434	2782.839355	28.636332
331.831970	1312.353882	6459.437500	2788.794189	28.684988
332.198975	1311.802490	6487.336426	2792.984375	28.618917
332.565948	1311.582153	6516.007324	2798.167236	28.563866
332.932892	1304.965698	6553.610352	2809.084229	28.657276
333.299744	1305.406860	6581.950195	2819.008789	28.685482
333.666656	1301.878174	6619.553711	2832.462158	28.782951
334.033478	1300.444702	6650.540039	2841.504395	28.804342
334.400299	1300.665283	6674.027344	2847.238525	28.782225
334.767090	1298.570068	6710.527344	2853.854736	28.737934
335.133850	1299.562622	6735.669434	2867.638672	28.845570
335.500549	1296.805786	6758.166016	2874.916992	28.895937
335.867218	1291.622803	6781.985352	2885.392578	29.028500
336.233917	1292.725586	6818.154785	2893.442627	28.970003
336.600525	1292.505005	6834.694824	2913.512207	29.248495
336.967102	1293.938599	6855.757324	2920.569580	29.246386
337.333649	1296.915894	6867.004395	2918.033447	29.103983
337.700195	1294.269287	6866.563965	2920.459717	29.183495
338.066681	1296.254150	6856.970215	2914.615234	29.103466
338.433136	1295.813110	6847.266602	2903.918945	28.967293
338.799591	1296.254272	6825.983398	2903.146729	29.059155
339.165985	1296.584961	6811.758789	2896.309814	29.005882
339.532318	1300.775391	6816.390625	2893.111816	28.869606
339.898651	1300.995972	6828.851074	2901.272217	28.949316
340.264954	1300.444580	6846.163574	2905.682861	28.945541
340.631226	1305.627319	6861.712891	2907.006348	28.822073
340.997467	1305.406860	6901.410645	2912.299561	28.715004
341.363678	1306.840454	6942.652344	2916.710205	28.565001
341.729828	1308.274048	6995.914551	2935.346191	28.607155
342.095947	1305.627563	7056.674316	2956.077637	28.698254
342.462067	1306.178833	7114.677734	2971.184814	28.664995
342.828156	1305.076050	7183.377441	2983.204590	28.547848
343.194183	1304.414551	7254.171875	2999.304199	28.486702
343.560211	1309.597290	7313.718750	3013.419189	28.377539
343.926178	1311.582275	7371.282227	3023.674561	28.253746
344.292114	1310.259155	7404.143066	3029.959961	28.220112
344.658020	1307.502197	7440.643066	3041.759033	28.276815
345.023926	1307.943237	7478.025391	3051.573486	28.259434
345.389771	1309.817871	7515.187500	3051.242676	28.063192
345.755585	1307.061157	7535.036621	3054.440430	28.056938
346.121368	1309.376953	7556.099121	3058.189941	27.995689
346.487122	1309.707642	7582.233398	3063.593262	27.961393
346.852844	1309.597412	7608.037109	3068.224609	27.921635
347.218536	1308.163818	7628.216309	3078.259277	28.007607
347.584167	1309.487061	7650.822266	3077.266846	27.877092
347.949768	1309.487061	7669.127930	3084.103760	27.904354
348.315369	1310.259033	7693.718750	3092.705078	27.922882
348.680939	1312.684937	7708.384766	3104.062988	28.009102
349.046448	1312.464478	7717.426270	3108.253418	28.037464
349.411957	1310.810303	7721.727051	3104.283447	27.975298
349.777435	1313.677490	7716.654785	3097.667236	27.861877
350.142792	1315.772705	7705.848145	3097.887695	27.888796
350.508209	1317.757568	7707.170898	3095.902832	27.829556
350.873566	1320.734985	7710.369629	3097.777588	27.811333
351.238892	1324.153320	7723.822754	3100.534180	27.757385
351.604187	1317.647217	7751.722656	3115.200439	27.938021
351.969482	1319.521973	7817.224609	3125.235596	27.790031
352.334717	1317.647339	7876.330566	3146.958740	27.891443
352.699890	1318.308838	7959.255371	3167.690430	27.848164
353.065063	1317.647217	8043.062500	3190.516846	27.847645
353.430237	1317.095825	8157.305176	3219.739258	27.815573
353.795319	1313.456787	8287.425781	3257.011230	27.868700
354.160370	1313.897827	8413.466797	3285.792480	27.774851
354.525421	1315.441650	8548.000977	3325.931641	27.797766
354.890442	1315.993164	8704.146484	3368.055420	27.775036
355.255402	1310.589600	8870.106445	3423.963867	27.956474
355.620331	1311.912964	9055.035156	3479.100098	27.988543
355.985260	1311.913086	9232.242188	3526.627686	27.962406
356.350098	1310.699951	9388.499023	3569.523438	27.963354
356.714935	1313.015869	9533.837891	3611.096436	27.954388
357.079742	1313.456909	9660.432617	3647.927734	27.967863
357.444519	1311.361694	9805.770508	3695.565918	28.067921
357.809296	1311.030762	9967.540039	3745.298340	28.120659
358.173981	1309.266479	10156.877930	3799.772949	28.148912
358.538605	1307.171265	10367.388672	3861.415283	28.191862
358.903259	1303.091187	10606.127930	3924.822266	28.181452
359.267914	1305.958008	10871.113281	4000.248535	28.167767
359.632477	1302.208740	11147.125000	4087.253418	28.289165
359.997009	1303.091064	11412.661133	4156.504395	28.224873
360.361542	1299.893188	11615.783203	4220.683105	28.313505
360.726013	1303.201416	11769.945313	4273.393555	28.377422
361.090485	1304.304321	11863.676758	4305.262207	28.419853
361.454895	1310.259033	11911.866211	4323.788574	28.425213
361.819244	1311.251343	11933.588867	4340.770508	28.520266
362.183594	1308.935791	11933.038086	4331.838379	28.453251
362.547913	1305.958374	11891.907227	4321.583496	28.487053
362.912201	1310.148682	11832.580078	4302.395996	28.436842
363.276489	1311.692383	11753.514648	4278.577148	28.413477
363.640686	1309.045898	11666.289063	4260.712891	28.498577
364.004883	1308.053467	11603.984375	4234.688477	28.425163
364.369049	1307.502075	11540.247070	4219.030273	28.453053
364.733154	1305.627319	11501.651367	4206.238281	28.448450
365.097198	1305.296631	11440.780273	4184.735352	28.409487
365.461273	1304.855469	11349.916992	4158.379395	28.407232
365.825287	1303.863037	11219.022461	4125.077148	28.453543
366.189270	1305.517212	11049.423828	4076.115967	28.434168
366.553223	1306.509644	10853.798828	4024.397705	28.467644
366.917114	1304.083740	10603.810547	3949.963867	28.451160
367.281006	1309.156250	10322.946289	3866.377197	28.370096
367.644867	1308.715088	10066.894531	3795.140625	28.389753
368.008698	1311.251465	9856.163086	3732.285645	28.333050
368.372498	1305.958374	9704.648438	3677.700928	28.239435
368.736237	1305.075928	9600.442383	3640.428955	28.152500
369.099976	1302.429565	9538.358398	3619.366699	28.132067
369.463654	1301.988525	9494.360352	3599.297607	28.042049
369.827332	1302.208862	9463.153320	3587.167480	27.998703
370.190948	1304.193848	9440.435547	3575.698975	27.918358
370.554535	1302.650146	9416.837891	3570.737061	27.952114
370.918091	1301.106445	9393.791016	3563.238037	27.952795
371.281647	1303.091309	9380.999023	3556.401367	27.894724
371.645111	1305.848267	9366.443359	3557.283447	27.931376
372.008575	1305.186523	9363.686523	3550.446533	27.862009
372.371979	1305.406982	9347.367188	3553.093018	27.949480
372.735382	1308.604858	9362.143555	3554.306641	27.884657
373.098724	1308.384155	9392.909180	3554.526855	27.783236
373.462067	1307.501953	9422.242188	3567.097412	27.845568
373.825348	1305.847900	9491.492188	3583.197510	27.821262
374.188599	1304.855347	9567.139648	3604.700928	27.835470
374.551819	1305.517090	9684.690430	3634.805420	27.798544
374.915009	1303.091187	9826.390625	3672.187500	27.795528
375.278168	1303.532227	9977.463867	3707.364258	27.713293
375.641266	1299.672729	10109.459961	3744.416016	27.750309
376.004395	1302.319214	10216.204102	3778.490234	27.778807
376.367462	1305.296631	10289.535156	3805.507324	27.828856
376.730469	1302.980957	10335.959961	3817.085449	27.832508
377.093475	1300.995972	10366.173828	3824.253418	27.834616
377.456421	1299.672852	10399.367188	3838.368408	27.898691
377.819336	1303.201538	10434.763672	3852.813965	27.920877
378.182281	1304.304199	10477.661133	3860.091797	27.860983
378.545135	1306.619873	10523.974609	3864.171875	27.747137
378.907928	1304.965820	10570.621094	3873.434814	27.720316
379.270752	1303.752808	10610.319336	3878.286865	27.663631
379.633484	1304.304077	10644.283203	3895.048828	27.738226
379.996246	1308.604858	10675.931641	3902.326172	27.689020
380.358948	1305.737671	10694.016602	3911.368652	27.754084
380.721558	1306.509521	10717.394531	3926.586426	27.840919
381.084198	1307.281494	10758.856445	3928.571533	27.733896
381.446747	1309.156006	10778.814453	3929.012695	27.665800
381.809326	1310.589722	10797.670898	3932.541260	27.637075
382.171875	1312.574707	10791.716797	3932.100098	27.634624
382.534363	1312.354126	10755.877930	3922.726563	27.641935
382.896790	1311.361572	10704.710938	3909.053223	27.654583
383.259247	1315.441772	10669.204102	3898.908203	27.619541
383.621613	1316.544556	10660.161133	3895.710205	27.603504
383.983948	1316.765015	10687.950195	3900.231445	27.568192
384.346283	1317.647217	10738.124023	3923.608887	27.662737
384.708588	1315.772705	10823.144531	3946.214600	27.667393
385.070831	1320.073242	10899.012695	3968.490234	27.648333
385.433075	1315.662354	10992.963867	3987.016113	27.604324
385.795258	1316.765015	11075.448242	4002.343750	27.519886
386.157440	1312.133667	11151.536133	4035.425537	27.677412
386.519531	1312.795288	11244.496094	4053.069580	27.591188
386.881622	1310.810303	11316.504883	4072.697998	27.603159
387.243683	1310.700073	11391.710938	4086.261230	27.532566
387.605713	1307.391724	11473.091797	4101.588867	27.486521
387.967682	1309.817749	11555.907227	4113.939941	27.367729
388.329651	1307.832886	11652.283203	4137.868652	27.358009
388.691559	1308.053345	11748.441406	4169.847656	27.410807
389.053467	1303.752686	11868.749023	4202.488281	27.437166
389.415314	1301.326782	11987.513672	4237.444824	27.475828
389.777130	1303.752808	12107.820313	4273.945313	27.491428
390.138885	1299.782959	12230.442383	4300.189941	27.449461
390.500641	1300.665039	12323.181641	4325.663086	27.443806
390.862366	1296.584961	12410.408203	4350.033203	27.474327
391.224060	1296.364502	12484.620117	4363.376465	27.412781
391.585693	1297.246704	12571.514648	4382.122559	27.362097
391.947296	1298.569946	12659.623047	4398.994629	27.289944
392.308868	1304.524658	12724.023438	4417.740723	27.262281
392.670441	1304.304077	12789.525391	4435.053711	27.258938
393.031952	1307.171265	12819.077148	4438.913086	27.204370
393.393433	1306.399414	12846.205078	4454.131348	27.277166
393.754883	1308.494507	12861.644531	4446.412109	27.160707
394.116302	1307.502075	12850.395508	4453.249023	27.252674
394.477692	1311.141113	12853.373047	4456.998047	27.255186
394.839020	1310.589722	12852.491211	4454.020508	27.234947
395.200348	1310.589722	12851.718750	4452.476074	27.223387
395.561646	1308.825317	12834.958008	4454.240723	27.289427
395.922882	1312.574585	12799.230469	4439.574219	27.222887
396.284088	1313.787476	12739.682617	4416.748535	27.157267
396.645264	1316.103271	12662.161133	4399.104492	27.172445
397.006409	1316.985474	12567.545898	4370.654297	27.142372
397.367523	1312.905396	12464.992188	4334.153809	27.091330
397.728577	1317.426514	12368.834961	4316.399902	27.136572
398.089600	1319.080688	12297.267578	4294.345703	27.101608
398.450592	1319.631958	12241.248047	4276.811523	27.076393
398.811584	1319.631958	12182.804688	4264.240723	27.106342
399.172546	1317.536865	12098.225586	4244.392090	27.149057
399.533447	1316.323853	12017.835938	4216.272949	27.098501
399.894318	1310.479492	11962.148438	4200.393555	27.131092
400.255127	1308.935791	11911.533203	4186.499023	27.140171
400.615936	1307.502197	11882.752930	4184.625000	27.206190
400.976685	1307.171387	11886.833008	4182.308594	27.176077
401.337433	1305.517212	11916.826172	4190.579102	27.188560
401.698151	1304.745483	11971.852539	4209.766602	27.233446
402.058807	1301.657715	12056.542969	4231.490234	27.241877
402.419434	1299.672729	12151.487305	4260.050781	27.280027
402.780060	1297.467285	12260.105469	4289.162598	27.289921
403.140594	1296.364624	12359.020508	4313.863281	27.276438
403.501129	1292.394775	12453.856445	4342.865234	27.330385
403.861633	1291.181763	12540.641602	4368.338379	27.353817
404.222076	1289.196777	12626.102539	4387.305664	27.327641
404.582550	1287.983765	12698.000000	4404.066406	27.310061
404.942932	1289.307007	12768.574219	4420.718262	27.278841
405.303284	1293.607666	12843.891602	4436.266602	27.208498
405.663605	1292.174316	12899.579102	4449.388672	27.200003
406.023895	1293.056396	12936.077148	4459.092773	27.192570
406.384125	1290.409912	12989.669922	4474.310547	27.214548
406.744354	1290.850952	13056.826172	4491.292969	27.200821
407.104553	1291.291992	13123.429688	4507.833496	27.184788
407.464691	1296.364624	13183.198242	4527.241211	27.180294
407.824829	1296.916016	13253.110352	4542.348633	27.144361
408.184906	1296.805664	13333.279297	4563.520996	27.140137
408.544922	1298.129028	13397.016602	4574.878906	27.083069
408.904938	1299.562500	13444.985352	4588.772949	27.081894
409.264923	1300.224121	13466.709961	4594.728027	27.078516
409.624847	1298.239258	13452.485352	4591.419922	27.094898
409.984802	1301.437256	13428.113281	4582.818359	27.059196
410.344666	1303.091187	13393.708008	4574.768555	27.059639
410.704529	1305.076050	13355.223633	4561.094727	27.020571
411.064331	1307.612305	13323.023438	4543.671387	26.932571
411.424133	1306.399414	13317.508789	4537.275879	26.899069
411.783875	1306.509644	13312.107422	4536.945313	26.907745
412.143555	1310.369263	13321.479492	4539.371094	26.883459
412.503235	1308.274048	13338.792969	4539.591309	26.859335
412.862885	1304.635010	13348.716797	4536.062988	26.830006
413.222473	1305.406860	13404.625000	4548.854980	26.807091
413.582062	1303.642578	13483.800781	4568.924316	26.808205
413.941559	1302.870605	13553.383789	4589.544922	26.828869
414.301086	1304.855591	13638.513672	4607.519531	26.777653
414.660522	1306.399414	13709.198242	4638.836914	26.868431
415.019958	1303.863037	13795.209961	4660.891602	26.874832
415.379364	1302.429688	13906.364258	4689.231445	26.870989
415.738708	1300.555054	14027.223633	4716.247559	26.838856
416.098053	1300.996216	14169.366211	4755.174316	26.842390
416.457336	1300.996094	14353.409180	4800.716797	26.812824
416.816559	1302.870728	14553.443359	4841.076660	26.702290
417.175812	1306.840454	14794.830078	4902.498047	26.658218
417.535004	1302.319336	15084.958008	4975.388672	26.649971
417.894135	1306.289063	15413.351563	5055.666992	26.578020
418.253265	1303.091187	15806.914063	5162.962402	26.612783
418.612335	1300.775513	16211.945313	5273.675781	26.643787
418.971405	1302.870728	16630.541016	5389.903320	26.664410
419.330414	1304.304077	17066.005859	5501.719727	26.630470
419.689423	1303.642334	17500.701172	5609.455566	26.583921
420.048370	1306.178711	17901.873047	5723.478027	26.617140
420.407257	1306.619751	18312.748047	5830.552734	26.601780
420.766144	1307.281372	18696.716797	5943.251465	26.659693
421.125000	1310.479370	19089.509766	6032.461914	26.559278
421.483795	1311.692383	19479.652344	6132.147949	26.532728
421.842560	1309.817749	19892.181641	6246.059570	26.564123
422.201324	1305.627563	20295.669922	6341.335449	26.517624
422.560028	1306.730225	20666.406250	6441.352539	26.522253
422.918671	1310.259033	21005.935547	6531.114746	26.507624
423.277283	1307.281494	21295.291016	6607.202148	26.515501
423.635925	1306.950806	21519.697266	6665.646484	26.511469
423.994476	1306.178833	21684.664063	6710.308105	26.518799
424.353027	1301.437134	21815.447266	6748.241699	26.551634
424.711487	1299.562500	21918.664063	6766.767090	26.515242
425.069946	1303.422119	21966.853516	6777.683594	26.492510
425.428375	1300.003662	21932.335938	6770.957520	26.516411
425.786743	1302.980957	21839.044922	6740.302246	26.476938
426.145081	1302.650146	21688.634766	6703.691406	26.493895
426.503418	1303.201538	21511.423828	6647.562500	26.446466
426.861725	1303.642578	21295.402344	6587.022949	26.427790
427.219971	1305.958252	21063.716797	6529.130371	26.436056
427.578186	1305.737671	20870.742188	6479.506836	26.443996
427.936371	1306.509521	20683.941406	6421.393555	26.396088
428.294495	1304.524658	20465.931641	6356.002441	26.362770
428.652618	1305.406982	20213.738281	6299.983398	26.414684
429.010712	1308.604858	19949.083984	6225.108398	26.375414
429.368744	1307.502197	19655.095703	6143.506836	26.357706
429.726746	1309.266479	19377.318359	6066.536133	26.329731
430.084717	1308.163818	19099.431641	5977.104980	26.242882
430.442688	1307.060913	18835.882813	5897.267578	26.186623
430.800568	1309.376709	18608.390625	5843.675293	26.211315
431.158417	1306.840454	18434.820313	5792.839355	26.191057
431.516235	1306.068604	18281.431641	5752.149414	26.191376
431.874023	1311.692505	18144.582031	5713.112793	26.147743
432.231812	1313.567261	18015.671875	5689.514160	26.199970
432.589508	1312.574707	17917.308594	5660.622559	26.185591
432.947205	1313.015869	17823.136719	5632.062012	26.159988
433.304840	1313.015747	17743.410156	5609.235840	26.148005
433.662476	1316.213623	17696.322266	5587.622559	26.076807
434.020050	1314.890381	17657.066406	5569.869141	26.036793
434.377594	1312.795166	17623.541016	5562.370117	26.053837
434.735138	1308.825195	17599.613281	5551.673828	26.044466
435.092621	1308.935669	17586.931641	5533.589355	25.953157
435.450043	1307.612305	17582.742188	5535.574219	25.978054
435.807465	1309.707520	17606.451172	5538.881836	25.951038
436.164856	1308.053345	17642.402344	5547.593750	25.954758
436.522156	1303.973267	17711.433594	5567.332520	25.984272
436.879486	1305.737671	17791.822266	5577.367188	25.910517
437.236755	1306.840454	17887.759766	5603.060547	25.910625
437.593994	1306.730225	17994.613281	5630.628906	25.910408
437.951172	1304.635010	18134.107422	5663.710449	25.901436
438.308380	1308.053467	18255.406250	5688.190918	25.845556
438.665497	1306.840454	18378.800781	5719.066895	25.844873
439.022583	1309.266602	18541.562500	5760.419434	25.830294
439.379608	1306.399414	18692.748047	5799.786621	25.844343
439.736633	1303.973389	18803.460938	5824.928711	25.834784
440.093628	1303.311646	18901.603516	5859.444336	25.889631
440.450562	1302.098633	18996.988281	5880.286133	25.872934
440.807495	1300.003540	19074.402344	5902.120605	25.891830
441.164368	1297.687866	19164.937500	5929.578125	25.923912
441.521210	1294.820679	19226.908203	5948.324219	25.950706
441.878021	1295.813232	19294.947266	5960.895508	25.918367
442.234833	1294.820801	19409.521484	5988.684082	25.911900
442.591522	1293.056274	19506.119141	6016.913574	25.936646
442.948242	1294.379517	19605.806641	6048.230957	25.961119
443.304901	1289.748169	19723.906250	6070.947266	25.936628
443.661530	1290.961060	19876.414063	6104.028320	25.896959
444.018127	1295.372070	20038.294922	6135.677246	25.824709
444.374664	1293.717773	20193.007813	6178.572754	25.846766
444.731201	1294.710327	20324.121094	6204.266602	25.799833
445.087738	1294.159058	20459.091797	6240.325684	25.808420
445.444183	1294.048950	20529.777344	6265.578125	25.845287
445.800598	1288.535278	20607.960938	6284.325195	25.858894
446.156982	1294.710449	20632.111328	6294.359375	25.854815
446.513336	1294.379639	20623.511719	6286.861816	25.828796
446.869598	1296.143921	20639.279297	6290.169434	25.818077
447.225891	1296.254272	20655.710938	6288.846191	25.788904
447.582153	1298.569946	20644.904297	6273.738770	25.716339
447.938354	1298.900757	20658.910156	6282.450684	25.741463
448.294495	1300.113892	20673.464844	6278.700684	25.698118
448.650665	1300.775269	20647.441406	6262.380859	25.645790
449.006775	1304.304199	20650.308594	6258.079590	25.606195
449.362823	1304.634888	20653.947266	6261.277344	25.616634
449.718842	1306.068604	20646.886719	6257.638184	25.601654
450.074860	1303.201416	20633.435547	6255.102051	25.617384
450.430817	1299.121338	20615.460938	6245.177734	25.605558
450.786713	1303.091187	20522.720703	6229.739258	25.633419
451.142578	1302.429443	20414.103516	6201.398926	25.633389
451.498444	1299.672852	20259.611328	6164.567871	25.658813
451.854248	1298.790649	20091.447266	6121.230469	25.661301
452.210022	1296.364624	19887.664063	6068.630859	25.669353
452.565765	1297.687866	19641.093750	6004.231934	25.657961
452.921478	1298.790527	19413.382813	5946.118164	25.655161
453.277191	1300.665039	19194.601563	5883.152832	25.609163
453.632813	1293.717896	19016.619141	5836.176270	25.630447
453.988434	1291.953491	18836.214844	5781.371094	25.589092
454.343964	1291.512451	18654.484375	5730.756348	25.567305
454.699524	1291.512451	18502.417969	5686.647461	25.536917
455.054993	1289.858398	18362.921875	5657.866699	25.584211
455.410400	1292.946045	18256.728516	5621.366211	25.515652
455.765839	1292.505005	18209.533203	5604.053711	25.486444
456.121216	1291.843384	18214.494141	5605.266602	25.489054
456.476593	1290.850952	18258.162109	5619.160645	25.509697
456.831909	1292.505005	18381.447266	5637.135254	25.423637
457.187195	1290.299438	18541.011719	5676.612793	25.426853
457.542450	1292.725586	18748.433594	5722.927246	25.379675
457.897644	1294.049072	18936.558594	5769.352051	25.366589
458.252808	1294.710571	19188.201172	5823.054688	25.307217
458.607971	1291.733398	19381.619141	5869.148438	25.303724
458.963013	1290.079224	19505.677734	5902.229980	25.319788
459.318085	1288.755859	19596.982422	5924.284668	25.319376
459.673096	1285.116821	19666.013672	5949.867676	25.378256
460.028076	1286.440063	19745.630859	5972.914551	25.388298
460.383057	1284.786133	19806.941406	5983.059082	25.365690
460.737976	1287.983887	19834.839844	5989.124023	25.347370
461.092865	1292.725586	19855.791016	5984.493164	25.274744
461.447723	1296.916016	19856.453125	5990.227539	25.287870
461.802551	1298.239258	19856.453125	5982.397461	25.240349
462.157288	1297.467407	19858.546875	5976.222656	25.207344
462.512054	1300.224121	19875.419922	5966.628906	25.121700
462.866760	1298.349487	19855.460938	5955.601563	25.096859
463.221405	1300.224121	19807.162109	5949.977539	25.124380
463.576019	1303.091187	19712.216797	5927.150879	25.118301
463.930603	1302.539917	19614.736328	5898.039063	25.095289
464.285156	1299.121338	19475.904297	5866.170410	25.125727
464.639709	1298.128906	19264.953125	5814.562988	25.137632
464.994171	1297.908203	19023.126953	5751.266602	25.124420
465.348633	1296.584961	18747.886719	5682.897461	25.134588
465.703033	1295.923462	18464.816406	5606.038086	25.104210
466.057434	1298.790649	18214.716797	5542.741211	25.088491
466.411774	1299.562622	18037.949219	5488.157227	25.023886
466.766083	1301.106445	17885.222656	5440.519043	24.960102
467.120331	1305.737793	17779.470703	5403.467773	24.874327
467.474548	1301.106445	17689.046875	5372.591309	24.844395
467.828735	1303.752930	17619.908203	5354.175781	24.824615
468.182922	1304.083740	17569.181641	5331.900879	24.763559
468.537048	1303.752808	17523.308594	5325.063477	24.792976
468.891144	1301.878296	17492.320313	5305.104004	24.725857
469.245178	1301.878174	17462.218750	5294.627930	24.707088
469.599213	1302.539917	17443.248047	5286.137207	24.680437
469.953186	1298.680298	17429.464844	5283.270020	24.701775
470.307129	1296.805664	17448.871094	5288.673340	24.714287
470.661041	1296.364624	17470.375000	5287.239746	24.674616
471.014923	1294.159180	17540.398438	5296.282227	24.634151
471.368713	1291.402344	17554.513672	5299.590332	24.645887
471.722504	1291.733154	17527.056641	5290.327148	24.628977
472.076294	1294.159180	17506.875000	5279.300293	24.580343
472.429993	1294.820679	17450.636719	5266.067871	24.580912
472.783722	1298.680298	17445.673828	5259.561523	24.530148
473.137329	1298.900757	17468.169922	5265.295410	24.530449
473.490967	1297.136353	17501.912109	5258.237793	24.444038
473.844543	1299.893188	17586.824219	5274.447754	24.403337
474.198090	1304.304077	17671.072266	5296.723633	24.393450
474.551605	1302.319214	17800.201172	5323.519531	24.374039
474.905060	1308.384155	17940.027344	5355.939453	24.336473
475.258484	1308.935547	18086.910156	5393.211914	24.343084
475.611877	1306.178711	18251.660156	5432.689941	24.351692
475.965240	1308.273926	18447.281250	5470.292480	24.283894
476.318573	1309.266235	18634.302734	5524.215820	24.328663
476.671844	1309.597168	18851.650391	5577.256836	24.328165
477.025116	1311.912964	19080.025391	5634.599121	24.328335
477.378326	1311.582275	19312.589844	5690.617188	24.326611
477.731506	1315.882690	19547.250000	5754.354492	24.345249
478.084656	1316.323975	19827.232422	5819.525879	24.327290
478.437744	1317.867554	20118.792969	5885.689941	24.295731
478.790833	1320.844971	20460.417969	5961.336426	24.245533
479.143890	1321.506836	20876.585938	6063.228027	24.248030
479.496826	1319.191040	21361.125000	6176.698730	24.236723
479.849823	1318.308838	22011.734375	6321.927734	24.179752
480.202728	1315.441650	22825.765625	6506.193359	24.131445
480.555603	1315.110840	23823.623047	6745.042969	24.123905
480.908478	1315.441772	25161.562500	7084.462891	24.192701
481.261292	1316.985596	26807.597656	7522.464355	24.344173
481.614075	1312.574707	28644.851563	8043.943359	24.627911
481.966797	1312.464355	30482.433594	8589.352539	24.946507
482.319489	1309.045898	32214.595703	9058.230469	25.073763
482.672150	1305.296631	33764.917969	9467.673828	25.146248
483.024780	1306.730103	35107.265625	9806.101563	25.145670
483.377350	1302.870605	36224.988281	10088.620117	25.158125
483.729919	1298.018677	37244.351563	10342.466797	25.160976
484.082428	1299.011108	38192.691406	10570.841797	25.131218
484.434937	1295.702881	39178.636719	10820.498047	25.142706
484.787384	1295.151489	40234.167969	11085.153320	25.141884
485.139771	1292.725586	41388.390625	11367.780273	25.127542
485.492157	1292.835815	42569.632813	11658.680664	25.113007
485.844482	1293.387207	43648.093750	11939.433594	25.135452
486.196777	1294.710449	44636.695313	12190.193359	25.138403
486.549072	1296.033813	45404.960938	12384.934570	25.139811
486.901276	1296.695313	45975.839844	12526.855469	25.135128
487.253448	1298.239258	46288.355469	12603.164063	25.127573
487.605591	1302.208984	46303.132813	12618.382813	25.146538
487.957703	1299.672607	46083.031250	12568.318359	25.162573
488.309784	1299.562378	45554.933594	12435.548828	25.163017
488.661835	1296.033691	44797.800781	12213.239258	25.096004
489.013855	1298.349365	44004.054688	11937.117188	24.911818
489.365814	1299.231567	43266.445313	11670.587891	24.712997
489.717743	1303.532349	42634.578125	11463.828125	24.582722
490.069611	1305.186401	42050.355469	11294.890625	24.517519
490.421509	1304.965820	41502.742188	11161.570313	24.520273
490.773315	1302.981079	41014.894531	11028.911133	24.491213
491.125092	1306.619995	40491.542969	10888.536133	24.453070
491.476807	1304.524780	39882.945313	10741.762695	24.462479
491.828522	1307.612305	39140.375000	10550.549805	24.431042
492.180176	1309.707520	38236.800781	10327.137695	24.419548
492.531830	1309.156128	37205.195313	10064.466797	24.390743
492.883423	1306.178711	36045.132813	9774.451172	24.376879
493.234985	1304.745239	34956.851563	9491.161133	24.326609
493.586487	1304.965698	33935.281250	9224.411133	24.270206
493.937988	1305.296509	33071.078125	9001.219727	24.227087
494.289429	1307.391846	32372.283203	8826.106445	24.203255
494.640869	1306.950562	31790.261719	8693.669922	24.232012
494.992218	1303.752808	31337.705078	8571.487305	24.198395
495.343567	1308.053345	30892.642578	8456.473633	24.162649
495.694855	1309.266479	30385.390625	8324.917969	24.128563
496.046112	1310.589722	29761.578125	8174.175781	24.124245
496.397339	1310.479492	28948.871094	7978.110840	24.124529
496.748535	1314.008179	28032.728516	7740.032715	24.050644
497.099670	1311.030884	27087.691406	7504.380859	24.026968
497.450806	1309.817871	26246.529297	7281.410156	23.946993
497.801880	1306.840576	25569.789063	7095.379395	23.857525
498.152924	1311.582275	24976.521484	6953.569336	23.841124
498.503937	1313.897827	24514.037109	6844.950195	23.840599
498.854889	1314.449219	24176.052734	6757.394531	23.808239
499.205841	1312.243774	23892.431641	6686.819824	23.802177
499.556702	1311.140991	23686.552734	6623.302734	23.741068
499.907562	1307.943115	23485.634766	6566.732910	23.712072
500.258362	1310.148560	23315.595703	6527.586426	23.709757
500.609161	1309.707520	23158.457031	6487.115234	23.696585
500.959900	1308.494507	22990.400391	6450.395020	23.715168
501.310608	1307.171265	22819.037109	6404.080566	23.693478
501.661255	1307.171265	22611.285156	6355.560059	23.696779
502.011902	1309.266602	22391.291016	6297.666504	23.661865
502.362488	1311.913086	22170.857422	6250.801270	23.677555
502.713043	1309.487061	21960.457031	6200.517090	23.684263
503.063568	1309.817871	21776.964844	6150.563965	23.651299
503.414063	1310.369263	21571.416016	6099.617676	23.637714
503.764496	1309.487061	21409.425781	6062.014648	23.644485
504.114899	1307.722656	21250.632813	6019.670410	23.627182
504.465271	1306.950684	21128.449219	5991.550781	23.633936
504.815613	1310.699951	21029.423828	5963.541504	23.596058
505.165894	1314.559570	20931.613281	5950.528809	23.632341
505.516174	1314.890381	20892.464844	5933.437012	23.591007
505.866394	1313.125977	20881.437500	5924.725586	23.566669
506.216583	1311.802856	20873.714844	5921.858398	23.566488
506.566711	1311.802734	20907.458984	5931.341797	23.574301
506.916840	1310.810303	20949.033203	5946.559082	23.605747
507.266907	1311.251343	21002.847656	5959.130371	23.603363
507.616882	1312.464355	21083.457031	5977.545898	23.595587
507.966858	1310.589966	21133.298828	5989.675781	23.604675
508.316803	1311.251587	21188.214844	6004.452148	23.611256
508.666748	1311.030884	21251.291016	6015.479492	23.592716
509.016632	1309.707642	21313.376953	6024.521973	23.569748
509.366486	1309.046021	21402.917969	6048.671387	23.587420
509.716309	1306.840454	21490.474609	6063.778809	23.568295
510.066040	1308.715088	21588.066406	6090.795898	23.581036
510.415771	1308.935669	21689.849609	6117.592285	23.593922
510.765503	1303.863037	21797.253906	6137.551758	23.586573
511.115173	1302.870483	21897.271484	6149.350586	23.532999
511.464752	1302.650024	21996.625000	6169.641113	23.518881
511.814270	1304.965820	22078.666016	6190.372070	23.517267
512.163818	1302.980835	22163.134766	6209.559570	23.521296
512.513306	1300.444580	22225.990234	6224.115723	23.529474
512.862793	1297.797974	22280.796875	6235.143066	23.530218
513.212219	1294.931030	22320.494141	6239.333496	23.516148
513.561646	1295.482178	22372.982422	6247.383301	23.493780
513.911011	1294.710449	22402.203125	6248.596191	23.469797
514.260315	1298.128906	22437.380859	6259.292480	23.468966
514.609558	1299.893188	22506.414063	6275.723145	23.463678
514.958801	1300.665283	22600.585938	6291.382324	23.430683
515.308044	1304.193970	22745.705078	6322.589355	23.405045
515.657227	1303.311890	22949.488281	6370.667969	23.409937
516.006348	1307.171387	23197.712891	6425.363281	23.380838
516.355408	1308.935669	23468.322266	6483.366699	23.350967
516.704529	1306.950684	23702.210938	6534.643066	23.342852
517.053467	1310.810181	23927.384766	6580.406250	23.299709
517.402466	1309.817627	24100.404297	6611.723145	23.263577
517.751404	1310.589600	24227.660156	6642.600586	23.266546
518.100281	1315.882813	24354.253906	6663.331055	23.211052
518.449219	1316.764893	24445.224609	6696.854004	23.261770
518.798035	1314.228638	24541.933594	6720.011230	23.272995
519.146851	1311.471924	24637.761719	6731.810059	23.237034
519.495544	1311.582275	24703.267578	6750.116211	23.249861
519.844299	1311.582031	24792.478516	6755.409180	23.184069
520.192932	1310.589600	24892.824219	6791.799805	23.242962
520.541626	1311.912964	24987.878906	6811.648926	23.229193
520.890198	1313.236084	25089.660156	6836.789551	23.231222
521.238770	1315.993042	25211.404297	6862.704590	23.212454
521.587280	1313.897827	25350.234375	6881.782227	23.164448
521.935791	1315.000488	25468.556641	6908.688477	23.158859
522.284180	1312.905273	25587.652344	6928.978516	23.135456
522.632629	1310.810181	25735.308594	6954.892090	23.108282
522.981018	1313.346436	25881.085938	6992.825684	23.117630
523.329346	1309.376709	26049.583984	7036.383789	23.148581
523.677551	1312.795288	26239.253906	7085.566406	23.159210
524.025818	1310.810303	26502.146484	7136.952148	23.127562
524.374023	1305.848267	26813.333984	7210.062500	23.146986
524.722229	1304.304443	27208.441406	7303.794434	23.160357
525.070374	1302.760376	27733.115234	7429.063965	23.179045
525.418457	1301.878174	28432.574219	7596.677734	23.201763
525.766541	1303.532227	29419.845703	7825.052734	23.194794
526.114563	1305.406860	30673.535156	8137.785645	23.264605
526.462585	1304.414429	32059.880859	8492.642578	23.372196
526.810547	1302.319214	33429.792969	8849.815430	23.492342
527.158447	1303.311523	34649.191406	9169.385742	23.589344
527.506348	1306.509521	35670.535156	9414.851563	23.595436
527.854065	1305.406860	36507.835938	9621.392578	23.623327
528.201904	1305.296631	37179.289063	9784.044922	23.634806
528.549622	1304.965820	37700.105469	9904.792969	23.629053
528.897339	1304.965820	38087.820313	10001.722656	23.643507
529.245056	1305.848022	38392.945313	10071.416016	23.635088
529.592712	1304.965942	38621.097656	10137.689453	23.669987
529.940369	1302.209106	38808.785156	10195.803711	23.712095
530.287903	1298.239258	39002.093750	10228.114258	23.684250
530.635437	1300.003662	39242.042969	10283.692383	23.677401
530.982910	1296.254272	39534.929688	10343.791016	23.660696
531.330383	1298.349487	39778.742188	10411.166992	23.681715
531.677795	1296.364624	39893.535156	10448.439453	23.711777
532.025208	1296.805664	39896.734375	10453.070313	23.720936
532.372498	1296.144043	39700.453125	10407.416992	23.724613
532.719788	1294.379639	39259.023438	10304.752930	23.733589
533.067078	1295.261841	38522.738281	10130.192383	23.732285
533.414307	1297.577637	37499.183594	9876.454102	23.697504
533.761536	1299.782959	36364.812500	9599.449219	23.669353
534.108643	1298.790649	35301.566406	9303.698242	23.541924
534.455811	1298.349487	34402.292969	9065.509766	23.462944
534.802856	1298.459717	33658.390625	8879.370117	23.426842
535.149902	1300.996094	33076.042969	8730.170898	23.380531
535.496887	1300.665161	32572.203125	8610.745117	23.376146
535.843811	1298.790527	32153.277344	8516.682617	23.393332
536.190796	1300.113892	31807.683594	8428.464844	23.365843
536.537659	1300.885742	31473.228516	8352.817383	23.372171
536.884460	1301.216553	31187.402344	8274.193359	23.331772
537.231323	1303.973267	30885.589844	8189.613770	23.276754
537.578064	1306.950806	30573.738281	8119.040039	23.275835
537.924805	1308.274048	30209.177734	8022.883301	23.233215
538.271423	1307.502197	29892.691406	7943.707520	23.215536
538.618164	1308.935547	29722.433594	7901.362305	23.201742
538.964783	1312.795288	29751.984375	7902.244629	23.170313
539.311279	1312.354126	29938.345703	7944.699219	23.168962
539.657776	1313.787720	30217.447266	8005.790039	23.152786
540.004333	1312.023193	30474.714844	8074.600586	23.189138
540.350769	1311.030762	30722.937500	8127.089844	23.174490
540.697144	1310.920410	30910.619141	8170.758301	23.175364
541.043518	1307.501953	31016.039063	8176.712891	23.122009
541.389893	1307.832764	30991.449219	8185.864746	23.171139
541.736145	1312.243652	30870.919922	8160.943359	23.169846
542.082458	1311.030762	30728.115234	8114.297852	23.126926
542.428711	1313.677490	30558.958984	8074.489746	23.117619
542.774902	1311.030884	30414.613281	8035.453125	23.105137
543.121033	1314.559570	30309.851563	8002.480469	23.065540
543.467102	1315.772705	30228.580078	7980.536621	23.051250
543.813171	1314.449341	30173.115234	7969.510254	23.060875
544.159180	1314.118530	30124.265625	7958.372070	23.062199
544.505127	1316.103394	30064.390625	7942.492676	23.049683
544.851135	1315.882813	29946.505859	7917.571289	23.058138
545.197021	1314.228760	29733.347656	7872.801270	23.078028
545.542908	1312.574585	29327.765625	7787.780273	23.113194
545.888733	1313.125977	28734.279297	7645.529785	23.093136
546.234558	1312.574585	27955.421875	7466.116211	23.096411
546.580322	1314.449219	27086.472656	7255.274414	23.051451
546.926025	1314.449219	26190.398438	7038.258789	23.009411
547.271667	1315.331421	25366.664063	6842.304199	22.979902
547.617371	1312.464233	24569.062500	6660.134766	22.994207
547.962952	1309.376709	23836.634766	6487.888184	22.987759
548.308533	1316.875244	23176.984375	6334.278809	22.952326
548.654053	1318.749878	22597.058594	6191.144531	22.898411
548.999573	1316.985596	22105.242188	6072.932129	22.878044
549.344971	1317.426514	21676.394531	5978.097656	22.892471
549.690430	1313.456787	21303.451172	5896.716309	22.927769
550.035767	1313.897827	20995.458984	5820.187012	22.895994
550.381104	1314.338867	20720.439453	5748.068848	22.847092
550.726440	1308.715088	20440.898438	5681.133301	22.853731
551.071655	1308.053345	20193.007813	5618.167480	22.823006
551.416931	1305.737671	19905.525391	5556.635742	22.854551
551.762085	1305.958130	19601.064453	5492.347168	22.882565
552.107178	1303.752686	19293.402344	5412.288574	22.838333
552.452332	1302.539795	18985.742188	5346.566406	22.869310
552.797424	1304.304077	18713.041016	5281.285156	22.844742
553.142395	1299.011108	18451.914063	5214.459961	22.826742
553.487366	1300.113770	18255.408203	5165.057617	22.794909
553.832336	1301.106323	18065.296875	5125.139160	22.810720
554.177185	1299.782959	17916.652344	5089.741699	22.807899
554.522095	1301.326782	17807.810547	5059.967773	22.770695
554.866943	1304.745361	17704.042969	5031.187012	22.723179
555.211731	1306.068604	17624.757813	5005.162598	22.667837
555.556396	1300.885742	17547.566406	4986.747070	22.686857
555.901123	1302.760376	17476.771484	4964.472168	22.639481
556.245789	1303.201538	17389.656250	4939.880859	22.607088
556.590454	1305.406860	17291.294922	4913.084961	22.567894
556.934998	1303.642700	17206.494141	4890.258789	22.553289
557.279541	1307.722656	17093.353516	4862.469727	22.518879
557.624023	1306.620117	16953.750000	4843.171875	22.601919
557.968567	1311.361694	16822.525391	4820.676270	22.624443
558.312988	1313.567017	16687.994141	4790.682129	22.616226
558.657349	1316.213745	16581.359375	4762.783203	22.578032
559.001770	1315.000732	16496.228516	4743.816406	22.585892
559.346069	1317.757568	16420.470703	4724.849121	22.559467
559.690308	1318.970459	16366.767578	4706.433594	22.511356
560.034485	1318.529541	16310.417969	4695.075684	22.522488
560.378723	1321.727173	16279.982422	4693.091309	22.538486
560.722900	1318.970459	16237.306641	4683.497559	22.552965
561.067017	1315.662354	16214.701172	4681.402344	22.590317
561.411072	1315.110962	16186.361328	4672.800781	22.578398
561.755127	1317.206055	16158.242188	4663.096680	22.544859
562.099182	1316.213745	16149.860352	4662.875977	22.561291
562.443115	1316.103394	16154.382813	4666.515625	22.579519
562.787048	1318.198486	16166.845703	4675.227539	22.608315
563.130920	1317.536865	16204.117188	4685.482422	22.624039
563.474792	1314.559570	16275.242188	4703.125977	22.649811
563.818604	1309.817749	16366.658203	4728.488281	22.705097
564.162354	1314.890259	16455.423828	4747.234863	22.669907
564.506042	1312.133545	16567.021484	4776.897949	22.712486
564.849731	1311.582153	16664.722656	4798.180664	22.709351
565.193420	1309.376709	16735.189453	4806.010254	22.667419
565.537048	1304.304077	16789.001953	4817.147949	22.685904
565.880615	1304.965820	16818.666016	4822.331055	22.672640
566.224121	1303.201416	16827.597656	4828.836914	22.710291
566.567627	1303.642578	16828.146484	4832.697266	22.732157
566.911072	1306.509766	16823.736328	4838.981934	22.764843
567.254517	1305.848022	16856.265625	4839.643066	22.724758
567.597839	1307.612305	16881.408203	4839.643066	22.679317
567.941223	1305.847900	16914.271484	4841.849121	22.654442
568.284485	1305.186401	16938.753906	4838.871094	22.603188
568.627808	1306.289063	17000.615234	4855.081055	22.611942
568.970947	1304.855591	17070.197266	4868.424316	22.603815
569.314148	1310.589600	17146.837891	4881.877441	22.551352
569.657288	1314.449341	17232.078125	4895.441406	22.497021
570.000366	1315.772461	17313.900391	4909.004883	22.460331
570.343445	1316.213745	17378.958984	4922.016602	22.448235
570.686462	1319.301392	17399.359375	4924.222656	22.418585
571.029419	1319.521851	17410.937500	4921.025391	22.381519
571.372314	1314.559570	17389.546875	4916.834961	22.409195
571.715210	1314.780029	17336.173828	4904.483887	22.405691
572.058105	1315.441650	17284.566406	4887.942871	22.371302
572.400879	1318.308716	17266.921875	4883.091309	22.351679
572.743713	1316.985474	17250.712891	4878.238770	22.350410
573.086426	1315.882813	17256.779297	4884.634766	22.387398
573.429077	1315.993042	17280.599609	4879.121094	22.318922
573.771790	1313.456787	17288.978516	4875.592285	22.297461
574.114441	1308.825317	17280.158203	4870.079102	22.297787
574.457031	1309.376709	17246.634766	4861.146484	22.285954
574.799561	1306.399414	17192.378906	4846.921387	22.287086
575.142029	1312.684937	17144.080078	4839.533691	22.277559
575.484436	1316.103271	17057.294922	4820.566406	22.263010
575.826904	1311.471802	16940.076172	4796.637207	22.299915
576.169250	1314.890381	16794.847656	4768.518066	22.310318
576.511597	1309.266357	16627.013672	4729.812012	22.330605
576.853943	1303.863037	16422.126953	4687.577148	22.381632
577.196167	1302.980835	16207.315430	4641.924316	22.402498
577.538391	1300.885742	15981.145508	4595.830566	22.444731
577.880554	1295.923462	15774.605469	4552.824219	22.494457
578.222717	1297.798096	15546.340820	4503.753418	22.500233
578.564819	1298.459717	15335.276367	4451.594727	22.463320
578.906860	1297.798096	15149.357422	4405.941895	22.438944
579.248901	1294.489990	14957.482422	4363.486816	22.462114
579.590942	1292.505005	14756.014648	4323.126953	22.509895
579.932861	1296.474854	14573.073242	4280.120117	22.472963
580.274780	1295.813232	14376.127930	4225.866211	22.400478
580.616638	1297.577515	14177.304688	4177.677246	22.361494
580.958496	1300.665161	13971.095703	4136.986816	22.385363
581.300232	1301.988525	13802.267578	4099.273438	22.377779
581.641968	1302.760376	13638.404297	4063.875732	22.383228
581.983704	1300.885620	13495.599609	4025.279785	22.340778
582.325317	1296.915771	13360.736328	3988.118408	22.308046
582.666992	1296.474731	13243.408203	3958.344482	22.280777
583.008606	1298.018555	13132.584961	3929.784180	22.237955
583.350098	1295.482300	13037.419922	3901.885742	22.197388
583.691589	1294.710449	12956.919922	3879.720703	22.165701
584.033081	1295.813232	12896.602539	3861.415527	22.115757
584.374512	1293.276978	12835.179688	3838.478760	22.051838
584.715881	1293.607666	12787.429688	3819.952637	21.980024
585.057190	1291.512451	12741.335938	3799.552002	21.904613
585.398499	1289.086548	12694.800781	3783.893311	21.873306
585.739807	1291.071655	12657.087891	3776.174561	21.864326
586.081055	1291.622803	12628.416992	3761.508301	21.786455
586.422180	1291.622803	12602.281250	3754.230225	21.772449
586.763367	1289.637939	12593.017578	3755.001953	21.810858
587.104431	1289.196777	12593.017578	3754.671143	21.810984
587.445496	1290.189331	12597.098633	3760.846680	21.850863
587.786499	1287.211914	12592.797852	3765.698975	21.922676
588.127502	1283.021484	12621.468750	3765.809570	21.897074
588.468445	1284.234619	12627.754883	3765.919189	21.877552
588.809326	1284.124390	12634.040039	3770.109375	21.903112
589.150208	1287.322266	12639.332031	3777.387695	21.935019
589.491028	1290.740723	12626.099609	3776.615723	21.930271
589.831848	1290.299683	12624.998047	3775.182373	21.922796
590.172546	1291.291992	12613.971680	3776.174561	21.946064
590.513245	1289.307251	12605.810547	3777.938721	21.991169
590.853943	1289.307251	12610.994141	3778.490234	21.985975
591.194458	1290.189331	12623.235352	3776.505127	21.938639
591.535095	1288.645508	12624.227539	3784.885742	22.021280
591.875610	1289.527588	12644.406250	3784.444092	21.972198
592.216125	1291.622803	12648.376953	3791.722412	22.014210
592.556580	1291.071411	12667.343750	3796.464600	22.022970
592.897034	1287.763184	12700.867188	3801.095947	22.021467
593.237366	1287.652954	12718.510742	3810.027832	22.066368
593.577698	1288.535156	12771.110352	3820.613770	22.051487
593.918030	1289.307007	12819.409180	3821.055176	21.957724
594.258301	1292.284302	12873.332031	3836.272705	21.966824
594.598511	1292.063843	12952.838867	3848.403320	21.922550
594.938721	1294.379639	13037.417969	3872.773438	21.956787
595.278809	1299.231567	13118.026367	3895.269287	21.965332
595.618958	1298.790527	13172.391602	3907.509277	21.970745
595.958984	1299.011108	13228.298828	3913.905029	21.919950
596.299011	1302.098633	13252.007813	3915.559082	21.870129
596.638977	1299.011108	13278.141602	3915.228516	21.839792
596.978943	1297.908447	13289.832031	3913.243652	21.809137
597.318848	1300.665161	13285.533203	3903.429199	21.717087
597.658630	1300.113770	13271.526367	3899.900391	21.716625
597.998474	1298.128662	13238.885742	3896.481689	21.760372
598.338257	1297.356934	13184.189453	3891.078125	21.820122
598.677979	1298.680298	13151.439453	3878.507080	21.765621
599.017700	1297.026245	13096.192383	3867.259277	21.783175
599.357361	1300.444580	13052.415039	3860.532471	21.784328
599.696960	1305.737671	13013.156250	3853.806152	21.764561
600.036560	1307.171265	12965.298828	3841.345215	21.737400
600.376038	1303.973389	12926.591797	3834.177734	21.769659
600.715576	1303.422119	12884.029297	3826.017822	21.782930
601.055054	1302.870850	12840.801758	3823.922607	21.850121
601.394409	1301.878174	12806.395508	3814.659668	21.841694
601.733826	1303.752930	12760.414063	3805.947998	21.840527
602.073120	1301.878296	12756.113281	3790.509766	21.726734
602.412415	1297.577515	12743.873047	3780.254395	21.689783
602.751587	1296.915894	12771.220703	3781.136963	21.650299
603.090820	1298.459839	12801.544922	3789.517090	21.655558
603.429993	1293.166748	12848.080078	3801.316650	21.706350
603.769104	1292.063965	12883.807617	3819.401123	21.802906
604.108154	1293.828369	12909.392578	3831.310547	21.845535
604.447205	1296.144165	12946.553711	3844.653320	21.874847
604.786194	1298.349487	12976.877930	3850.166992	21.850504
605.125183	1302.319336	13007.534180	3853.475098	21.795036
605.464111	1300.665039	13028.486328	3863.179199	21.849874
605.802979	1299.562378	13050.870117	3868.803223	21.863445
606.141846	1300.113770	13074.911133	3882.808105	21.934088
606.480652	1297.908325	13114.829102	3889.865723	21.934288
606.819336	1295.702881	13167.648438	3894.938232	21.893930
607.158020	1295.261719	13228.960938	3909.053223	21.902609
607.496765	1300.003296	13292.807617	3918.978027	21.837883
607.835388	1301.216431	13331.182617	3923.057617	21.794254
608.173950	1305.076050	13348.386719	3924.160400	21.747213
608.512512	1303.201416	13325.559570	3911.369141	21.694311
608.851013	1301.216431	13280.789063	3900.782715	21.699993
609.189514	1304.965820	13184.080078	3886.116455	21.728477
609.527893	1305.186279	13073.698242	3866.598145	21.764959
609.866333	1304.414673	12945.449219	3841.345947	21.793005
610.204712	1303.091309	12806.505859	3805.507324	21.753681
610.542969	1304.304321	12678.920898	3776.836670	21.737280
610.881226	1305.627563	12564.238281	3745.519043	21.671339
611.219482	1303.532349	12470.395508	3721.259033	21.650902
611.557678	1301.547363	12383.722656	3702.843018	21.668089
611.895813	1299.011108	12310.279297	3687.074463	21.687450
612.233948	1298.018555	12237.611328	3674.944092	21.727734
612.571960	1302.098633	12167.256836	3653.000000	21.637066
612.910034	1306.619873	12098.998047	3638.443848	21.606211
613.247986	1306.730103	12027.210938	3612.750488	21.510422
613.585938	1308.935547	11942.411133	3592.129883	21.471760
613.923828	1305.737671	11822.654297	3570.295654	21.532528
614.261658	1308.715088	11693.414063	3543.389160	21.518909
614.599487	1306.730103	11548.295898	3514.718750	21.559095
614.937317	1307.943115	11424.239258	3491.119873	21.580791
615.275024	1307.612305	11309.556641	3460.243652	21.522129
615.612732	1306.399414	11213.178711	3442.930908	21.566359
615.950378	1305.627441	11119.227539	3420.766113	21.553139
616.288025	1302.429443	11032.443359	3404.445801	21.603426
616.625549	1303.421997	10971.901367	3385.589355	21.535625
616.963074	1304.414307	10919.523438	3366.622314	21.447577
617.300537	1305.517212	10871.445313	3353.499512	21.409134
617.638000	1305.296631	10823.035156	3344.236572	21.422525
617.975464	1309.266357	10790.614258	3331.996338	21.333782
618.312744	1310.369141	10753.563477	3324.497803	21.328892
618.650024	1309.486938	10720.259766	3309.280518	21.250048
618.987305	1308.274048	10683.428711	3300.127930	21.246092
619.324585	1305.958374	10658.507813	3286.453857	21.175995
619.661743	1302.429565	10644.723633	3277.521973	21.141407
619.998901	1299.783081	10616.824219	3270.574707	21.152548
620.336060	1298.018799	10589.255859	3268.479492	21.207731
620.673096	1295.151611	10567.752930	3258.775635	21.176624
621.010193	1298.459717	10548.125000	3253.482422	21.136147
621.347168	1296.254272	10527.833984	3250.505127	21.169191
621.684082	1297.908447	10493.208984	3243.668213	21.160372
622.020996	1297.356934	10457.591797	3232.751221	21.128218
622.357849	1298.128906	10433.993164	3229.773926	21.143539
622.694641	1299.562500	10412.929688	3217.423340	21.044481
623.031433	1303.863037	10391.095703	3216.320313	21.045542
623.368164	1305.296631	10386.905273	3209.373535	20.966295
623.704895	1306.619873	10376.759766	3212.461426	21.012262
624.041504	1307.832886	10383.927734	3217.754395	21.043428
624.378174	1305.737671	10402.343750	3223.929688	21.086897
624.714783	1311.692505	10445.901367	3234.184570	21.047165
625.051331	1308.715210	10478.101563	3242.234863	21.086685
625.387756	1309.156250	10514.711914	3243.999268	21.018209
625.724304	1309.486938	10534.119141	3248.961670	21.024956
626.060669	1310.589600	10552.314453	3252.049072	21.007545
626.397034	1310.369141	10560.364258	3263.848145	21.118704
626.733337	1310.369141	10564.333984	3263.848145	21.109644
627.069641	1307.502075	10570.950195	3262.083984	21.099939
627.405884	1309.486938	10560.474609	3258.555176	21.068760
627.742126	1308.935669	10550.439453	3255.908447	21.067705
628.078308	1308.053467	10538.639648	3257.121582	21.115324
628.414429	1304.524780	10513.057617	3249.071777	21.116795
628.750488	1304.414551	10493.319336	3244.991699	21.118700
629.086548	1301.767944	10460.126953	3240.360596	21.167467
629.422546	1299.121338	10419.546875	3230.876953	21.180542
629.758545	1297.798096	10365.293945	3225.142822	21.255533
630.094421	1294.710571	10318.648438	3209.373535	21.217600
630.430298	1293.497437	10264.283203	3193.053223	21.174910
630.766113	1293.276855	10200.986328	3174.086426	21.114403
631.101929	1292.615479	10124.567383	3156.552734	21.104477
631.437622	1293.166626	10043.185547	3141.997070	21.129446
631.773376	1288.865967	9950.115234	3120.493652	21.147385
632.109070	1292.725586	9856.714844	3105.716797	21.169937
632.444641	1292.946167	9763.423828	3089.286621	21.207075
632.780273	1293.387329	9687.446289	3081.567139	21.302923
633.115784	1294.489990	9618.195313	3061.497803	21.228621
633.451294	1297.246826	9549.165039	3040.545898	21.125986
633.786682	1299.121338	9481.458008	3033.268311	21.193787
634.122131	1302.650146	9403.604492	3017.609375	21.169842
634.457458	1301.106323	9351.556641	3003.384521	21.145130
634.792847	1303.311768	9290.575195	2994.121338	21.168821
635.128113	1303.201538	9227.279297	2976.918701	21.121918
635.463318	1304.414429	9176.002930	2965.009277	21.096058
635.798584	1300.775513	9127.813477	2947.145020	21.034388
636.133728	1301.657715	9074.221680	2935.346191	21.018656
636.468872	1304.965820	9012.358398	2925.201172	21.021835
636.803955	1305.737793	8963.067383	2912.188965	20.979261
637.139038	1303.201416	8913.554688	2903.808105	21.031961
637.473999	1305.406860	8849.266602	2892.780762	21.041933
637.808899	1305.958374	8783.101563	2882.415283	21.083679
638.143799	1307.391846	8715.173828	2870.836670	21.105436
638.478638	1309.156128	8654.302734	2855.619141	21.054216
638.813538	1309.156006	8589.573242	2839.408936	21.018753
639.148315	1305.516968	8517.233398	2816.141357	20.946808
639.483032	1306.509521	8454.048828	2801.254883	20.912727
639.817749	1303.421875	8386.782227	2783.280029	20.892035
640.152405	1302.098633	8323.044922	2770.819336	20.919127
640.487000	1301.547363	8252.250000	2758.909912	20.967125
640.821594	1301.326782	8187.410156	2744.795166	20.962111
641.156128	1299.121338	8138.338379	2730.239258	20.925173
641.490662	1297.687744	8078.791504	2720.976318	20.989040
641.825134	1298.569946	8018.140625	2706.971680	20.959698
642.159546	1298.459717	7977.560059	2693.628906	20.888578
642.493896	1302.760376	7925.291016	2687.012207	20.902159
642.828186	1301.216553	7883.938477	2681.388428	20.966583
643.162537	1299.562622	7849.974609	2669.809814	20.918488
643.496765	1293.718140	7814.246094	2661.428955	20.975462
643.830994	1292.505005	7780.061523	2655.473877	21.008970
644.165100	1293.387329	7751.059570	2642.351807	20.889330
644.499268	1292.615479	7734.409180	2640.366699	20.921986
644.833313	1291.071655	7720.955566	2636.176270	20.919579
645.167358	1288.535278	7705.075684	2629.670410	20.901218
645.501343	1287.652954	7682.139648	2625.369629	20.919844
645.835327	1287.873535	7662.069824	2617.319824	20.856689
646.169189	1289.638062	7648.727539	2616.878662	20.871552
646.503052	1289.417358	7636.818359	2616.548096	20.908255
646.836914	1293.387207	7626.342285	2612.026855	20.821869
647.170654	1295.041260	7611.676270	2607.946777	20.784889
647.504395	1296.584961	7607.376465	2604.087158	20.718513
647.838074	1296.695435	7601.641602	2601.771484	20.699242
648.171753	1299.562500	7598.995605	2605.740967	20.734858
648.505371	1300.665283	7600.097656	2606.844238	20.734867
648.838928	1301.988525	7603.184570	2606.182373	20.697559
649.172424	1304.635010	7610.131836	2605.961914	20.637976
649.505920	1302.870728	7606.382324	2600.448242	20.584993
649.839294	1308.274048	7598.001465	2599.565918	20.530172
650.172729	1310.920532	7596.127441	2601.881592	20.539675
650.506104	1314.890381	7600.207520	2603.866699	20.507736
650.839355	1317.536987	7584.989746	2602.763916	20.506369
651.172668	1318.308838	7565.913086	2605.190186	20.597996
651.505859	1316.875244	7542.977051	2601.771484	20.637251
651.839111	1319.080688	7527.979980	2599.455811	20.621613
652.172241	1321.175903	7515.959961	2592.177734	20.517290
652.505371	1319.521729	7502.616211	2585.671631	20.477608
652.838379	1320.845093	7475.930176	2585.561279	20.547503
653.171387	1319.632202	7461.924805	2582.363525	20.557981
653.504333	1318.088379	7438.988281	2575.305908	20.539749
653.837280	1318.970459	7418.918945	2570.343750	20.514490
654.170227	1319.080811	7399.731934	2565.491699	20.497984
654.503052	1315.662354	7379.772461	2559.978027	20.519344
654.835876	1315.441895	7365.657715	2553.913086	20.469868
655.168579	1312.243896	7348.234375	2544.870850	20.421288
655.501343	1312.574707	7332.906250	2542.555176	20.430445
655.833984	1310.920532	7323.863770	2544.319336	20.512398
656.166626	1312.464233	7319.673340	2545.752930	20.530144
656.499268	1313.456787	7342.720215	2548.179199	20.478827
656.831787	1312.684937	7376.904785	2554.244141	20.473520
657.164307	1311.912964	7422.889160	2566.374023	20.527998
657.496765	1311.140991	7469.424316	2574.644287	20.517136
657.829224	1311.361572	7518.275391	2583.135498	20.489634
658.161621	1315.110718	7566.463379	2593.831787	20.455111
658.493958	1317.095703	7605.831055	2602.543457	20.440481
658.826233	1310.920410	7635.494629	2612.247314	20.575724
659.158508	1310.479370	7661.739746	2626.251953	20.716717
659.490723	1311.140991	7680.155273	2633.419678	20.761120
659.822876	1310.479492	7699.012695	2636.617676	20.758101
660.154968	1306.399414	7700.555664	2636.066406	20.795034
660.487061	1307.943115	7699.343750	2636.507324	20.786747
660.819153	1303.642700	7693.719727	2637.499756	20.873880
661.151123	1305.406982	7679.934570	2637.499512	20.897118
661.483093	1308.935791	7668.576660	2635.845703	20.864542
661.815002	1310.479614	7652.807129	2630.883301	20.818913
662.146851	1312.354126	7623.915039	2630.662842	20.887205
662.478760	1314.008057	7595.354980	2626.141846	20.889370
662.810486	1311.802612	7558.523926	2613.460449	20.837458
663.142212	1309.597168	7505.482910	2605.961670	20.922989
663.473938	1306.730103	7453.654785	2598.463135	21.014297
663.805603	1306.840332	7388.263184	2584.127930	21.003105
664.137207	1307.060913	7295.854980	2560.970703	20.937601
664.468689	1306.730103	7208.187500	2539.798340	20.894300
664.800293	1304.965820	7131.107910	2518.957031	20.836966
665.131775	1304.083496	7048.623535	2498.446289	20.791269
665.463196	1302.539795	6980.255859	2478.487061	20.711626
665.794617	1304.965820	6923.795410	2465.584717	20.655884
666.125916	1309.156250	6865.902344	2444.192139	20.426270
666.457275	1308.715210	6822.564941	2434.488281	20.417189
666.788574	1305.627563	6776.801270	2425.004639	20.459541
667.119812	1306.730225	6747.910645	2419.160400	20.444647
667.450928	1307.612305	6727.731445	2416.072510	20.450846
667.782104	1311.582153	6713.063965	2409.125488	20.319300
668.113159	1308.384155	6691.230469	2409.235596	20.451103
668.444214	1304.414307	6669.286621	2403.391113	20.484678
668.775208	1303.311523	6650.980469	2401.075439	20.527897
669.106201	1304.414307	6636.645996	2397.546875	20.500471
669.437134	1303.311646	6629.367676	2388.173340	20.368950
669.768005	1302.870605	6622.200195	2388.504395	20.409222
670.098877	1300.444702	6610.951660	2382.659668	20.378752
670.429688	1303.201416	6591.874023	2374.830566	20.262724
670.760437	1299.893311	6567.504395	2373.727783	20.385605
671.091187	1298.349487	6559.564941	2375.161377	20.466980
671.421814	1296.033813	6542.692871	2375.271484	20.569998
671.752441	1295.261963	6521.189941	2375.161377	20.664263
672.083008	1292.946167	6507.185059	2373.727783	20.727505
672.413574	1293.607788	6493.731934	2371.191650	20.722273
672.744080	1296.033813	6466.936035	2362.479980	20.623985
673.074524	1293.828369	6440.581055	2365.237061	20.817177
673.404968	1297.467407	6416.541504	2354.650391	20.651840
673.735352	1301.437256	6396.582520	2353.106689	20.640615
674.065613	1303.752930	6375.410156	2346.048828	20.551388
674.395935	1302.429688	6351.700684	2336.234863	20.474346
674.726196	1301.657837	6320.494141	2332.375244	20.536980
675.056335	1304.414551	6304.504395	2326.089844	20.433138
675.386536	1304.745361	6292.815430	2324.545898	20.444790
675.716614	1306.840454	6281.346680	2320.796631	20.383051
676.046692	1308.274048	6279.913086	2316.716797	20.283909
676.376770	1310.259033	6268.334961	2314.621338	20.257097
676.706726	1312.023315	6257.638184	2311.423340	20.207802
677.036621	1310.038452	6262.820801	2312.856934	20.247580
677.366516	1310.258911	6260.616211	2315.724121	20.310963
677.696411	1314.338989	6274.068359	2315.834473	20.192543
678.026184	1313.787720	6291.381836	2318.370605	20.182096
678.355957	1312.464355	6305.166016	2319.914551	20.178457
678.685669	1312.464355	6330.639160	2322.009766	20.117781
679.015320	1309.817749	6346.187500	2326.090088	20.178669
679.344971	1306.730103	6362.838379	2327.854248	20.195852
679.674561	1305.406860	6371.991211	2334.139648	20.304266
680.004150	1301.547241	6394.928711	2338.440186	20.357655
680.333618	1299.231689	6410.145996	2350.019043	20.559675
680.663086	1299.672729	6424.701660	2353.878418	20.569752
680.992493	1298.680298	6430.987305	2361.156738	20.701731
681.321899	1298.569824	6429.002930	2364.465088	20.775932
681.651184	1298.128784	6429.994629	2365.567627	20.800209
681.980530	1296.585083	6419.849609	2364.354736	20.841587
682.309753	1295.372070	6412.682129	2362.369873	20.850756
682.638977	1290.850952	6387.650391	2362.479980	21.025530
682.968079	1288.314697	6361.735840	2360.164551	21.126768
683.297241	1288.976318	6340.563965	2358.289551	21.167864
683.626343	1288.865845	6318.619629	2357.297119	21.242218
683.955383	1293.056396	6279.803711	2352.003906	21.235235
684.284363	1294.048950	6252.235352	2338.881348	21.072874
684.613281	1292.284546	6209.890137	2332.375488	21.150354
684.942139	1296.144043	6166.111816	2323.663818	21.099108
685.271057	1299.231567	6128.619629	2313.187988	20.995546
685.599792	1301.657593	6088.370117	2306.020508	20.982311
685.928589	1305.737671	6056.721191	2296.316406	20.849972
686.257324	1310.810181	6019.118164	2292.456787	20.849243
686.585999	1310.699951	5994.527344	2282.973389	20.758099
686.914612	1310.810303	5948.323242	2272.607666	20.739510
687.243164	1310.369141	5912.043457	2259.485596	20.625460
687.571777	1307.281494	5879.072754	2246.693604	20.548010
687.900269	1308.825317	5843.344727	2235.886963	20.444540
688.228699	1309.707520	5811.365234	2222.654541	20.280241
688.557129	1305.186401	5783.466309	2213.612061	20.285147
688.885498	1306.950806	5757.552246	2203.577148	20.146183
689.213867	1310.920532	5727.668457	2194.093750	19.996006
689.542114	1311.140991	5706.827148	2184.279541	19.863533
689.870361	1310.369141	5686.095703	2172.590576	19.704647
690.198608	1305.737671	5651.470215	2168.951416	19.863482
690.526794	1305.296631	5620.042969	2162.335205	19.863012
690.854858	1302.870605	5598.098633	2156.931885	19.883957
691.182922	1300.775513	5560.605957	2157.262939	20.106138
691.510986	1300.224121	5533.919922	2145.794434	19.972391
691.838928	1297.908447	5499.404785	2131.128418	19.831507
692.166931	1297.687866	5463.015137	2121.093506	19.768091
692.494812	1296.695557	5415.708496	2113.263916	19.824371
692.822632	1295.702881	5372.591309	2101.795654	19.772255
693.150452	1293.056396	5328.923828	2094.076416	19.847530
693.478149	1296.144043	5291.430664	2083.931396	19.717918
693.805908	1294.379639	5266.067871	2077.314941	19.712910
694.133606	1294.710449	5228.244141	2073.786377	19.806005
694.461243	1296.585083	5198.580078	2068.934326	19.793701
694.788818	1295.261841	5180.605957	2063.090088	19.762167
695.116333	1293.938477	5170.019531	2068.162842	19.974411
695.443848	1295.261719	5164.505371	2065.626221	19.909950
695.771301	1292.284302	5178.620605	2074.447998	20.125990
696.098755	1289.748047	5203.322266	2083.380127	20.278957
696.426147	1293.166626	5236.514160	2095.068848	20.335569
696.753418	1293.717896	5275.661133	2113.374023	20.584324
697.080688	1297.687744	5332.451660	2121.644531	20.421438
697.407898	1298.569946	5386.485352	2129.914795	20.336645
697.735107	1301.768066	5424.308594	2135.759277	20.230030
698.062317	1303.201660	5465.219727	2145.353271	20.234213
698.389404	1306.289307	5499.735352	2155.939453	20.261381
698.716492	1305.407104	5531.273438	2168.730957	20.429512
699.043457	1303.863281	5551.122559	2177.442627	20.568071
699.370483	1305.406982	5568.545410	2181.191650	20.543190
699.697388	1309.597412	5572.294434	2181.632813	20.457361
700.024292	1313.677490	5568.766113	2177.993896	20.312534
700.351135	1314.008423	5560.936523	2171.156738	20.182783
700.677917	1318.860352	5549.137695	2166.084229	20.027620
701.004639	1319.191162	5533.699219	2162.445068	20.008360
701.331299	1319.963013	5514.731934	2154.836426	19.902727
701.658020	1321.286133	5491.244629	2152.741211	19.939169
701.984619	1319.963013	5453.972168	2146.014648	19.981852
702.311218	1319.742432	5411.186523	2135.979980	19.949865
702.637756	1319.191040	5359.027344	2121.534180	19.860783
702.964233	1319.411621	5287.901855	2105.986084	19.820496
703.290649	1316.213867	5216.665527	2085.695801	19.728022
703.617065	1319.080933	5132.086914	2062.428223	19.495047
703.943481	1320.624756	5047.287109	2042.799683	19.378599
704.269775	1320.735107	4959.289551	2024.384277	19.338701
704.596008	1319.522095	4881.105957	2006.630615	19.292217
704.922241	1317.095947	4814.500977	1987.884155	19.179598
705.248474	1316.323975	4747.565430	1975.974731	19.224842
705.574585	1315.882935	4687.687500	1962.410889	19.174538
705.900696	1316.103271	4637.072266	1950.060303	19.089520
706.226746	1314.559570	4597.925781	1939.915161	19.046173
706.552734	1311.692505	4570.799316	1935.945557	19.154114
706.878723	1306.068604	4551.612305	1929.108398	19.196777
707.204651	1302.649902	4529.888672	1926.020874	19.315924
707.530518	1301.547363	4516.986328	1919.404785	19.215336
707.856323	1302.098633	4510.700684	1915.765625	19.125681
708.182068	1301.988403	4514.008789	1915.214233	19.091591
708.507813	1299.341797	4509.597656	1913.339600	19.126133
708.833496	1301.106201	4522.278809	1912.347290	18.975733
709.159180	1301.878052	4538.268066	1918.301880	19.046648
709.484802	1303.091187	4550.949219	1919.735474	18.986185
709.810303	1303.752563	4569.696289	1920.948486	18.897934
710.135864	1306.178711	4579.620117	1925.138916	18.908546
710.461304	1306.288818	4591.309570	1923.595093	18.791548
710.786743	1305.627319	4600.352051	1923.484741	18.752932
711.112122	1305.847900	4608.181152	1923.704956	18.709713
711.437500	1305.406860	4615.128418	1925.910522	18.747911
711.762817	1308.825195	4614.136230	1927.013184	18.702869
712.088013	1307.171143	4618.546875	1922.271729	18.575378
712.413269	1309.266357	4613.364258	1918.301880	18.432732
712.738403	1312.133423	4616.562012	1916.868530	18.300747
713.063538	1313.125977	4610.276855	1914.111572	18.227421
713.388611	1312.243652	4604.983398	1912.457642	18.228407
713.713623	1309.817749	4597.154297	1915.324585	18.419374
714.038574	1312.243652	4596.713379	1920.176392	18.509312
714.363525	1310.258789	4590.096680	1924.366577	18.723724
714.688477	1305.847900	4579.951660	1921.830322	18.813772
715.013306	1306.730103	4555.581543	1919.955933	18.875156
715.338135	1307.391724	4534.299316	1915.986084	18.859987
715.662842	1306.068604	4507.282227	1910.582642	18.883902
715.987549	1306.950684	4475.633789	1903.966309	18.841127
716.312195	1308.274048	4442.441406	1899.334961	18.858625
716.636841	1303.863037	4403.735840	1892.277588	18.981894
716.961426	1300.003540	4372.087891	1878.383179	18.826944
717.285950	1297.687744	4341.210938	1873.641602	18.923920
717.610474	1293.497437	4300.630371	1867.135376	19.075911
717.934937	1293.056396	4265.012695	1863.937500	19.208933
718.259277	1292.615234	4230.827637	1858.754639	19.268158
718.583679	1291.291992	4202.046875	1849.381470	19.173359
718.908020	1288.535156	4169.406738	1842.765015	19.238270
719.232239	1286.881104	4142.720703	1837.802856	19.291061
719.556519	1287.542725	4115.262695	1832.730469	19.280117
719.880737	1287.322144	4084.717285	1830.745728	19.426058
720.204834	1284.344727	4055.274902	1825.783447	19.539963
720.528931	1288.755615	4025.060303	1819.497803	19.396311
720.852966	1286.440063	3988.890625	1810.675781	19.398531
721.176941	1288.424805	3950.295410	1801.633545	19.280003
721.500916	1289.307129	3919.970703	1793.914673	19.181759
721.824829	1284.675537	3898.798096	1789.172607	19.298906
722.148743	1284.785767	3867.370117	1781.453735	19.231432
722.472534	1288.535034	3844.874268	1774.286133	19.001823
722.796326	1289.417236	3823.701660	1766.897705	18.840839
723.119995	1288.424805	3799.882813	1756.862915	18.652039
723.443665	1293.056396	3787.201172	1753.885620	18.476442
723.767334	1294.820801	3769.006348	1756.642334	18.665598
724.090942	1294.600220	3758.751221	1753.665039	18.629736
724.414551	1299.231689	3752.686035	1750.246704	18.382858
724.737976	1300.223999	3747.503418	1741.424683	18.028212
725.061462	1302.539795	3747.393555	1739.329590	17.865683
725.384888	1302.870728	3747.834717	1739.660400	17.864872
725.708252	1303.311768	3747.503662	1745.945923	18.109632
726.031616	1303.863159	3752.465820	1747.489746	18.117542
726.354858	1302.981079	3753.017090	1751.018555	18.286974
726.678162	1301.878296	3762.721436	1746.607544	18.072229
727.001404	1305.517334	3766.580811	1745.504883	17.877943
727.324463	1307.281860	3771.102051	1745.284180	17.777365
727.647583	1309.928345	3778.269775	1744.512329	17.606316
727.970642	1306.179077	3790.069092	1747.269165	17.758036
728.293701	1308.715210	3792.384766	1752.562134	17.870611
728.616699	1309.707642	3797.126221	1753.885620	17.856987
728.939575	1309.928223	3815.431152	1755.980713	17.802912
729.262512	1305.958252	3825.686768	1760.942871	18.056890
729.585266	1305.627441	3834.950195	1766.567017	18.223833
729.908142	1304.193848	3854.909180	1773.845093	18.412531
730.230896	1302.098633	3868.252197	1778.145630	18.550995
730.553467	1304.193848	3887.329346	1779.689331	18.407686
730.876160	1301.106201	3901.333740	1786.747070	18.676861
731.198792	1296.695313	3912.360840	1792.811768	18.967121
731.521362	1294.159058	3927.357910	1795.678955	19.046034
731.843872	1293.056152	3925.152832	1792.922241	18.991175
732.166321	1289.968506	3925.152832	1792.701660	19.077723
732.488770	1291.732910	3926.476074	1787.408325	18.813046
732.811157	1289.196655	3919.639404	1785.092651	18.852186
733.133484	1288.755615	3912.250732	1779.909790	18.721369
733.455811	1290.299438	3894.386475	1781.343384	18.856665
733.778015	1290.961182	3877.845947	1780.350952	18.918112
734.100281	1289.527710	3869.685547	1777.042603	18.894772
734.422424	1286.660522	3857.666016	1775.388550	19.009218
734.744507	1290.189331	3842.668945	1766.236206	18.650370
735.066589	1288.645508	3832.192627	1759.840454	18.525112
735.388611	1291.512695	3820.062988	1755.980713	18.368946
735.710571	1290.630493	3804.293945	1755.760254	18.504057
736.032532	1292.505005	3794.038574	1750.908325	18.324890
736.354431	1292.284424	3781.467529	1750.908325	18.424675
736.676270	1293.276733	3765.367920	1748.371826	18.409315
736.998108	1298.900879	3751.914551	1741.093506	18.026505
737.319824	1297.687866	3736.807373	1741.645142	18.201538
737.641541	1301.547485	3717.729980	1736.572754	18.004652
737.963135	1302.209106	3696.888672	1732.161865	17.954500
738.284790	1303.311890	3671.305176	1728.412598	17.951941
738.606323	1303.532227	3660.498047	1726.868652	17.961077
738.927856	1305.517334	3650.022217	1723.009155	17.807249
739.249390	1307.391968	3639.436279	1716.282349	17.533558
739.570740	1311.913086	3628.740234	1710.438477	17.201344
739.892212	1310.810303	3617.933350	1710.438110	17.321478
740.213562	1308.604858	3610.214355	1708.343018	17.367767
740.534790	1310.479614	3603.818359	1707.130005	17.295761
740.856079	1306.730347	3588.931641	1702.608765	17.346342
741.177246	1304.304443	3578.455322	1702.498535	17.509573
741.498413	1306.399536	3569.964600	1702.277954	17.489157
741.819580	1307.943237	3562.245605	1697.756714	17.291979
742.140625	1309.707642	3551.989990	1694.117798	17.143702
742.461670	1307.722534	3536.992920	1690.809570	17.184412
742.782654	1306.950562	3515.489990	1687.060425	17.210915
743.103577	1309.155884	3498.728760	1678.238647	16.856382
743.424438	1309.707275	3477.335938	1670.960571	16.665829
743.745300	1305.847900	3448.003418	1669.085693	16.956650
744.066101	1304.745117	3421.758545	1658.279053	16.699656
744.386902	1303.421875	3399.924561	1653.427124	16.694719
744.707581	1302.649902	3381.399170	1650.560059	16.736513
745.028198	1302.429443	3367.504395	1651.773193	16.916759
745.348816	1299.562378	3355.815430	1648.906006	16.989332
745.669373	1297.357056	3337.620605	1648.795898	17.225168
745.989929	1295.261963	3316.558350	1647.362305	17.419531
746.310364	1293.497437	3301.892090	1647.031494	17.602818
746.630798	1294.159180	3289.431641	1643.613037	17.514091
746.951172	1290.409912	3286.343750	1642.289795	17.629837
747.271545	1286.109375	3276.529297	1646.038818	18.083092
747.591858	1290.299683	3275.537109	1645.928589	17.913671
747.912109	1295.261841	3266.936035	1643.281982	17.650997
748.232300	1291.512695	3258.555176	1644.826050	17.961653
748.552429	1294.159180	3245.542725	1643.723389	17.913660
748.872559	1289.637817	3235.066895	1643.612915	18.195219
749.192627	1293.387329	3235.287598	1641.517700	17.927305
749.512695	1293.166626	3236.941162	1641.627930	17.927044
749.832642	1293.938477	3234.956543	1644.495117	18.060452
750.152588	1295.592651	3234.625732	1646.149414	18.078947
750.472473	1295.592651	3243.116455	1647.693115	18.079391
750.792358	1297.246704	3246.204346	1650.560303	18.128336
751.112122	1298.570068	3241.242188	1651.001343	18.141573
751.431824	1300.775391	3249.181641	1649.567749	17.901419
751.751587	1300.334351	3246.093750	1643.943848	17.659403
752.071228	1299.452148	3243.447510	1644.274536	17.737820
752.390869	1300.665161	3240.911133	1643.943604	17.692522
752.710327	1303.752808	3238.595215	1644.715576	17.622250
753.029846	1303.201416	3238.595215	1644.825928	17.651421
753.349304	1304.524780	3236.610596	1646.149170	17.681637
753.668762	1305.186279	3230.545654	1643.281982	17.560135
753.988098	1304.965820	3223.157471	1633.798706	17.142859
754.307434	1304.193848	3213.674072	1637.658081	17.463614
754.626770	1303.862915	3210.917480	1635.452759	17.387539
754.946045	1302.760376	3209.262939	1630.931519	17.213255
755.265259	1299.011108	3208.050293	1631.151978	17.398327
755.584351	1300.885742	3207.277832	1628.946411	17.208458
755.903442	1299.562500	3202.756592	1625.969360	17.150476
756.222534	1298.459839	3192.391357	1624.535767	17.216881
756.541565	1296.033813	3191.288330	1620.565796	17.123398
756.860535	1295.813354	3191.178223	1619.352905	17.070040
757.179443	1294.820923	3185.995605	1617.478271	17.061213
757.498291	1297.467529	3183.789795	1615.493530	16.859579
757.817139	1300.665405	3188.752197	1617.147339	16.762043
758.135925	1302.540039	3184.892822	1617.698853	16.742813
758.454651	1301.657837	3183.569092	1619.353027	16.881517
758.773376	1305.958374	3179.820313	1620.566040	16.789267
759.092041	1306.178955	3185.002930	1618.911865	16.645142
759.410645	1302.540039	3189.193359	1619.463135	16.798162
759.729187	1301.547485	3180.482178	1616.044800	16.738066
760.047607	1301.768188	3185.223633	1617.809204	16.779850
760.366089	1305.406982	3187.319092	1616.706421	16.541656
760.684509	1305.186523	3201.543945	1615.272827	16.351681
761.002869	1305.627563	3227.237305	1616.485840	16.176971
761.321228	1304.193970	3265.833008	1626.410522	16.425884
761.639465	1306.840576	3313.470703	1637.437744	16.475243
761.957642	1306.730225	3365.739990	1650.119019	16.677376
762.275879	1304.965820	3409.297607	1659.712769	16.857939
762.593994	1303.752930	3447.561768	1667.542236	16.969297
762.912109	1302.539673	3483.180176	1677.356445	17.188379
763.230103	1305.296387	3503.359863	1679.010376	17.001965
763.548157	1302.649780	3515.710449	1681.436157	17.115952
763.866150	1302.980713	3529.274170	1684.303589	17.128149
764.184021	1301.326660	3539.860596	1687.170532	17.236454
764.501892	1298.018555	3546.587158	1688.052979	17.345898
764.819702	1295.923340	3544.491699	1687.722046	17.424362
765.137451	1296.474731	3548.792725	1689.596680	17.454105
765.455200	1292.504883	3554.416748	1685.957642	17.394699
765.772888	1293.607666	3544.161377	1685.737183	17.423691
766.090515	1293.828247	3534.347168	1684.524170	17.437742
766.408081	1295.371948	3534.897949	1684.855103	17.391321
766.725586	1293.938477	3525.415283	1676.143433	17.127893
767.043091	1294.269287	3515.600342	1673.938110	17.091951
767.360535	1294.820679	3500.824463	1678.679688	17.400650
767.677917	1293.497437	3468.404053	1671.181030	17.365507
767.995239	1291.512573	3422.089355	1661.035889	17.343817
768.312500	1292.174194	3362.983643	1645.818237	17.077574
768.629822	1290.299561	3302.553467	1631.923950	16.977201
768.947021	1290.520142	3246.204346	1617.698853	16.729630
769.264160	1294.379639	3190.406738	1607.112549	16.494116
769.581299	1294.379639	3148.392822	1595.093018	16.219593
769.898376	1292.505005	3111.230713	1588.807251	16.291750
770.215393	1292.174072	3077.928467	1582.191040	16.240585
770.532349	1292.504883	3049.698975	1575.354126	16.096642
770.849304	1291.512451	3019.925293	1569.399536	16.077587
771.166199	1290.740601	2998.863281	1556.718140	15.571337
771.483032	1287.542725	2981.770752	1553.409912	15.692527
771.799866	1288.645508	2961.260010	1552.417480	15.770040
772.116577	1291.622803	2940.528564	1552.527588	15.822905
772.433350	1293.938599	2928.509033	1552.527588	15.819997
772.749939	1294.931030	2919.025391	1552.527588	15.860935
773.066589	1294.048828	2905.131348	1548.668091	15.804235
773.383057	1297.357178	2888.811035	1544.588135	15.534912
773.699646	1298.680420	2876.460205	1540.618164	15.334063
774.016113	1300.885864	2860.029785	1533.340210	14.909101
774.332520	1303.201660	2851.208008	1530.252563	14.667311
774.648804	1308.494751	2842.055176	1520.769165	13.841933
774.965149	1307.943359	2831.689697	1523.305298	14.133714
775.281433	1313.126099	2820.993164	1521.430786	13.814526
775.597656	1313.677490	2814.156494	1522.864502	13.941349
775.913879	1312.905640	2807.540283	1521.982178	13.988471
776.229980	1314.449463	2797.836426	1518.674072	13.767453
776.546082	1312.023315	2787.691162	1516.248169	13.839486
776.862122	1315.882935	2780.854248	1517.681641	13.774925
777.178162	1317.978149	2771.812012	1517.681641	13.736335
777.494141	1315.331421	2767.621582	1516.137695	13.826870
777.809998	1314.780151	2755.822266	1518.233032	14.118455
778.125854	1316.544556	2750.309082	1511.727051	13.613288
778.441711	1317.426758	2744.133789	1511.947510	13.634247
778.757446	1316.323975	2737.847900	1506.875000	13.404700
779.073181	1313.567017	2733.547363	1500.038086	13.131948
779.388855	1316.323853	2727.702637	1492.318970	12.469729
779.704468	1315.552124	2723.623047	1492.649780	12.577325
780.020020	1310.258911	2717.888672	1492.318970	12.933803
780.335571	1311.251343	2708.736328	1491.547119	12.901446
780.651062	1310.479492	2703.222168	1488.790283	12.802853
780.966553	1307.722656	2697.708740	1483.166382	12.621977
781.281860	1301.657471	2686.020020	1490.885376	13.668956
781.597290	1301.767944	2678.631592	1488.790161	13.583205
781.912476	1299.231812	2675.102783	1483.056030	13.360571
782.227722	1300.775635	2666.060547	1482.173828	13.286471
782.542908	1299.011108	2654.923096	1480.740234	13.402723
782.858093	1299.452148	2642.682373	1478.424438	13.324022
783.173218	1302.539917	2640.256836	1475.226563	12.909058
783.488281	1300.003662	2639.595215	1469.823242	12.676967
783.803345	1299.562622	2630.883789	1466.515015	12.540355
784.118225	1301.547485	2618.202148	1464.971313	12.412049
784.433167	1302.208862	2609.821533	1465.081543	12.455729
784.748047	1303.532227	2603.425537	1470.595093	12.852044
785.062866	1306.619995	2590.193115	1461.993896	12.104795
785.377686	1305.958374	2579.276123	1461.332275	12.202289
785.692444	1306.619995	2568.689697	1460.781006	12.214936
786.007141	1305.517334	2564.830078	1463.317139	12.530629
786.321716	1308.825439	2558.765137	1464.309692	12.439341
786.636353	1311.141113	2562.073242	1463.206909	12.156199
786.950928	1309.487061	2567.256104	1462.765869	12.186563
787.265442	1308.715088	2574.313721	1468.279663	12.607834
787.579834	1304.414551	2570.674561	1471.587769	13.202124
787.894226	1308.163696	2576.850098	1469.382202	12.707515
788.208618	1304.193970	2578.834961	1468.169312	12.864433
788.522949	1305.517212	2574.424072	1467.948730	12.800901
788.837219	1302.870605	2574.424072	1466.184326	12.843637
789.151367	1303.752808	2579.937500	1464.750977	12.615585
789.465515	1301.657593	2579.937744	1464.971313	12.776051
789.779602	1299.893188	2571.005615	1466.294556	13.091003
790.093689	1303.973267	2559.427002	1463.868530	12.736053
790.407776	1300.554688	2555.016113	1465.743164	13.168079
790.721741	1299.672607	2549.943848	1464.971313	13.221027
791.035645	1298.018555	2541.562988	1460.560425	13.070853
791.349548	1296.695190	2534.615967	1457.583008	12.996616
791.663391	1293.938477	2536.270020	1453.944092	12.879461
791.977173	1296.805664	2532.630859	1451.738647	12.536804
792.290894	1296.254150	2521.714111	1449.643433	12.516874
792.604614	1298.790771	2510.466064	1443.799072	11.967587
792.918274	1299.231812	2501.754639	1439.608643	11.673528
793.231812	1298.680542	2485.764893	1442.806396	12.141164
793.545410	1298.459839	2473.083496	1445.122070	12.485891
793.858948	1300.113892	2456.983398	1440.049683	12.096074
794.172363	1304.524780	2451.690186	1441.593506	11.948471
794.485840	1302.209106	2442.427490	1439.939453	12.079295
794.799194	1308.494629	2439.449951	1436.300415	11.300693
795.112488	1307.171265	2438.126953	1441.373047	11.866228
795.425781	1309.156128	2435.370117	1440.270264	11.642027
795.738953	1305.958374	2428.533203	1440.931885	12.023564
796.052185	1307.061035	2428.753906	1438.285522	11.698790
796.365234	1307.171265	2428.754150	1438.505981	11.709764
796.678284	1305.627441	2429.966797	1438.726440	11.837974
796.991333	1308.825317	2427.540771	1434.536133	11.237068
797.304382	1309.927979	2429.305176	1436.190186	11.279684
797.617310	1312.023193	2428.974121	1438.395630	11.314054
797.930115	1312.574463	2422.468262	1433.653809	10.909093
798.242981	1314.890259	2417.726318	1437.182617	11.088898
798.555786	1313.236084	2413.425781	1434.536133	11.025375
798.868530	1317.205933	2412.764160	1431.668945	10.447917
799.181213	1313.346436	2411.110352	1432.771729	10.878960
799.493896	1313.125854	2406.479004	1432.551270	10.922858
799.806519	1316.985474	2406.037842	1425.493774	9.963552
800.119080	1318.198608	2402.068115	1419.869873	9.380397
800.431580	1315.000610	2392.033203	1415.017822	9.286368
800.744080	1313.897949	2382.329346	1412.481567	9.226949
801.056458	1315.000732	2373.948486	1405.755005	8.570231
801.368835	1312.133667	2360.054199	1404.983032	8.860344
801.681152	1314.890381	2348.144531	1400.351685	8.271083
801.993408	1316.765015	2338.440430	1397.374268	7.889908
802.305664	1319.962891	2329.397949	1395.499512	7.483059
802.617798	1320.845093	2318.812012	1393.955688	7.325954
802.929993	1320.403809	2310.431396	1391.860596	7.217656
803.242065	1321.396240	2301.058105	1391.860596	7.192722
803.554016	1318.418945	2295.985596	1391.088623	7.433731
803.865967	1318.639404	2289.479492	1389.213867	7.269422
804.177979	1316.103271	2288.045898	1385.795532	7.170409
804.489807	1314.890381	2288.045654	1384.031006	7.104789
804.801697	1311.251343	2286.281494	1384.251587	7.486973
805.113464	1310.369263	2280.547363	1386.898071	7.888120
805.425232	1306.730225	2282.311523	1388.662598	8.398314
805.736938	1305.627563	2277.900879	1390.647461	8.744444
806.048584	1300.554932	2273.269287	1388.552246	9.046573
806.360168	1297.467285	2267.535400	1391.419434	9.685108
806.671753	1296.915771	2257.280029	1389.434570	9.633719
806.983276	1298.790527	2257.831299	1392.632568	9.784989
807.294739	1300.223999	2252.979248	1389.103760	9.328709
807.606140	1301.437012	2248.568359	1392.191650	9.582054
807.917542	1301.326782	2247.906738	1392.522461	9.634229
808.228760	1301.216431	2242.393311	1389.986084	9.431771
808.540100	1300.223999	2231.917236	1388.662720	9.492257
808.851318	1297.026123	2225.080322	1388.883301	9.897824
809.162476	1297.356934	2217.361328	1392.632568	10.355998
809.473633	1297.246704	2212.840088	1389.214111	10.044569
809.784668	1291.071411	2206.113525	1390.206543	10.833942
810.095703	1295.813110	2194.975830	1390.978394	10.583767
810.406738	1298.570068	2186.594971	1386.016235	9.847265
810.717590	1302.870605	2174.465332	1384.803223	9.400311
811.028503	1303.311890	2163.548096	1384.803101	9.473121
811.339294	1303.201416	2153.733887	1380.502563	9.088559
811.650085	1302.209106	2148.661377	1377.415039	8.884840
811.960876	1299.231812	2137.082764	1377.084229	9.291917
812.271545	1301.988525	2129.143311	1373.886230	8.692170
812.582153	1309.045898	2126.496582	1375.430054	8.120876
812.892761	1307.281616	2116.902832	1372.011597	7.995094
813.203308	1302.980957	2115.579590	1371.349976	8.413627
813.513855	1303.973511	2111.058594	1369.695923	8.143183
813.824280	1303.311768	2107.530029	1370.136963	8.309336
814.134705	1301.988525	2105.765869	1367.049438	8.094395
814.445068	1301.437012	2096.943604	1367.931519	8.358763
814.755371	1301.437012	2098.156738	1367.159668	8.249156
815.065613	1299.562378	2102.016113	1368.262329	8.561235
815.375854	1302.980835	2101.354492	1367.049316	8.024874
815.686035	1302.208984	2104.111328	1363.300049	7.618268
815.996155	1303.311646	2104.442139	1366.938965	7.942192
816.306152	1308.053467	2105.544922	1363.741089	6.982849
816.616211	1306.840454	2114.036133	1362.417725	6.885229
816.926208	1303.091187	2117.675049	1367.269775	7.878696
817.236145	1303.752930	2126.166016	1368.924072	7.924381
817.546021	1304.524780	2139.619141	1370.357544	7.883273
817.855774	1305.186401	2151.638916	1373.665649	8.090146
818.165588	1305.958252	2168.951660	1376.753174	8.203414
818.475281	1309.928101	2192.218750	1381.936035	8.161475
818.784973	1305.406860	2222.102783	1386.236572	8.817505
819.094604	1299.231689	2250.112061	1390.206543	9.567434
819.404175	1298.790405	2295.434082	1400.131104	10.168198
819.713684	1298.680298	2358.620117	1412.371338	10.726179
820.023254	1297.577515	2484.661865	1440.931885	12.076174
820.332642	1295.923340	2704.766113	1487.246460	13.580161
820.642090	1295.923584	2994.231445	1548.337402	14.862665
820.951416	1296.144043	3298.804688	1613.618896	15.852654
821.260681	1292.725586	3552.982910	1669.306396	16.660971
821.569946	1293.497559	3751.914551	1708.122437	16.865522
821.879150	1294.159180	3915.779785	1741.865845	17.077477
822.188293	1295.592773	4045.460449	1774.837402	17.427916
822.497437	1298.018799	4152.204102	1796.230103	17.455465
822.806458	1298.018799	4247.811035	1819.938599	17.693443
823.115479	1298.790649	4328.861328	1835.156250	17.701422
823.424438	1300.334473	4405.721191	1846.514282	17.588142
823.733337	1295.813232	4468.245605	1862.834839	17.873402
824.042236	1296.144043	4520.073730	1874.854370	17.950464
824.351013	1295.372192	4567.932129	1881.470825	17.909485
824.659790	1297.467407	4607.079102	1893.269897	18.002186
824.968445	1297.908447	4665.522949	1908.046631	18.117815
825.277100	1301.106445	4735.656250	1921.941040	18.076157
825.585693	1304.635010	4822.220703	1939.364258	18.044456
825.894287	1309.376709	4879.562012	1950.501831	17.957754
826.202820	1314.890381	4901.395996	1952.817383	17.786867
826.511292	1313.787720	4834.019531	1933.188843	17.595463
826.819702	1316.213745	4662.435059	1895.255005	17.304333
827.128113	1320.073242	4409.911133	1841.331665	16.870090
827.436401	1319.962769	4141.618164	1779.468750	16.284979
827.744751	1321.506592	3911.148438	1730.287231	15.785219
828.052917	1322.057983	3731.293945	1694.228027	15.447639
828.361145	1319.521729	3583.308105	1662.690063	15.159042
828.669312	1320.183350	3465.977295	1631.483032	14.507436
828.977356	1315.993164	3366.732178	1607.884644	14.233478
829.285400	1312.464233	3275.867920	1585.278687	13.894975
829.593384	1310.920532	3197.353516	1569.950684	13.731215
829.901306	1307.833008	3122.257813	1554.622803	13.601544
830.209167	1312.133667	3057.858887	1533.119629	12.658691
830.517029	1312.795288	2998.532471	1520.879517	12.343812
830.824829	1314.669922	2946.704346	1513.491211	12.182420
831.132568	1311.802856	2898.073975	1502.133301	11.998608
831.440247	1308.935791	2841.724609	1489.451904	11.776972
831.747925	1308.384399	2783.059814	1477.652710	11.478344
832.055481	1305.848022	2716.786133	1463.206909	11.152784
832.363037	1306.178833	2668.706787	1455.928955	10.990609
832.670532	1304.635010	2628.898438	1450.635864	11.025062
832.977966	1306.178833	2611.034180	1450.084595	11.028484
833.285400	1308.825317	2591.847168	1446.224976	10.709066
833.592712	1306.840454	2572.659668	1444.460571	10.872020
833.900085	1307.391724	2552.700195	1442.475708	10.847431
834.207275	1302.760254	2539.798096	1437.734009	10.911045
834.514526	1301.767822	2527.668213	1434.756714	10.848263
834.821716	1302.760376	2517.964111	1434.756592	10.862064
835.128784	1303.091187	2508.921631	1431.779419	10.672167
835.435852	1306.399292	2503.297852	1431.889648	10.484628
835.742798	1308.163696	2494.696533	1428.581421	10.148705
836.049805	1307.722534	2485.323730	1423.619263	9.841763
836.356750	1309.597168	2474.847656	1421.744507	9.624311
836.663574	1306.950562	2463.930664	1426.265869	10.312650
836.970398	1307.060913	2452.021484	1424.611694	10.266797
837.277161	1304.524658	2437.244629	1419.649414	10.163568
837.583923	1305.075928	2424.122314	1415.348755	9.854178
837.890564	1308.053345	2396.774658	1404.762573	8.882827
838.197205	1308.604858	2354.650391	1396.051025	8.359691
838.503784	1311.692505	2308.005371	1388.442139	7.703367
838.810303	1309.376709	2257.059326	1377.635498	7.202705
839.116699	1306.509766	2211.626953	1368.482788	6.846961
839.423096	1309.046021	2160.791260	1355.691284	5.476434
839.729492	1308.715210	2120.541992	1349.185059	4.985035
840.035828	1304.745361	2089.996582	1342.679077	4.830774
840.342102	1302.760620	2067.500732	1338.709106	4.700746
840.648315	1308.494751	2039.601807	1337.055176	3.906463
840.954529	1311.692505	2021.517090	1329.005249	2.439017
841.260620	1313.015747	2003.432251	1323.270996	1.485371
841.566711	1310.258911	1989.207275	1321.396362	1.640397
841.872803	1309.707397	1968.365845	1316.434204	1.021289
842.178772	1312.795044	1954.250977	1312.905640	0.017241
842.484680	1310.920532	1935.394165	1312.243774	0.211897
842.790588	1312.574585	1921.830688	1313.015869	0.072430
843.096436	1313.567017	1911.354858	1307.943359	-0.940745
843.402222	1314.118286	1899.996826	1300.996094	-2.239746
843.707947	1315.551880	1889.300415	1296.585083	-3.305768
844.013611	1315.993042	1878.162720	1296.143921	-3.530806
844.319275	1313.125977	1861.070679	1294.269287	-3.441349
844.624817	1314.118530	1844.529785	1289.858398	-4.573834
844.930359	1311.913086	1820.380005	1281.036621	-6.072463
845.235901	1311.030884	1800.530884	1272.986816	-7.772026
845.541321	1315.993164	1778.035400	1270.560791	-9.832948
845.846680	1311.913086	1765.354004	1267.914307	-9.703310
846.152039	1311.472046	1751.459839	1263.613647	-10.877211
846.457275	1316.323975	1736.793335	1256.556152	-14.214549
846.762512	1318.308838	1724.553223	1256.335693	-15.255138
847.067749	1316.654785	1716.392822	1253.027344	-15.917285
847.372925	1315.110840	1705.365479	1254.350708	-15.569355
847.677979	1313.125977	1699.410889	1250.270630	-16.271759
847.983032	1314.669922	1687.391235	1247.403564	-18.047359
848.288025	1310.369263	1681.767456	1249.057617	-16.508331
848.592957	1309.045898	1679.782349	1248.285767	-16.389036
848.897888	1312.905518	1675.812744	1247.954956	-17.897291
849.202759	1312.133667	1675.151001	1242.772095	-19.106958
849.507507	1308.715210	1670.739990	1243.102905	-18.123705
849.812317	1308.825439	1668.093506	1245.529053	-17.618151
850.117004	1308.163818	1667.211182	1248.506348	-16.615488
850.421631	1305.958374	1663.682617	1245.308350	-16.954407
850.726257	1304.745361	1661.146240	1245.418579	-16.646082
851.030823	1304.635010	1660.154053	1247.844482	-15.973976
851.335327	1303.421875	1660.264282	1251.483521	-14.554984
851.639771	1301.326782	1656.404785	1251.704102	-13.975149
851.944153	1296.805664	1654.419800	1248.506226	-13.506021
852.248535	1297.136353	1657.507446	1252.255493	-12.454067
852.552856	1295.041260	1663.792725	1253.799438	-11.184178
852.857056	1291.733032	1663.131104	1259.754150	-8.610406
853.161255	1286.770874	1662.579834	1254.461182	-8.597371
853.465393	1284.124268	1660.594727	1255.784424	-7.527773
853.769531	1279.382568	1652.765381	1257.107666	-5.965701
854.073547	1280.044189	1649.788086	1258.320679	-5.875286
854.377563	1280.375000	1644.715576	1259.092529	-5.841367
854.681580	1280.485474	1645.156616	1255.894653	-6.743287
854.985474	1280.926392	1640.194336	1256.997314	-6.660510
855.289307	1279.492920	1640.525269	1253.468628	-7.208299
855.593140	1276.736084	1639.312134	1255.012329	-5.991503
855.896851	1277.066895	1640.525269	1254.130249	-6.310667
856.200623	1276.736084	1638.981445	1251.593872	-6.940658
856.504272	1275.633423	1635.783691	1249.498779	-7.256594
856.807922	1278.169678	1635.452759	1250.050049	-7.870406
857.111389	1280.044312	1639.312256	1245.087769	-9.729937
857.414978	1278.390259	1637.768555	1241.228271	-10.340632
857.718445	1279.382568	1635.121826	1240.235718	-11.004366
858.021790	1284.565308	1632.585693	1240.787109	-12.579206
858.325195	1287.322144	1635.452881	1242.551514	-12.860292
858.628479	1291.071655	1630.380371	1240.345947	-14.949721
858.931763	1289.637817	1624.315308	1239.463867	-14.991732
859.234985	1288.866089	1626.410522	1237.479126	-15.223763
859.538147	1291.071533	1623.763916	1238.692017	-15.744128
859.841248	1294.710571	1626.410522	1235.273682	-17.918873
860.144287	1297.687866	1629.828857	1234.612061	-18.990671
860.447266	1298.459717	1628.615723	1233.288696	-19.739462
860.750305	1296.915894	1632.585571	1231.193604	-19.579454
861.053223	1299.121338	1634.680786	1233.619507	-19.520187
861.356018	1295.592651	1635.342407	1231.524414	-18.857479
861.658813	1294.489746	1634.460205	1235.273682	-17.418003
861.961609	1299.672607	1630.049316	1235.604492	-19.392443
862.264343	1299.562256	1629.056885	1236.817383	-19.042761
862.567017	1301.216309	1630.821289	1238.912720	-18.902502
862.869629	1302.539673	1627.843994	1237.368774	-20.033825
863.172180	1302.429443	1623.322754	1238.251099	-19.999901
863.474670	1302.980713	1619.463135	1243.544067	-18.780394
863.777161	1304.083496	1617.037231	1246.962646	-18.252171
864.079590	1303.973267	1616.044800	1247.513916	-18.091797
864.381958	1302.760254	1622.330322	1246.852295	-17.494741
864.684265	1300.665161	1622.991943	1244.756958	-17.345194
864.986511	1297.246704	1621.889160	1247.182983	-15.421187
865.288757	1299.341797	1621.338013	1247.844604	-15.993105
865.590942	1301.988281	1621.117432	1247.624023	-17.035191
865.893066	1303.642578	1622.661133	1246.741821	-17.836191
866.195068	1301.988403	1619.352905	1249.388428	-16.573996
866.497131	1300.223999	1619.353027	1249.057617	-16.033133
866.799133	1304.193848	1623.874023	1252.365845	-16.212454
867.100952	1304.965698	1619.794067	1255.784302	-15.621654
867.402832	1306.619751	1616.816650	1250.601440	-18.058952
867.704651	1309.597168	1615.272827	1251.483643	-19.011499
868.006409	1309.045898	1617.808960	1249.167847	-19.392881
868.308105	1307.612305	1620.345459	1244.756958	-20.098715
868.609802	1310.810303	1620.896973	1241.669312	-22.297312
868.911438	1310.148682	1618.360474	1243.323364	-21.681623
869.213013	1310.479370	1617.478394	1246.080078	-20.977036
869.514465	1310.258911	1621.117432	1239.463867	-22.774040
869.815979	1312.133545	1620.345459	1238.802246	-23.792494
870.117371	1311.802734	1622.771362	1238.802368	-23.475155
870.418701	1315.000610	1624.425537	1236.045532	-25.516716
870.720093	1317.536987	1622.440674	1236.596924	-26.546108
871.021301	1319.080811	1621.558350	1238.140869	-26.758993
871.322571	1320.955322	1622.550781	1234.391602	-28.701931
871.623718	1319.301392	1625.638550	1229.649658	-29.265707
871.924805	1318.088379	1625.417969	1232.185913	-27.951252
872.225891	1318.970581	1625.528442	1231.413940	-28.561213
872.526917	1321.396484	1629.277588	1230.972900	-29.369644
872.827881	1323.491699	1626.631104	1230.200928	-30.774874
873.128784	1318.970459	1619.242920	1227.995483	-30.297476
873.429626	1317.867798	1620.345581	1228.767334	-29.456861
873.730408	1317.757568	1618.691406	1232.185791	-28.435411
874.031189	1314.338989	1621.338013	1231.303711	-27.047407
874.331848	1314.780151	1621.227661	1232.296265	-26.916155
874.632568	1311.692627	1620.786499	1235.494019	-24.652254
874.933167	1311.251343	1620.896973	1236.155640	-24.252144
875.233704	1309.156250	1623.102295	1235.494141	-23.463303
875.534241	1308.494629	1626.630981	1234.942749	-23.119608
875.834717	1307.171509	1627.513184	1241.448853	-20.516424
876.135071	1303.752930	1634.570679	1239.133057	-19.533375
876.435425	1302.539917	1634.019165	1239.353638	-19.061911
876.735779	1304.635132	1635.893799	1241.448730	-19.074640
877.036011	1298.901001	1636.004150	1243.323364	-16.486834
877.336182	1297.246948	1638.650635	1244.867310	-15.342435
877.636353	1294.931152	1645.928589	1248.285767	-13.289381
877.936462	1294.931030	1651.001099	1253.909546	-11.520621
878.236511	1297.908447	1661.366821	1253.358154	-12.257330
878.536560	1297.798218	1679.782349	1255.343140	-11.114356
878.836487	1297.246826	1703.049805	1263.062256	-8.423933
879.136414	1294.379639	1762.486816	1277.618164	-3.580692
879.436279	1291.843506	1852.138428	1292.615234	0.137736
879.736084	1293.276855	1963.513550	1313.897827	3.076670
880.035828	1290.961182	2086.908691	1344.112549	6.677748
880.335510	1293.938477	2202.694824	1374.106812	8.821763
880.635193	1293.276855	2303.594238	1394.396973	10.008748
880.934753	1297.797852	2393.576904	1414.576782	10.657161
881.234314	1296.474854	2473.193359	1431.117798	11.442239
881.533752	1298.569946	2539.467529	1443.799072	11.703554
881.833252	1297.798096	2600.889404	1455.267456	12.084292
882.132629	1298.570068	2658.892822	1462.545410	12.054150
882.431946	1298.680298	2704.766113	1475.226685	12.555876
882.731323	1299.893433	2746.559326	1484.820435	12.782979
883.030579	1298.459839	2780.192627	1490.003296	12.926991
883.329712	1298.018677	2813.053955	1493.642212	12.912144
883.628845	1298.790527	2833.675049	1500.479248	13.140319
883.927979	1298.900879	2847.128174	1500.809937	13.041306
884.226990	1299.452148	2858.045166	1501.140747	12.940428
884.526001	1296.144043	2861.684082	1498.825195	12.946404
884.824951	1296.695435	2855.398682	1497.612183	12.889994
885.123840	1295.702881	2838.306396	1486.915771	12.395466
885.422729	1297.687744	2793.645996	1474.013794	11.786830
885.721497	1300.223999	2709.948975	1459.347412	11.287550
886.020203	1301.216553	2605.962158	1434.536255	10.218061
886.318909	1302.760376	2484.331299	1406.857910	8.810096
886.617554	1302.980835	2367.773193	1379.730713	7.207967
886.916138	1302.980957	2268.858643	1360.102295	5.913931
887.214661	1300.554932	2181.522705	1339.150391	4.381030
887.513184	1301.106323	2099.369629	1320.073242	2.376023
887.811523	1298.018677	2028.905518	1307.060913	1.237159
888.109924	1303.752808	1794.686401	1206.492432	-19.811310
888.408264	1292.174194	1871.105347	1252.806885	-6.799998
888.706543	1294.489868	1690.478760	1250.491211	-11.111084
889.004761	1331.541504	1743.740479	1222.702515	-26.404478
889.302979	1313.015747	1655.742920	1289.858521	-6.756752
889.601135	1329.225830	1637.217163	1269.016968	-19.548882
889.899170	1282.911255	1678.900146	1255.122559	-7.017544
890.197205	1313.015747	1667.321533	1225.018188	-24.836613
890.495178	1299.121338	1597.849854	1164.809326	-44.961227
890.793091	1271.332642	1570.061157	1257.438354	-4.651142
>>>>>End Processed Spectral Data<<<<<
