Jaz Data File
++++++++++++++++++++++++++++++++++++
Date: Thu Sep 26 04:31:21 2019
User: jaz
Dark Spectrum Present: Yes
Reference Spectrum Present: Yes
Processed Spectrum Present: Yes
Spectrometers: JAZA3541
Integration Time (usec): 100000 (JAZA3541)
Spectra Averaged: 1 (JAZA3541)
Boxcar Smoothing: 10 (JAZA3541)
Correct for Electrical Dark: No (JAZA3541)
Strobe/Lamp Enabled: Yes (JAZA3541)
Correct for Detector Non-linearity: No (JAZA3541)
Correct for Stray Light: No (JAZA3541)
Number of Pixels in Processed Spectrum: 2048
>>>>>Begin Processed Spectral Data<<<<<
W	D	R	S	P
190.543274	0.000000	0.000000	0.000000	0.000000
190.921555	0.000000	0.000000	0.000000	0.000000
191.299805	1296.805664	1336.172974	1095.337646	-511.764771
191.678024	1229.649658	1322.278564	1167.125122	-67.500023
192.056229	1345.435913	1313.015747	1187.966553	485.714233
192.434387	1331.541504	1278.279907	1262.069824	130.434845
192.812531	1303.752808	1324.594360	1174.072266	-622.221130
193.190659	1310.699951	1296.805664	1199.545166	800.003540
193.568741	1319.962891	1359.330200	1252.806885	-170.588257
193.946793	0.000000	0.000000	0.000000	0.000000
194.324829	1207.815674	1211.785522	1086.405640	-3058.303955
194.702835	1271.994385	1273.317627	1142.754883	-9766.881836
195.080811	1337.606445	1335.070313	1200.758301	5395.937500
195.458755	1337.827148	1332.203125	1208.477295	2299.952148
195.836685	1338.268188	1331.541626	1210.462280	1900.018188
196.214569	1339.811890	1336.172974	1211.344360	3530.379150
196.592422	1341.907104	1340.032471	1215.093628	6764.706543
196.970261	1342.679077	1342.127686	1218.291626	22558.822266
197.348068	1343.781860	1343.120117	1219.283936	18813.632813
197.725861	1344.222900	1342.127563	1218.291504	6010.078613
198.103622	1343.561279	1338.157837	1218.401733	2316.292725
198.481323	1340.253052	1337.496216	1220.607300	4339.966309
198.859039	1337.937378	1335.290771	1217.960693	4533.227051
199.236694	1335.070313	1335.621460	1217.960815	-21248.304688
199.614334	1333.416138	1335.511230	1214.652588	-5668.653320
199.991959	1329.115479	1337.937134	1214.873169	-1295.021240
200.369553	1324.373657	1337.826904	1216.527100	-801.639587
200.747101	1322.499023	1341.355835	1213.549805	-577.771179
201.124619	1320.514038	1341.576294	1215.314209	-499.470856
201.502136	1316.323608	1346.538452	1214.873047	-335.763977
201.879623	1313.677246	1349.736450	1213.439575	-277.980804
202.257065	1311.030640	1351.500854	1212.667725	-243.050140
202.634476	1309.927979	1352.934570	1215.093750	-220.510910
203.011871	1305.186279	1354.809082	1215.755249	-180.221649
203.389221	1303.091064	1361.866455	1210.682861	-157.222610
203.766571	1304.745117	1367.931519	1210.462280	-149.213806
204.143875	1300.334229	1365.064331	1207.705444	-143.100006
204.521164	1296.254272	1365.284912	1200.868530	-138.178848
204.898392	1297.798096	1363.300049	1199.104004	-150.673508
205.275620	1298.459717	1368.703369	1198.221802	-142.700317
205.652817	1293.718018	1368.482910	1198.332153	-127.581093
206.029984	1293.607666	1372.673218	1198.552490	-120.223251
206.407135	1291.953613	1374.988892	1197.229492	-114.076958
206.784225	1292.394775	1374.437378	1203.845947	-107.930298
207.161301	1293.607910	1372.893555	1203.845947	-113.213387
207.538376	1298.570190	1373.555176	1204.397339	-125.588943
207.915405	1302.209229	1370.798462	1200.978882	-147.589264
208.292404	1303.422119	1370.798584	1199.324829	-154.500961
208.669373	1305.406860	1366.718506	1205.169312	-163.488602
209.046310	1302.319336	1363.961670	1202.963867	-161.180573
209.423218	1303.863159	1361.645874	1197.670898	-183.778595
209.800095	1305.737793	1357.124756	1196.898926	-211.802490
210.176956	1308.715210	1353.265137	1194.583130	-256.189148
210.553787	1308.163818	1355.911743	1193.811157	-239.492416
210.930603	1309.597412	1356.242554	1194.031738	-247.755005
211.307358	1315.221313	1353.485718	1197.339844	-308.070831
211.684113	1317.316406	1349.846680	1197.450195	-368.475891
212.060837	1316.985596	1348.413086	1197.891113	-378.950012
212.437531	1316.765015	1350.839233	1196.016357	-354.369568
212.814178	1314.008179	1354.037109	1194.472412	-298.623444
213.190826	1312.574585	1351.280273	1194.913574	-303.988922
213.567413	1313.125977	1352.383057	1193.479980	-304.775574
213.943985	1310.258789	1357.345337	1191.936157	-251.287552
214.320541	1309.266479	1357.124756	1192.708008	-243.549240
214.697052	1307.612305	1361.315186	1188.407349	-221.971252
215.073563	1309.266357	1363.300049	1186.753296	-226.734573
215.449997	1303.863159	1360.874023	1187.084229	-204.836273
215.826431	1301.326904	1362.086914	1192.928711	-178.403839
216.202850	1300.334351	1364.954102	1190.502686	-169.966095
216.579224	1298.459717	1369.695923	1186.422729	-157.275345
216.955582	1300.885742	1374.989014	1186.312500	-154.612930
217.331894	1300.554932	1374.217041	1190.943970	-148.802368
217.708191	1300.003418	1376.863647	1192.598267	-139.740860
218.084442	1300.113770	1383.480103	1192.487793	-129.100052
218.460678	1296.915771	1384.141602	1192.487793	-119.721390
218.836899	1295.041260	1385.685303	1191.715820	-113.990326
219.213074	1292.615234	1387.339478	1189.510376	-108.847382
219.589233	1294.269287	1392.191650	1190.723389	-105.742851
219.965347	1296.805542	1398.697510	1194.472656	-100.432732
220.341431	1295.592529	1399.359131	1195.244629	-96.705391
220.717499	1296.254150	1400.241455	1196.236938	-96.182137
221.093552	1295.041260	1402.336548	1194.803467	-93.422363
221.469543	1299.011108	1407.078247	1194.252075	-96.938843
221.845535	1302.980835	1407.409058	1196.567749	-101.900696
222.221466	1305.296631	1411.709595	1198.442505	-100.414574
222.597397	1305.186279	1417.884766	1199.545410	-93.737610
222.973297	1302.760376	1426.706543	1202.853394	-80.605141
223.349167	1300.554932	1437.403076	1205.610352	-69.379517
223.725006	1297.467285	1446.996826	1203.404785	-62.905632
224.100800	1295.041260	1454.385010	1210.131470	-53.287178
224.476578	1295.372070	1465.081543	1211.895874	-49.187706
224.852325	1297.577515	1475.778076	1216.086182	-45.730122
225.228058	1298.680298	1495.847778	1219.173706	-40.324394
225.603760	1297.577637	1523.195313	1219.063477	-34.799648
225.979416	1295.261963	1552.086792	1223.584595	-27.909050
226.355057	1295.372192	1590.351318	1223.694824	-24.299131
226.730652	1296.805664	1642.069214	1227.885376	-19.961647
227.106232	1296.915894	1691.912231	1233.178345	-16.136238
227.481796	1294.159180	1736.903687	1236.817383	-12.951442
227.857315	1292.946167	1778.145630	1240.676880	-10.772742
228.232788	1296.033813	1815.638184	1248.065063	-9.231784
228.608246	1296.695435	1848.058350	1249.498657	-8.560020
228.983704	1297.026245	1883.345459	1251.152832	-7.823966
229.359100	1297.577637	1916.206665	1256.335693	-6.666668
229.734482	1293.166748	1945.870117	1256.225342	-5.659754
230.109833	1290.189453	1973.768921	1256.776733	-4.887906
230.485153	1290.189331	1989.979126	1260.305542	-4.270395
230.860443	1289.527710	2012.585205	1260.084961	-4.071979
231.235703	1293.166748	2031.331421	1262.069946	-4.212719
231.610931	1293.607788	2055.481445	1267.914307	-3.372407
231.986145	1293.056396	2079.300049	1270.450562	-2.875169
232.361313	1290.189209	2098.708252	1273.097046	-2.114009
232.736465	1287.983765	2121.313965	1277.287354	-1.283574
233.111572	1285.888550	2134.656982	1280.595581	-0.623606
233.486664	1288.865845	2141.052734	1283.462646	-0.634039
233.861725	1290.409668	2141.604248	1284.565430	-0.686593
234.236755	1292.284302	2138.957520	1286.881104	-0.638168
234.611771	1296.474731	2120.873047	1287.873657	-1.043315
234.986740	1298.900635	2101.023926	1290.630371	-1.031046
235.361679	1299.782959	2083.710938	1295.261719	-0.576742
235.736588	1298.570068	2073.235107	1292.835815	-0.740224
236.111496	1297.908447	2069.375488	1291.733032	-0.800477
236.486343	1298.459717	2071.139893	1296.585205	-0.242599
236.861160	1301.106323	2071.250000	1303.421997	0.300681
237.235962	1300.334351	2079.961426	1304.524658	0.537476
237.610733	1302.760376	2089.996338	1310.369141	0.966516
237.985474	1301.437134	2106.978271	1318.860107	2.162891
238.360199	1300.665283	2140.501221	1324.704468	2.862367
238.734879	1301.767944	2177.662842	1338.157837	4.154596
239.109543	1300.334473	2227.616455	1350.508301	5.410849
239.484177	1304.635132	2281.650146	1365.615601	6.241508
239.858749	1310.810303	2350.680908	1381.494995	6.797451
240.233322	1311.361694	2434.047119	1403.880249	8.240827
240.607864	1313.126099	2511.899414	1426.265747	9.437952
240.982391	1314.559570	2592.618896	1447.327759	10.388265
241.356857	1316.213745	2651.063232	1464.861206	11.135897
241.731308	1315.000610	2704.435059	1478.865845	11.793664
242.105728	1317.977905	2744.684814	1495.296387	12.428514
242.480118	1312.354126	2785.926758	1507.757202	13.260498
242.854492	1310.479492	2835.880127	1522.974854	13.930463
243.228836	1309.045898	2893.442383	1535.104736	14.267820
243.603134	1312.905518	2957.290283	1561.790771	15.135464
243.977402	1312.023193	3046.721436	1586.161133	15.803206
244.351654	1310.920532	3168.241699	1619.904419	16.635996
244.725861	1310.810303	3315.235107	1659.602661	17.401119
245.100067	1311.912964	3466.970215	1705.365723	18.257185
245.474213	1311.361694	3603.377197	1745.614990	18.946350
245.848343	1316.985474	3710.341553	1777.924805	19.259121
246.222443	1318.198486	3794.700195	1806.595825	19.721260
246.596512	1318.419067	3855.019287	1827.327026	20.062601
246.970566	1321.286133	3892.181641	1839.677612	20.163849
247.344574	1320.845093	3904.862793	1846.293945	20.334570
247.718567	1317.206055	3891.740234	1847.837646	20.610781
248.092529	1318.749756	3859.430420	1846.955200	20.789919
248.466431	1315.441650	3833.075195	1841.331421	20.888258
248.840332	1313.236206	3807.051025	1836.259155	20.972805
249.214203	1311.030640	3809.476563	1837.913086	21.088408
249.588043	1313.787598	3825.797363	1843.867920	21.101841
249.961838	1310.038330	3853.696045	1855.225830	21.433210
250.335617	1313.677124	3886.888428	1867.466187	21.521320
250.709381	1313.456665	3901.664795	1873.310669	21.630951
251.083084	1318.198608	3899.569824	1877.942017	21.683958
251.456787	1314.780029	3882.367188	1867.466309	21.525513
251.830460	1316.434204	3829.656738	1857.982910	21.547979
252.204071	1313.456787	3746.069824	1836.590088	21.504995
252.577667	1310.038452	3638.995117	1810.565674	21.491480
252.951248	1310.369263	3513.615234	1777.594116	21.206203
253.324799	1308.604858	3406.099365	1752.010986	21.139797
253.698303	1305.737671	3326.152100	1725.986572	20.800133
254.071793	1305.296631	3267.817627	1708.122437	20.525936
254.445236	1304.083618	3233.853760	1696.543701	20.337141
254.818665	1300.113770	3219.959473	1692.684326	20.448027
255.192062	1300.003418	3219.077393	1691.912354	20.421774
255.565430	1300.444458	3243.888672	1695.551514	20.330250
255.938782	1301.878052	3283.365967	1699.190430	20.051214
256.312103	1304.745117	3340.266846	1711.210205	19.968596
256.685364	1306.730225	3419.442383	1730.728394	20.068903
257.058594	1304.965820	3518.357178	1754.877930	20.326822
257.431793	1302.098633	3646.714600	1784.761963	20.586029
257.804993	1302.760254	3790.178955	1819.828491	20.787342
258.178162	1299.672729	3928.240234	1854.233398	21.097448
258.551270	1298.128906	4052.517578	1884.117432	21.274721
258.924377	1294.379639	4145.587402	1906.502563	21.468899
259.297485	1293.938599	4222.999023	1930.211304	21.722757
259.670502	1293.056396	4286.625977	1943.774902	21.737209
260.043518	1295.151489	4346.063477	1956.125244	21.664791
260.416473	1298.569946	4394.473145	1967.814209	21.617092
260.789459	1297.026123	4449.830078	1981.157227	21.699133
261.162354	1297.246704	4497.467773	1995.382446	21.815233
261.535278	1298.349365	4541.796875	2009.938477	21.939283
261.908142	1298.790527	4576.092285	2015.893188	21.880886
262.280975	1301.216553	4595.279297	2021.075928	21.853239
262.653717	1302.870605	4609.834961	2025.045776	21.838009
263.026520	1300.113892	4627.809570	2027.030884	21.844454
263.399261	1297.357056	4643.688477	2027.361572	21.815069
263.771973	1296.915894	4654.495605	2030.669800	21.853657
264.144653	1298.239258	4653.502930	2027.361450	21.730698
264.517334	1301.106323	4633.103027	2025.597046	21.743441
264.889954	1302.208862	4586.678223	2017.657349	21.782774
265.262543	1305.627563	4506.179199	1998.028809	21.633808
265.635071	1308.053589	4405.610840	1966.380737	21.253107
266.007599	1311.802856	4310.224609	1933.078491	20.720087
266.380127	1312.133545	4240.201660	1911.465088	20.468498
266.752594	1315.882935	4205.575684	1900.217285	20.221331
267.125031	1315.000732	4197.084473	1893.490723	20.071936
267.497437	1313.236328	4212.963867	1895.475586	20.079102
267.869843	1316.544556	4239.098633	1901.209839	20.005285
268.242218	1313.567261	4277.473633	1905.510376	19.971722
268.614532	1311.913208	4335.697754	1911.575562	19.831516
268.986816	1312.354126	4430.973633	1927.675415	19.730566
269.359100	1311.471924	4539.150879	1947.634644	19.709604
269.731354	1310.038452	4652.510742	1973.989746	19.864079
270.103516	1311.030762	4749.219727	1991.192383	19.782555
270.475708	1311.361572	4830.049805	2006.520142	19.756186
270.847839	1314.890381	4902.499023	2022.840454	19.733202
271.219971	1318.419067	4961.053711	2037.285889	19.734804
271.592041	1320.403809	5006.596191	2044.233032	19.636230
271.964081	1321.065552	5036.369629	2052.172852	19.678263
272.336151	1316.434204	5064.048340	2047.431030	19.505659
272.708130	1316.654785	5090.182129	2045.997559	19.327879
273.080109	1313.015869	5107.385254	2045.115479	19.294369
273.452026	1311.582275	5141.238770	2051.621582	19.323908
273.823914	1310.369263	5176.085449	2060.994873	19.417503
274.195770	1310.369263	5215.893555	2065.957031	19.346640
274.567627	1309.376831	5261.987793	2069.485596	19.230549
274.939423	1310.700073	5304.332031	2073.014404	19.088247
275.311249	1312.243896	5345.464355	2082.166992	19.089537
275.682983	1310.479492	5376.120117	2089.114258	19.151588
276.054688	1309.707520	5401.151855	2093.304443	19.152086
276.426422	1307.943115	5403.577148	2094.627686	19.207882
276.798065	1312.243896	5370.495117	2084.593262	19.031582
277.169708	1313.236206	5325.172852	2074.337891	18.970930
277.541321	1317.757446	5277.536133	2063.531006	18.833717
277.912903	1316.985352	5267.832031	2062.538574	18.870720
278.284424	1316.764893	5279.741211	2063.090088	18.832441
278.655945	1315.882813	5301.685547	2063.420654	18.755014
279.027435	1312.574707	5332.010254	2071.139648	18.872425
279.398865	1310.920532	5391.226563	2083.710449	18.939508
279.770294	1307.502075	5467.424805	2094.297119	18.913692
280.141663	1310.810303	5539.763672	2114.035889	18.993484
280.513031	1313.015869	5615.631348	2132.561523	19.047617
280.884369	1315.993164	5680.912598	2152.852051	19.172379
281.255676	1314.559570	5725.462402	2159.357666	19.152498
281.626953	1313.787720	5763.727051	2167.517822	19.185207
281.998199	1316.654907	5805.189453	2176.780762	19.162731
282.369385	1313.346680	5856.245605	2188.028564	19.253826
282.740540	1313.236328	5915.572754	2203.577148	19.345409
283.111694	1311.802856	5983.280273	2220.228516	19.446217
283.482819	1310.479492	6070.064941	2238.864502	19.505585
283.853912	1314.559570	6165.339844	2261.911377	19.529884
284.224945	1315.441772	6257.858398	2282.752686	19.571619
284.595978	1313.346436	6348.502930	2305.579346	19.706100
284.966980	1311.030762	6425.914551	2325.648682	19.836578
285.337952	1309.817749	6500.238281	2339.212158	19.832582
285.708893	1306.730103	6535.746094	2348.254395	19.918169
286.079803	1305.406860	6558.352051	2357.737793	20.033159
286.450684	1304.745239	6574.893066	2369.647461	20.206306
286.821533	1307.391846	6588.677246	2381.777588	20.343264
287.192322	1306.399414	6596.506836	2389.386475	20.471930
287.563110	1307.391968	6602.571289	2404.824463	20.725124
287.933868	1303.642700	6627.272461	2418.939453	20.949930
288.304596	1299.672852	6668.735352	2434.046875	21.127972
288.675262	1300.885742	6725.304199	2457.314453	21.318943
289.045929	1301.326782	6777.683594	2488.301025	21.674522
289.416565	1300.113770	6826.645020	2508.149902	21.858849
289.787170	1296.805664	6843.957520	2528.109131	22.197039
290.157745	1293.718018	6845.170898	2548.068604	22.594995
290.528259	1293.497437	6840.870605	2563.947998	22.901840
290.898773	1294.820801	6830.614746	2570.343750	23.041374
291.269226	1294.269287	6813.852539	2577.621826	23.250896
291.639679	1290.630371	6797.202148	2588.428467	23.568169
292.010101	1294.820801	6810.876465	2607.836426	23.803524
292.380463	1293.828369	6840.539551	2628.016357	24.053679
292.750824	1298.680298	6882.332031	2652.055908	24.238180
293.121155	1300.775391	6928.756836	2682.490967	24.550819
293.491455	1307.502197	6990.068359	2714.911133	24.767136
293.861725	1310.920532	7072.000977	2747.331055	24.933004
294.231964	1313.125977	7184.479004	2783.500488	25.043198
294.602142	1314.669678	7298.721680	2816.471924	25.096746
294.972321	1314.669800	7398.077148	2851.428711	25.261484
295.342468	1316.213623	7496.991699	2879.437988	25.291708
295.712555	1317.095825	7559.295410	2904.139160	25.424425
296.082672	1318.419067	7583.776855	2922.444336	25.601494
296.452728	1315.882813	7585.761719	2924.760254	25.660423
296.822693	1319.080688	7589.400879	2930.384033	25.697306
297.192657	1321.065552	7589.180664	2936.228516	25.767921
297.562622	1322.388916	7606.824219	2940.749512	25.751884
297.932556	1326.027954	7627.886230	2939.867432	25.608946
298.302460	1328.233398	7634.833496	2945.822021	25.649139
298.672333	1327.792358	7640.347656	2950.012207	25.698307
299.042145	1329.005127	7636.597656	2952.769043	25.743006
299.411957	1330.218140	7623.033691	2949.791748	25.736868
299.781677	1326.027954	7584.768555	2939.757080	25.783607
300.151428	1326.579224	7523.125977	2924.208496	25.782574
300.521149	1326.248291	7458.727051	2906.454590	25.767824
300.890839	1322.829956	7386.829590	2885.392578	25.767855
301.260468	1317.095825	7310.961914	2863.007080	25.791553
301.630096	1318.418945	7223.515625	2842.386230	25.807661
301.999695	1319.080688	7102.436523	2808.973877	25.761742
302.369232	1316.323975	6976.063965	2776.333008	25.796396
302.738739	1314.449219	6859.727051	2744.684814	25.791956
303.108246	1310.699951	6722.106445	2712.154297	25.898155
303.477692	1311.251343	6610.841309	2683.483398	25.893175
303.847137	1311.361816	6522.182129	2657.900391	25.841202
304.216553	1311.361572	6456.680176	2641.910645	25.859411
304.585876	1310.369141	6397.794434	2620.407471	25.750517
304.955231	1309.597046	6350.267090	2607.395264	25.746542
305.324493	1306.619751	6311.010254	2594.272949	25.730469
305.693787	1306.178711	6280.244629	2587.876953	25.767616
306.063049	1306.509521	6274.399414	2577.180420	25.577679
306.432251	1307.391846	6272.414551	2575.526367	25.541365
306.801422	1305.627319	6267.783691	2567.586670	25.431673
307.170593	1304.524658	6268.334961	2564.829834	25.389874
307.539673	1303.642456	6275.171875	2570.674316	25.485756
307.908783	1304.304077	6290.831055	2574.974854	25.482080
308.277832	1302.650146	6307.150879	2580.708984	25.538187
308.646851	1300.444702	6338.357910	2590.082275	25.598646
309.015839	1303.973389	6378.717773	2599.124756	25.521511
309.384796	1298.239258	6410.586914	2605.851318	25.577526
309.753723	1295.151733	6446.205566	2618.091797	25.682901
310.122620	1294.600220	6472.339844	2623.936279	25.674061
310.491486	1296.144165	6484.690430	2623.715576	25.586576
310.860352	1299.342041	6501.231445	2624.487549	25.474310
311.229126	1299.452148	6515.456055	2622.502686	25.365213
311.597931	1298.680298	6523.726074	2623.495117	25.355085
311.966675	1300.224121	6544.016602	2623.715820	25.239208
312.335388	1300.665161	6579.523926	2627.465088	25.134218
312.704071	1298.680298	6617.236816	2633.970947	25.106260
313.072723	1301.326904	6632.564941	2640.366699	25.116863
313.441345	1301.988525	6630.139160	2638.823242	25.090033
313.809875	1302.650146	6611.061523	2630.111816	25.006762
314.178436	1298.459839	6573.018066	2622.172119	25.096174
314.546967	1304.193970	6535.194824	2617.650635	25.109089
314.915466	1304.635132	6494.283691	2605.410645	25.064810
315.283936	1308.604858	6440.911621	2589.090332	24.949512
315.652374	1309.266602	6398.125977	2573.321289	24.839647
316.020752	1307.943237	6345.084961	2553.692627	24.731276
316.389130	1313.236328	6299.542480	2538.585205	24.574282
316.757416	1313.346680	6259.072266	2523.588135	24.470453
317.125732	1312.574585	6233.378418	2513.884033	24.412870
317.494019	1313.126099	6201.399414	2499.328125	24.266277
317.862274	1315.441895	6169.530762	2494.917236	24.298594
318.230469	1314.338989	6137.441406	2489.624023	24.367823
318.598663	1315.441772	6109.211914	2483.228516	24.360508
318.966797	1315.221069	6076.571289	2475.950439	24.378157
319.334930	1314.449341	6049.113281	2460.181152	24.198799
319.703003	1310.148682	6018.347656	2447.058838	24.147451
320.071045	1307.612305	5975.341309	2435.479980	24.163092
320.439056	1306.178711	5939.722656	2424.783936	24.141462
320.807037	1306.399292	5937.627441	2420.373047	24.053528
321.175049	1305.296631	5958.910156	2419.270264	23.937820
321.542969	1301.878052	5990.778809	2431.510498	24.091625
321.910828	1306.178711	6035.219238	2439.670898	23.968756
322.278717	1304.965820	6093.112305	2449.264893	23.898581
322.646515	1308.053345	6142.183594	2461.505127	23.860584
323.014313	1307.501953	6192.908691	2468.893311	23.772665
323.382111	1304.855469	6229.739746	2477.163574	23.803770
323.749817	1304.745117	6278.259766	2490.506348	23.841515
324.117523	1303.752808	6305.828125	2492.601318	23.767105
324.485199	1301.326782	6320.052734	2496.240479	23.809103
324.852814	1304.193970	6319.501465	2493.373291	23.710995
325.220428	1306.399292	6317.957520	2494.806885	23.713335
325.588013	1305.075928	6324.794434	2488.521484	23.575933
325.955536	1308.384155	6334.498535	2487.749512	23.464754
326.323059	1308.825317	6352.804199	2484.110596	23.300756
326.690552	1309.597168	6376.622070	2488.301025	23.262247
327.058014	1311.030640	6396.030273	2493.925049	23.262428
327.425415	1314.338989	6409.152344	2504.180176	23.353970
327.792816	1317.977905	6423.708984	2510.576172	23.358032
328.160187	1320.955322	6430.545410	2515.428223	23.377079
328.527496	1321.837646	6416.541504	2514.876953	23.417244
328.894775	1322.940430	6410.255859	2516.090088	23.453424
329.262054	1325.697144	6391.839844	2507.378418	23.325069
329.629303	1323.712280	6378.275879	2498.005127	23.232330
329.996490	1321.837646	6364.161621	2495.689453	23.279974
330.363647	1317.977905	6370.558105	2493.704346	23.269823
330.730774	1316.985718	6381.474609	2497.453613	23.308727
331.097839	1316.544434	6412.020020	2502.636230	23.277351
331.464935	1316.103394	6438.044434	2503.187744	23.176455
331.831970	1312.353882	6459.437500	2512.450439	23.316050
332.198975	1311.802490	6487.336426	2518.184814	23.309330
332.565948	1311.582153	6516.007324	2522.044434	23.258327
332.932892	1304.965698	6553.610352	2532.299805	23.383829
333.299744	1305.406860	6581.950195	2539.908691	23.396032
333.666656	1301.878174	6619.553711	2547.738037	23.428654
334.033478	1300.444702	6650.540039	2557.221436	23.490736
334.400299	1300.665283	6674.027344	2560.750244	23.450586
334.767090	1298.570068	6710.527344	2565.161133	23.403568
335.133850	1299.562622	6735.669434	2568.248779	23.338139
335.500549	1296.805786	6758.166016	2573.982910	23.385696
335.867218	1291.622803	6781.985352	2578.724609	23.442930
336.233917	1292.725586	6818.154785	2579.055664	23.280184
336.600525	1292.505005	6834.694824	2580.158203	23.233654
336.967102	1293.938599	6855.757324	2586.223389	23.234932
337.333649	1296.915894	6867.004395	2589.972412	23.214291
337.700195	1294.269287	6866.563965	2586.553955	23.191246
338.066681	1296.254150	6856.970215	2587.546387	23.221691
338.433136	1295.813110	6847.266602	2580.158203	23.135294
338.799591	1296.254272	6825.983398	2574.423828	23.114506
339.165985	1296.584961	6811.758789	2569.351318	23.077538
339.532318	1300.775391	6816.390625	2560.639893	22.841776
339.898651	1300.995972	6828.851074	2560.860107	22.791193
340.264954	1300.444580	6846.163574	2564.058105	22.785387
340.631226	1305.627319	6861.712891	2561.852539	22.609898
340.997467	1305.406860	6901.410645	2570.343506	22.604284
341.363678	1306.840454	6942.652344	2578.614014	22.565933
341.729828	1308.274048	6995.914551	2597.580811	22.668570
342.095947	1305.627563	7056.674316	2610.813721	22.694757
342.462067	1306.178833	7114.677734	2632.647705	22.836689
342.828156	1305.076050	7183.377441	2642.572510	22.753111
343.194183	1304.414551	7254.171875	2658.672363	22.761564
343.560211	1309.597290	7313.718750	2671.022705	22.674847
343.926178	1311.582275	7371.282227	2688.886963	22.728924
344.292114	1310.259155	7404.143066	2699.803955	22.802286
344.658020	1307.502197	7440.643066	2709.287109	22.855907
345.023926	1307.943237	7478.025391	2717.998779	22.853109
345.389771	1309.817871	7515.187500	2729.026123	22.870647
345.755585	1307.061157	7535.036621	2730.018555	22.847832
346.121368	1309.376953	7556.099121	2734.429443	22.812803
346.487122	1309.707642	7582.233398	2741.376465	22.824438
346.852844	1309.597412	7608.037109	2746.338867	22.811069
347.218536	1308.163818	7628.216309	2754.939941	22.891836
347.584167	1309.487061	7650.822266	2759.571533	22.867180
347.949768	1309.487061	7669.127930	2763.210205	22.858574
348.315369	1310.259033	7693.718750	2771.591064	22.892475
348.680939	1312.684937	7708.384766	2776.663574	22.890047
349.046448	1312.464478	7717.426270	2776.222168	22.853497
349.411957	1310.810303	7721.727051	2768.613770	22.739391
349.777435	1313.677490	7716.654785	2767.511230	22.705589
350.142792	1315.772705	7705.848145	2759.020264	22.585768
350.508209	1317.757568	7707.170898	2757.807373	22.538061
350.873566	1320.734985	7710.369629	2753.285889	22.419918
351.238892	1324.153320	7723.822754	2757.696777	22.400274
351.604187	1317.647217	7751.722656	2759.130615	22.403894
351.969482	1319.521973	7817.224609	2773.576172	22.377974
352.334717	1317.647339	7876.330566	2779.861572	22.294327
352.699890	1318.308838	7959.255371	2797.395020	22.272221
353.065063	1317.647217	8043.062500	2813.164063	22.236795
353.430237	1317.095825	8157.305176	2837.424072	22.226341
353.795319	1313.456787	8287.425781	2870.395752	22.325006
354.160370	1313.897827	8413.466797	2894.324707	22.260885
354.525421	1315.441650	8548.000977	2929.612061	22.318108
354.890442	1315.993164	8704.146484	2969.751221	22.383917
355.255402	1310.589600	8870.106445	3012.316406	22.511053
355.620331	1311.912964	9055.035156	3057.528076	22.544073
355.985260	1311.913086	9232.242188	3095.682617	22.521406
356.350098	1310.699951	9388.499023	3131.521240	22.541058
356.714935	1313.015869	9533.837891	3167.360107	22.556677
357.079742	1313.456909	9660.432617	3202.426270	22.630585
357.444519	1311.361694	9805.770508	3238.485596	22.686968
357.809296	1311.030762	9967.540039	3273.882813	22.674868
358.173981	1309.266479	10156.877930	3320.858887	22.735994
358.538605	1307.171265	10367.388672	3371.583984	22.785463
358.903259	1303.091187	10606.127930	3426.169189	22.821344
359.267914	1305.958008	10871.113281	3490.237793	22.835800
359.632477	1302.208740	11147.125000	3550.777588	22.839899
359.997009	1303.091064	11412.661133	3619.477783	22.912811
360.361542	1299.893188	11615.783203	3668.548340	22.961231
360.726013	1303.201416	11769.945313	3708.797607	22.983232
361.090485	1304.304321	11863.676758	3731.955322	22.990486
361.454895	1310.259033	11911.866211	3740.446045	22.922817
361.819244	1311.251343	11933.588867	3748.606689	22.945564
362.183594	1308.935791	11933.038086	3746.291016	22.941751
362.547913	1305.958374	11891.907227	3739.454346	22.987982
362.912201	1310.148682	11832.580078	3722.361572	22.924482
363.276489	1311.692383	11753.514648	3705.489502	22.925089
363.640686	1309.045898	11666.289063	3683.986572	22.930239
364.004883	1308.053467	11603.984375	3660.608154	22.849363
364.369049	1307.502075	11540.247070	3639.877197	22.793249
364.733154	1305.627319	11501.651367	3629.291016	22.789898
365.097198	1305.296631	11440.780273	3615.727783	22.795471
365.461273	1304.855469	11349.916992	3595.216797	22.800869
365.825287	1303.863037	11219.022461	3561.914551	22.773729
366.189270	1305.517212	11049.423828	3515.820801	22.683960
366.553223	1306.509644	10853.798828	3465.757080	22.616343
366.917114	1304.083740	10603.810547	3403.122314	22.570971
367.281006	1309.156250	10322.946289	3340.708008	22.538263
367.644867	1308.715088	10066.894531	3279.065918	22.497265
368.008698	1311.251465	9856.163086	3226.686279	22.416086
368.372498	1305.958374	9704.648438	3192.171143	22.458416
368.736237	1305.075928	9600.442383	3169.455078	22.474947
369.099976	1302.429565	9538.358398	3152.472900	22.463081
369.463654	1301.988525	9494.360352	3139.350342	22.427715
369.827332	1302.208862	9463.153320	3131.631348	22.416800
370.190948	1304.193848	9440.435547	3121.817383	22.339842
370.554535	1302.650146	9416.837891	3108.143555	22.251068
370.918091	1301.106445	9393.791016	3101.527344	22.247511
371.281647	1303.091309	9380.999023	3098.549805	22.226776
371.645111	1305.848267	9366.443359	3097.667480	22.229366
372.008575	1305.186523	9363.686523	3102.408936	22.302195
372.371979	1305.406982	9347.367188	3097.005859	22.278137
372.735382	1308.604858	9362.143555	3096.785400	22.203663
373.098724	1308.384155	9392.909180	3106.158203	22.237226
373.462067	1307.501953	9422.242188	3127.441162	22.427572
373.825348	1305.847900	9491.492188	3149.936279	22.528322
374.188599	1304.855347	9567.139648	3172.321777	22.602303
374.551819	1305.517090	9684.690430	3201.323242	22.625216
374.915009	1303.091187	9826.390625	3229.001465	22.595829
375.278168	1303.532227	9977.463867	3260.980713	22.567026
375.641266	1299.672729	10109.459961	3293.621338	22.633335
376.004395	1302.319214	10216.204102	3314.352295	22.571899
376.367462	1305.296631	10289.535156	3328.908447	22.524023
376.730469	1302.980957	10335.959961	3343.354492	22.588049
377.093475	1300.995972	10366.173828	3346.441895	22.563770
377.456421	1299.672852	10399.367188	3350.522217	22.537563
377.819336	1303.201538	10434.763672	3360.666992	22.531361
378.182281	1304.304199	10477.661133	3375.553955	22.578972
378.545135	1306.619873	10523.974609	3377.097900	22.462824
378.907928	1304.965820	10570.621094	3388.676758	22.488544
379.270752	1303.752808	10610.319336	3391.433105	22.432335
379.633484	1304.304077	10644.283203	3397.829346	22.414667
379.996246	1308.604858	10675.931641	3406.320313	22.393959
380.358948	1305.737671	10694.016602	3416.244873	22.480236
380.721558	1306.509521	10717.394531	3419.332275	22.450840
381.084198	1307.281494	10758.856445	3414.701172	22.297020
381.446747	1309.156006	10778.814453	3419.663330	22.287048
381.809326	1310.589722	10797.670898	3414.590820	22.177538
382.171875	1312.574707	10791.716797	3410.620850	22.133289
382.534363	1312.354126	10755.877930	3406.871582	22.179407
382.896790	1311.361572	10704.710938	3395.182617	22.184004
383.259247	1315.441772	10669.204102	3383.824707	22.112843
383.621613	1316.544556	10660.161133	3382.170654	22.107351
383.983948	1316.765015	10687.950195	3388.456543	22.107037
384.346283	1317.647217	10738.124023	3399.262939	22.096714
384.708588	1315.772705	10823.144531	3422.751221	22.161524
385.070831	1320.073242	10899.012695	3442.379395	22.155962
385.433075	1315.662354	10992.963867	3459.691895	22.155241
385.795258	1316.765015	11075.448242	3481.416016	22.181791
386.157440	1312.133667	11151.536133	3505.124268	22.287846
386.519531	1312.795288	11244.496094	3525.193848	22.276127
386.881622	1310.810303	11316.504883	3554.857178	22.427698
387.243683	1310.700073	11391.710938	3571.839355	22.429688
387.605713	1307.391724	11473.091797	3585.071777	22.405542
387.967682	1309.817749	11555.907227	3594.666016	22.299707
388.329651	1307.832886	11652.283203	3617.602783	22.328592
388.691559	1308.053345	11748.441406	3644.398926	22.377958
389.053467	1303.752686	11868.749023	3665.460938	22.354086
389.415314	1301.326782	11987.513672	3696.116699	22.410147
389.777130	1303.752808	12107.820313	3722.692383	22.389156
390.138885	1299.782959	12230.442383	3745.739258	22.377024
390.500641	1300.665039	12323.181641	3765.036377	22.357611
390.862366	1296.584961	12410.408203	3788.083740	22.418016
391.224060	1296.364502	12484.620117	3797.456787	22.354622
391.585693	1297.246704	12571.514648	3808.042725	22.270147
391.947296	1298.569946	12659.623047	3824.142822	22.230095
392.308868	1304.524658	12724.023438	3836.713867	22.174259
392.670441	1304.304077	12789.525391	3848.292725	22.150106
393.031952	1307.171265	12819.077148	3858.217285	22.160065
393.393433	1306.399414	12846.205078	3854.578613	22.081648
393.754883	1308.494507	12861.644531	3851.931885	22.015099
394.116302	1307.502075	12850.395508	3843.440430	21.969694
394.477692	1311.141113	12853.373047	3835.831787	21.873505
394.839020	1310.589722	12852.491211	3825.576904	21.790060
395.200348	1310.589722	12851.718750	3821.276123	21.754253
395.561646	1308.825317	12834.958008	3819.511963	21.782558
395.922882	1312.574585	12799.230469	3804.294189	21.692299
396.284088	1313.787476	12739.682617	3786.540527	21.641655
396.645264	1316.103271	12662.161133	3770.881592	21.635517
397.006409	1316.985474	12567.545898	3752.245605	21.645679
397.367523	1312.905396	12464.992188	3731.293945	21.685526
397.728577	1317.426514	12368.834961	3709.349365	21.643602
398.089600	1319.080688	12297.267578	3690.382813	21.600126
398.450592	1319.631958	12241.248047	3669.982178	21.520168
398.811584	1319.631958	12182.804688	3659.396240	21.538498
399.172546	1317.536865	12098.225586	3644.068115	21.580544
399.533447	1316.323853	12017.835938	3629.291748	21.613468
399.894318	1310.479492	11962.148438	3616.279053	21.647308
400.255127	1308.935791	11911.533203	3606.134277	21.666374
400.615936	1307.502197	11882.752930	3593.673340	21.618126
400.976685	1307.171387	11886.833008	3597.201904	21.645592
401.337433	1305.517212	11916.826172	3604.038574	21.661057
401.698151	1304.745483	11971.852539	3622.013428	21.723490
402.058807	1301.657715	12056.542969	3641.642090	21.757410
402.419434	1299.672729	12151.487305	3677.260010	21.909584
402.780060	1297.467285	12260.105469	3707.253662	21.981810
403.140594	1296.364624	12359.020508	3726.551758	21.967482
403.501129	1292.394775	12453.856445	3750.922363	22.026932
403.861633	1291.181763	12540.641602	3775.402588	22.083021
404.222076	1289.196777	12626.102539	3791.281738	22.070263
404.582550	1287.983765	12698.000000	3797.346680	21.992630
404.942932	1289.307007	12768.574219	3809.917725	21.957941
405.303284	1293.607666	12843.891602	3823.591553	21.904083
405.663605	1292.174316	12899.579102	3839.029785	21.941645
406.023895	1293.056396	12936.077148	3852.262207	21.980600
406.384125	1290.409912	12989.669922	3861.415283	21.975796
406.744354	1290.850952	13056.826172	3879.389404	22.000204
407.104553	1291.291992	13123.429688	3887.439453	21.941492
407.464691	1296.364624	13183.198242	3901.995605	21.920309
407.824829	1296.916016	13253.110352	3913.684570	21.886299
408.184906	1296.805664	13333.279297	3936.291016	21.929058
408.544922	1298.129028	13397.016602	3949.412842	21.913450
408.904938	1299.562500	13444.985352	3959.668213	21.902124
409.264923	1300.224121	13466.709961	3962.314697	21.880522
409.624847	1298.239258	13452.485352	3953.603516	21.847216
409.984802	1301.437256	13428.113281	3943.237305	21.785030
410.344666	1303.091187	13393.708008	3924.490967	21.681274
410.704529	1305.076050	13355.223633	3921.293213	21.711081
411.064331	1307.612305	13323.023438	3915.228027	21.702259
411.424133	1306.399414	13317.508789	3903.539063	21.622812
411.783875	1306.509644	13312.107422	3901.554199	21.615288
412.143555	1310.369263	13321.479492	3907.509033	21.622810
412.503235	1308.274048	13338.792969	3908.501465	21.613594
412.862885	1304.635010	13348.716797	3912.912598	21.656094
413.222473	1305.406860	13404.625000	3921.072510	21.618467
413.582062	1303.642578	13483.800781	3929.563721	21.559008
413.941559	1302.870605	13553.383789	3939.046875	21.518904
414.301086	1304.855591	13638.513672	3958.344238	21.514208
414.660522	1306.399414	13709.198242	3976.759766	21.530304
415.019958	1303.863037	13795.209961	3993.631592	21.533054
415.379364	1302.429688	13906.364258	4017.120117	21.538437
415.738708	1300.555054	14027.223633	4031.124512	21.455492
416.098053	1300.996216	14169.366211	4063.655518	21.468601
416.457336	1300.996094	14353.409180	4103.684082	21.472567
416.816559	1302.870728	14553.443359	4146.911133	21.463530
417.175812	1306.840454	14794.830078	4210.869141	21.530479
417.535004	1302.319336	15084.958008	4265.894531	21.502234
417.894135	1306.289063	15413.351563	4340.880371	21.511150
418.253265	1303.091187	15806.914063	4420.166504	21.491404
418.612335	1300.775513	16211.945313	4506.510254	21.498882
418.971405	1302.870728	16630.541016	4601.564941	21.521173
419.330414	1304.304077	17066.005859	4699.155762	21.538610
419.689423	1303.642334	17500.701172	4794.431641	21.551996
420.048370	1306.178711	17901.873047	4894.338867	21.621029
420.407257	1306.619751	18312.748047	4983.438965	21.620554
420.766144	1307.281372	18696.716797	5059.306641	21.576464
421.125000	1310.479370	19089.509766	5149.178711	21.591160
421.483795	1311.692383	19479.652344	5245.226074	21.650936
421.842560	1309.817749	19892.181641	5334.988281	21.661240
422.201324	1305.627563	20295.669922	5422.434082	21.678764
422.560028	1306.730225	20666.406250	5503.153809	21.676105
422.918671	1310.259033	21005.935547	5580.013184	21.678637
423.277283	1307.281494	21295.291016	5654.447266	21.748869
423.635925	1306.950806	21519.697266	5704.069824	21.754190
423.994476	1306.178833	21684.664063	5744.099121	21.777481
424.353027	1301.437134	21815.447266	5770.454102	21.785194
424.711487	1299.562500	21918.664063	5778.393066	21.721754
425.069946	1303.422119	21966.853516	5788.979980	21.707708
425.428375	1300.003662	21932.335938	5784.128418	21.733486
425.786743	1302.980957	21839.044922	5758.655273	21.696827
426.145081	1302.650146	21688.634766	5725.353027	21.694822
426.503418	1303.201538	21511.423828	5681.685059	21.666842
426.861725	1303.642578	21295.402344	5630.187500	21.641642
427.219971	1305.958252	21063.716797	5578.580566	21.625034
427.578186	1305.737671	20870.742188	5532.486328	21.603617
427.936371	1306.509521	20683.941406	5490.030762	21.589659
428.294495	1304.524658	20465.931641	5444.929688	21.608046
428.652618	1305.406982	20213.738281	5390.564941	21.605068
429.010712	1308.604858	19949.083984	5323.188477	21.536913
429.368744	1307.502197	19655.095703	5254.157715	21.510481
429.726746	1309.266479	19377.318359	5190.420898	21.480757
430.084717	1308.163818	19099.431641	5125.249023	21.454824
430.442688	1307.060913	18835.882813	5061.401367	21.418098
430.800568	1309.376709	18608.390625	5007.037109	21.374979
431.158417	1306.840454	18434.820313	4966.457031	21.366306
431.516235	1306.068604	18281.431641	4926.647949	21.328436
431.874023	1311.692505	18144.582031	4897.645996	21.303257
432.231812	1313.567261	18015.671875	4870.739746	21.297749
432.589508	1312.574707	17917.308594	4847.472656	21.288494
432.947205	1313.015869	17823.136719	4824.756348	21.270229
433.304840	1313.015747	17743.410156	4809.538574	21.280821
433.662476	1316.213623	17696.322266	4794.762695	21.236423
434.020050	1314.890381	17657.066406	4787.705078	21.250626
434.377594	1312.795166	17623.541016	4779.214355	21.252365
434.735138	1308.825195	17599.613281	4770.172363	21.247267
435.092621	1308.935669	17586.931641	4749.551270	21.136604
435.450043	1307.612305	17582.742188	4742.162598	21.103060
435.807465	1309.707520	17606.451172	4750.212891	21.111612
436.164856	1308.053345	17642.402344	4759.696289	21.131195
436.522156	1303.973267	17711.433594	4772.928711	21.142550
436.879486	1305.737671	17791.822266	4784.728027	21.102587
437.236755	1306.840454	17887.759766	4801.709961	21.077658
437.593994	1306.730225	17994.613281	4819.573730	21.050264
437.951172	1304.635010	18134.107422	4851.222168	21.073668
438.308380	1308.053467	18255.406250	4867.321777	21.001913
438.665497	1306.840454	18378.800781	4894.669434	21.015917
439.022583	1309.266602	18541.562500	4929.184570	21.006590
439.379608	1306.399414	18692.748047	4963.479492	21.034204
439.736633	1303.973389	18803.460938	4985.313477	21.036844
440.093628	1303.311646	18901.603516	5010.125488	21.063488
440.450562	1302.098633	18996.988281	5020.380371	21.013308
440.807495	1300.003540	19074.402344	5035.046387	21.013611
441.164368	1297.687866	19164.937500	5055.005371	21.029076
441.521210	1294.820679	19226.908203	5061.732422	21.006542
441.878021	1295.813232	19294.947266	5080.147461	21.025089
442.234833	1294.820801	19409.521484	5101.320313	21.013317
442.591522	1293.056274	19506.119141	5126.131836	21.045750
442.948242	1294.379517	19605.806641	5140.577148	21.004358
443.304901	1289.748169	19723.906250	5161.198730	21.001505
443.661530	1290.961060	19876.414063	5178.511230	20.917168
444.018127	1295.372070	20038.294922	5216.444824	20.920286
444.374664	1293.717773	20193.007813	5257.025391	20.970671
444.731201	1294.710327	20324.121094	5284.152344	20.964611
445.087738	1294.159058	20459.091797	5318.447266	20.998184
445.444183	1294.048950	20529.777344	5330.797852	20.985683
445.800598	1288.535278	20607.960938	5347.448242	21.009491
446.156982	1294.710449	20632.111328	5352.630859	20.984829
446.513336	1294.379639	20623.511719	5347.117676	20.966993
446.869598	1296.143921	20639.279297	5336.421387	20.887398
447.225891	1296.254272	20655.710938	5342.707031	20.901684
447.582153	1298.569946	20644.904297	5334.546387	20.861712
447.938354	1298.900757	20658.910156	5350.205566	20.926149
448.294495	1300.113892	20673.464844	5352.741699	20.918570
448.650665	1300.775269	20647.441406	5346.125977	20.909807
449.006775	1304.304199	20650.308594	5352.962891	20.927622
449.362823	1304.634888	20653.947266	5350.205566	20.908085
449.718842	1306.068604	20646.886719	5347.338379	20.895029
450.074860	1303.201416	20633.435547	5344.471191	20.906471
450.430817	1299.121338	20615.460938	5345.463379	20.947767
450.786713	1303.091187	20522.720703	5329.143555	20.947607
451.142578	1302.429443	20414.103516	5309.625000	20.967266
451.498444	1299.672852	20259.611328	5271.471191	20.948372
451.854248	1298.790649	20091.447266	5226.368652	20.899536
452.210022	1296.364624	19887.664063	5176.746094	20.872030
452.565765	1297.687866	19641.093750	5118.963379	20.831875
452.921478	1298.790527	19413.382813	5069.230469	20.814381
453.277191	1300.665039	19194.601563	5028.098633	20.830706
453.632813	1293.717896	19016.619141	4981.785156	20.809616
453.988434	1291.953491	18836.214844	4940.763184	20.797737
454.343964	1291.512451	18654.484375	4905.696289	20.815468
454.699524	1291.512451	18502.417969	4865.446777	20.765520
455.054993	1289.858398	18362.921875	4837.327148	20.778164
455.410400	1292.946045	18256.728516	4808.877441	20.726105
455.765839	1292.505005	18209.533203	4795.865234	20.709078
456.121216	1291.843384	18214.494141	4795.313965	20.702848
456.476593	1290.850952	18258.162109	4807.333496	20.725042
456.831909	1292.505005	18381.447266	4833.467773	20.720785
457.187195	1290.299438	18541.011719	4870.299316	20.752766
457.542450	1292.725586	18748.433594	4913.525879	20.742788
457.897644	1294.049072	18936.558594	4958.958496	20.773174
458.252808	1294.710571	19188.201172	5006.927246	20.746185
458.607971	1291.733398	19381.619141	5050.815430	20.780020
458.963013	1290.079224	19505.677734	5075.406250	20.780691
459.318085	1288.755859	19596.982422	5094.152832	20.785175
459.673096	1285.116821	19666.013672	5119.625488	20.861382
460.028076	1286.440063	19745.630859	5136.828125	20.858921
460.383057	1284.786133	19806.941406	5151.053711	20.873745
460.737976	1287.983887	19834.839844	5147.855469	20.811460
461.092865	1292.725586	19855.791016	5152.045898	20.790318
461.447723	1296.916016	19856.453125	5154.802246	20.786543
461.802551	1298.239258	19856.453125	5152.045898	20.766041
462.157288	1297.467407	19858.546875	5151.935059	20.766397
462.512054	1300.224121	19875.419922	5154.691895	20.750618
462.866760	1298.349487	19855.460938	5150.281250	20.757174
463.221405	1300.224121	19807.162109	5135.834961	20.725260
463.576019	1303.091187	19712.216797	5125.910645	20.765894
463.930603	1302.539917	19614.736328	5099.445313	20.734297
464.285156	1299.121338	19475.904297	5059.526855	20.687960
464.639709	1298.128906	19264.953125	5009.903809	20.659048
464.994171	1297.908203	19023.126953	4947.379395	20.589146
465.348633	1296.584961	18747.886719	4884.083496	20.557198
465.703033	1295.923462	18464.816406	4823.543457	20.546579
466.057434	1298.790649	18214.716797	4770.613281	20.523989
466.411774	1299.562622	18037.949219	4734.664063	20.522297
466.766083	1301.106445	17885.222656	4706.434082	20.533669
467.120331	1305.737793	17779.470703	4679.968750	20.482492
467.474548	1301.106445	17689.046875	4656.149902	20.472635
467.828735	1303.752930	17619.908203	4645.674316	20.482285
468.182922	1304.083740	17569.181641	4638.836914	20.502510
468.537048	1303.752808	17523.308594	4627.589355	20.492771
468.891144	1301.878296	17492.320313	4612.922852	20.450611
469.245178	1301.878174	17462.218750	4610.606934	20.474375
469.599213	1302.539917	17443.248047	4609.283691	20.486980
469.953186	1298.680298	17429.464844	4600.682129	20.470188
470.307129	1296.805664	17448.871094	4594.728027	20.417961
470.661041	1296.364624	17470.375000	4597.153809	20.407982
471.014923	1294.159180	17540.398438	4601.233398	20.355936
471.368713	1291.402344	17554.513672	4595.719727	20.317867
471.722504	1291.733154	17527.056641	4597.374512	20.360798
472.076294	1294.159180	17506.875000	4587.339844	20.312332
472.429993	1294.820679	17450.636719	4585.905762	20.370899
472.783722	1298.680298	17445.673828	4577.525391	20.306229
473.137329	1298.900757	17468.169922	4576.863281	20.272793
473.490967	1297.136353	17501.912109	4579.178711	20.253551
473.844543	1299.893188	17586.824219	4589.434082	20.197428
474.198090	1304.304077	17671.072266	4594.727539	20.104294
474.551605	1302.319214	17800.201172	4612.371094	20.063494
474.905060	1308.384155	17940.027344	4639.939941	20.031429
475.258484	1308.935547	18086.910156	4661.663086	19.982910
475.611877	1306.178711	18251.660156	4687.687988	19.955229
475.965240	1308.273926	18447.281250	4726.724121	19.945438
476.318573	1309.266235	18634.302734	4772.266602	19.988417
476.671844	1309.597168	18851.650391	4811.854004	19.964920
477.025116	1311.912964	19080.025391	4851.331543	19.920057
477.378326	1311.582275	19312.589844	4899.631348	19.932489
477.731506	1315.882690	19547.250000	4951.459473	19.941328
478.084656	1316.323975	19827.232422	5001.854004	19.910044
478.437744	1317.867554	20118.792969	5048.499023	19.842806
478.790833	1320.844971	20460.417969	5124.808105	19.874859
479.143890	1321.506836	20876.585938	5196.375000	19.815151
479.496826	1319.191040	21361.125000	5300.472656	19.864759
479.849823	1318.308838	22011.734375	5435.556152	19.896402
480.202728	1315.441650	22825.765625	5596.774902	19.903620
480.555603	1315.110840	23823.623047	5795.596191	19.905739
480.908478	1315.441772	25161.562500	6065.213379	19.918425
481.261292	1316.985596	26807.597656	6414.887695	19.999138
481.614075	1312.574707	28644.851563	6847.377441	20.250061
481.966797	1312.464355	30482.433594	7299.053711	20.523127
482.319489	1309.045898	32214.595703	7700.334961	20.680069
482.672150	1305.296631	33764.917969	8037.328125	20.739710
483.024780	1306.730103	35107.265625	8311.024414	20.722437
483.377350	1302.870605	36224.988281	8533.333008	20.704536
483.729919	1298.018677	37244.351563	8733.919922	20.686119
484.082428	1299.011108	38192.691406	8925.573242	20.671730
484.434937	1295.702881	39178.636719	9133.105469	20.688478
484.787384	1295.151489	40234.167969	9343.617188	20.669413
485.139771	1292.725586	41388.390625	9589.304688	20.691961
485.492157	1292.835815	42569.632813	9832.786133	20.689468
485.844482	1293.387207	43648.093750	10057.742188	20.692755
486.196777	1294.710449	44636.695313	10255.020508	20.673513
486.549072	1296.033813	45404.960938	10416.018555	20.676052
486.901276	1296.695313	45975.839844	10527.833984	20.660957
487.253448	1298.239258	46288.355469	10581.537109	20.634083
487.605591	1302.208984	46303.132813	10586.609375	20.631578
487.957703	1299.672607	46083.031250	10546.360352	20.647596
488.309784	1299.562378	45554.933594	10431.566406	20.634792
488.661835	1296.033691	44797.800781	10255.129883	20.594786
489.013855	1298.349365	44004.054688	10032.048828	20.450895
489.365814	1299.231567	43266.445313	9808.416016	20.275791
489.717743	1303.532349	42634.578125	9633.413086	20.154053
490.069611	1305.186401	42050.355469	9484.876953	20.075241
490.421509	1304.965820	41502.742188	9378.794922	20.085262
490.773315	1302.981079	41014.894531	9278.446289	20.083305
491.125092	1306.619995	40491.542969	9170.599609	20.068892
491.476807	1304.524780	39882.945313	9036.948242	20.043390
491.828522	1307.612305	39140.375000	8876.060547	20.005011
492.180176	1309.707520	38236.800781	8687.714844	19.979929
492.531830	1309.156128	37205.195313	8462.096680	19.926825
492.883423	1306.178711	36045.132813	8226.665039	19.921402
493.234985	1304.745239	34956.851563	8017.147461	19.946455
493.586487	1304.965698	33935.281250	7802.997559	19.914093
493.937988	1305.296509	33071.078125	7621.600586	19.883987
494.289429	1307.391846	32372.283203	7479.458984	19.868305
494.640869	1306.950562	31790.261719	7359.593750	19.855597
494.992218	1303.752808	31337.705078	7263.435059	19.843149
495.343567	1308.053345	30892.642578	7169.372559	19.812069
495.694855	1309.266479	30385.390625	7065.605469	19.797476
496.046112	1310.589722	29761.578125	6940.447266	19.787914
496.397339	1310.479492	28948.871094	6780.220215	19.790373
496.748535	1314.008179	28032.728516	6590.551270	19.748487
497.099670	1311.030884	27087.691406	6388.532715	19.698059
497.450806	1309.817871	26246.529297	6213.860352	19.665955
497.801880	1306.840576	25569.789063	6064.220215	19.607592
498.152924	1311.582275	24976.521484	5943.251465	19.571861
498.503937	1313.897827	24514.037109	5851.946289	19.560436
498.854889	1314.449219	24176.052734	5790.745117	19.579973
499.205841	1312.243774	23892.431641	5734.505859	19.584702
499.556702	1311.140991	23686.552734	5686.757324	19.555466
499.907562	1307.943115	23485.634766	5644.192383	19.552301
500.258362	1310.148560	23315.595703	5607.361328	19.527950
500.609161	1309.707520	23158.457031	5558.290039	19.445427
500.959900	1308.494507	22990.400391	5520.245605	19.425188
501.310608	1307.171265	22819.037109	5485.068359	19.421360
501.661255	1307.171265	22611.285156	5440.628906	19.402157
502.011902	1309.266602	22391.291016	5396.520020	19.387386
502.362488	1311.913086	22170.857422	5351.969727	19.368462
502.713043	1309.487061	21960.457031	5312.161621	19.382502
503.063568	1309.817871	21776.964844	5277.094727	19.383635
503.414063	1310.369263	21571.416016	5239.822754	19.394129
503.764496	1309.487061	21409.425781	5200.345215	19.357561
504.114899	1307.722656	21250.632813	5162.852539	19.330830
504.465271	1306.950684	21128.449219	5143.334473	19.354662
504.815613	1310.699951	21029.423828	5128.778320	19.362705
505.165894	1314.559570	20931.613281	5104.959473	19.321962
505.516174	1314.890381	20892.464844	5088.197754	19.273621
505.866394	1313.125977	20881.437500	5081.471191	19.257385
506.216583	1311.802856	20873.714844	5073.751953	19.230989
506.566711	1311.802734	20907.458984	5072.869629	19.193371
506.916840	1310.810303	20949.033203	5089.631348	19.242174
507.266907	1311.251343	21002.847656	5105.841797	19.270102
507.616882	1312.464355	21083.457031	5129.329590	19.305380
507.966858	1310.589966	21133.298828	5140.908691	19.322884
508.316803	1311.251587	21188.214844	5153.039063	19.327841
508.666748	1311.030884	21251.291016	5173.217773	19.368790
509.016632	1309.707642	21313.376953	5188.436035	19.390085
509.366486	1309.046021	21402.917969	5199.683594	19.362310
509.716309	1306.840454	21490.474609	5218.540527	19.380554
510.066040	1308.715088	21588.066406	5230.560059	19.339104
510.415771	1308.935669	21689.849609	5257.687500	19.374754
510.765503	1303.863037	21797.253906	5273.235840	19.369040
511.115173	1302.870483	21897.271484	5285.035156	19.336151
511.464752	1302.650024	21996.625000	5304.222656	19.336899
511.814270	1304.965820	22078.666016	5314.257324	19.299845
512.163818	1302.980835	22163.134766	5323.961426	19.275890
512.513306	1300.444580	22225.990234	5348.221191	19.343710
512.862793	1297.797974	22280.796875	5356.602051	19.343300
513.212219	1294.931030	22320.494141	5358.696777	19.327738
513.561646	1295.482178	22372.982422	5376.670898	19.362774
513.911011	1294.710449	22402.203125	5390.013672	19.402130
514.260315	1298.128906	22437.380859	5400.600098	19.406889
514.609558	1299.893188	22506.414063	5413.832520	19.399406
514.958801	1300.665283	22600.585938	5417.471680	19.327803
515.308044	1304.193970	22745.705078	5445.921875	19.316399
515.657227	1303.311890	22949.488281	5483.744629	19.312569
516.006348	1307.171387	23197.712891	5524.876953	19.267252
516.355408	1308.935669	23468.322266	5575.822754	19.255440
516.704529	1306.950684	23702.210938	5626.437500	19.287504
517.053467	1310.810181	23927.384766	5669.002930	19.269907
517.402466	1309.817627	24100.404297	5706.937012	19.293577
517.751404	1310.589600	24227.660156	5729.653809	19.282850
518.100281	1315.882813	24354.253906	5762.184570	19.299549
518.449219	1316.764893	24445.224609	5789.642578	19.339283
518.798035	1314.228638	24541.933594	5807.837402	19.345901
519.146851	1311.471924	24637.761719	5822.834473	19.340248
519.495544	1311.582275	24703.267578	5838.052246	19.350763
519.844299	1311.582031	24792.478516	5855.364746	19.350977
520.192932	1310.589600	24892.824219	5880.066406	19.376776
520.541626	1311.912964	24987.878906	5895.834961	19.361076
520.890198	1313.236084	25089.660156	5908.516602	19.327045
521.238770	1315.993042	25211.404297	5919.433594	19.264956
521.587280	1313.897827	25350.234375	5939.612793	19.244675
521.935791	1315.000488	25468.556641	5952.845215	19.201498
522.284180	1312.905273	25587.652344	5983.170898	19.239195
522.632629	1310.810181	25735.308594	6007.319824	19.228685
522.981018	1313.346436	25881.085938	6034.777832	19.218014
523.329346	1309.376709	26049.583984	6070.947754	19.246286
523.677551	1312.795288	26239.253906	6102.596191	19.215729
524.025818	1310.810303	26502.146484	6146.263672	19.194906
524.374023	1305.848267	26813.333984	6197.761230	19.178343
524.722229	1304.304443	27208.441406	6278.039551	19.200544
525.070374	1302.760376	27733.115234	6375.189941	19.191681
525.418457	1301.878174	28432.574219	6506.303711	19.182795
525.766541	1303.532227	29419.845703	6693.325684	19.169632
526.114563	1305.406860	30673.535156	6944.416504	19.201120
526.462585	1304.414429	32059.880859	7237.852051	19.292301
526.810547	1302.319214	33429.792969	7528.971191	19.381081
527.158447	1303.311523	34649.191406	7771.459961	19.397144
527.506348	1306.509521	35670.535156	7972.266602	19.397484
527.854065	1305.406860	36507.835938	8135.910645	19.403502
528.201904	1305.296631	37179.289063	8260.959961	19.389153
528.549622	1304.965820	37700.105469	8367.482422	19.405109
528.897339	1304.965820	38087.820313	8439.380859	19.396034
529.245056	1305.848022	38392.945313	8492.310547	19.377258
529.592712	1304.965942	38621.097656	8529.363281	19.359983
529.940369	1302.209106	38808.785156	8566.083984	19.366938
530.287903	1298.239258	39002.093750	8601.040039	19.368843
530.635437	1300.003662	39242.042969	8641.952148	19.350431
530.982910	1296.254272	39534.929688	8697.418945	19.355181
531.330383	1298.349487	39778.742188	8752.225586	19.370581
531.677795	1296.364624	39893.535156	8782.880859	19.396540
532.025208	1296.805664	39896.734375	8773.176758	19.368872
532.372498	1296.144043	39700.453125	8727.745117	19.350956
532.719788	1294.379639	39259.023438	8632.580078	19.329037
533.067078	1295.261841	38522.738281	8494.739258	19.339149
533.414307	1297.577637	37499.183594	8291.835938	19.320299
533.761536	1299.782959	36364.812500	8049.897949	19.250277
534.108643	1298.790649	35301.566406	7811.930176	19.154728
534.455811	1298.349487	34402.292969	7629.429199	19.124849
534.802856	1298.459717	33658.390625	7476.481445	19.091578
535.149902	1300.996094	33076.042969	7360.805664	19.070971
535.496887	1300.665161	32572.203125	7266.412109	19.077242
535.843811	1298.790527	32153.277344	7184.258789	19.074919
536.190796	1300.113892	31807.683594	7114.566895	19.059050
536.537659	1300.885742	31473.228516	7063.290039	19.098299
536.884460	1301.216553	31187.402344	7009.256836	19.099258
537.231323	1303.973267	30885.589844	6949.599121	19.084913
537.578064	1306.950806	30573.738281	6898.101074	19.104080
537.924805	1308.274048	30209.177734	6827.527344	19.097166
538.271423	1307.502197	29892.691406	6768.089844	19.102858
538.618164	1308.935547	29722.433594	6720.121094	19.044418
538.964783	1312.795288	29751.984375	6730.267090	19.049318
539.311279	1312.354126	29938.345703	6771.178711	19.069469
539.657776	1313.787720	30217.447266	6822.454590	19.058718
540.004333	1312.023193	30474.714844	6877.150391	19.083036
540.350769	1311.030762	30722.937500	6914.201660	19.050690
540.697144	1310.920410	30910.619141	6939.233398	19.014765
541.043518	1307.501953	31016.039063	6961.177246	19.030474
541.389893	1307.832764	30991.449219	6964.264648	19.055737
541.736145	1312.243652	30870.919922	6929.530273	19.003851
542.082458	1311.030762	30728.115234	6903.616699	19.011354
542.428711	1313.677490	30558.958984	6870.424316	19.000490
542.774902	1311.030884	30414.613281	6838.114746	18.991077
543.121033	1314.559570	30309.851563	6821.903809	18.993925
543.467102	1315.772705	30228.580078	6799.298340	18.965733
543.813171	1314.449341	30173.115234	6777.685059	18.931005
544.159180	1314.118530	30124.265625	6772.833496	18.947195
544.505127	1316.103394	30064.390625	6757.614746	18.928123
544.851135	1315.882813	29946.505859	6732.582520	18.919252
545.197021	1314.228760	29733.347656	6679.981934	18.880785
545.542908	1312.574585	29327.765625	6603.011719	18.884172
545.888733	1313.125977	28734.279297	6497.701660	18.907213
546.234558	1312.574585	27955.421875	6335.380859	18.852362
546.580322	1314.449219	27086.472656	6162.473633	18.811190
546.926025	1314.449219	26190.398438	5988.022461	18.787518
547.271667	1315.331421	25366.664063	5825.812012	18.753557
547.617371	1312.464233	24569.062500	5679.480469	18.777536
547.962952	1309.376709	23836.634766	5542.631836	18.791700
548.308533	1316.875244	23176.984375	5411.627930	18.731621
548.654053	1318.749878	22597.058594	5295.951660	18.691343
548.999573	1316.985596	22105.242188	5203.211914	18.694336
549.344971	1317.426514	21676.394531	5124.036621	18.697460
549.690430	1313.456787	21303.451172	5052.580078	18.704975
550.035767	1313.897827	20995.458984	4995.899414	18.707874
550.381104	1314.338867	20720.439453	4938.998535	18.677938
550.726440	1308.715088	20440.898438	4888.162598	18.709038
551.071655	1308.053345	20193.007813	4841.296875	18.709305
551.416931	1305.737671	19905.525391	4781.418945	18.686672
551.762085	1305.958130	19601.064453	4722.202148	18.672995
552.107178	1303.752686	19293.402344	4654.936523	18.628399
552.452332	1302.539795	18985.742188	4600.792969	18.651899
552.797424	1304.304077	18713.041016	4543.671387	18.607710
553.142395	1299.011108	18451.914063	4495.703125	18.636450
553.487366	1300.113770	18255.408203	4461.849121	18.647480
553.832336	1301.106323	18065.296875	4431.854980	18.675213
554.177185	1299.782959	17916.652344	4409.800781	18.716028
554.522095	1301.326782	17807.810547	4384.878906	18.680855
554.866943	1304.745361	17704.042969	4364.919434	18.660398
555.211731	1306.068604	17624.757813	4351.797852	18.664055
555.556396	1300.885742	17547.566406	4341.321289	18.714195
555.901123	1302.760376	17476.771484	4330.183594	18.717827
556.245789	1303.201538	17389.656250	4318.935547	18.747038
556.590454	1305.406860	17291.294922	4296.991699	18.713913
556.934998	1303.642700	17206.494141	4280.450684	18.718706
557.279541	1307.722656	17093.353516	4261.373535	18.711010
557.624023	1306.620117	16953.750000	4237.554688	18.731451
557.968567	1311.361694	16822.525391	4218.367676	18.741377
558.312988	1313.567017	16687.994141	4196.644043	18.752420
558.657349	1316.213745	16581.359375	4178.779297	18.752296
559.001770	1315.000732	16496.228516	4167.862305	18.792034
559.346069	1317.757568	16420.470703	4154.078125	18.780207
559.690308	1318.970459	16366.767578	4145.477051	18.783524
560.034485	1318.529541	16310.417969	4128.826172	18.745447
560.378723	1321.727173	16279.982422	4119.342773	18.702822
560.722900	1318.970459	16237.306641	4111.513672	18.718864
561.067017	1315.662354	16214.701172	4097.178711	18.669100
561.411072	1315.110962	16186.361328	4090.893311	18.665426
561.755127	1317.206055	16158.242188	4091.333984	18.692280
562.099182	1316.213745	16149.860352	4089.238525	18.694155
562.443115	1316.103394	16154.382813	4087.804688	18.679398
562.787048	1318.198486	16166.845703	4095.634277	18.704975
563.130920	1317.536865	16204.117188	4100.927246	18.697313
563.474792	1314.559570	16275.242188	4114.049316	18.712313
563.818604	1309.817749	16366.658203	4126.290039	18.705599
564.162354	1314.890259	16455.423828	4148.454102	18.715088
564.506042	1312.133545	16567.021484	4159.591309	18.665873
564.849731	1311.582153	16664.722656	4173.927246	18.643385
565.193420	1309.376709	16735.189453	4190.578613	18.677797
565.537048	1304.304077	16789.001953	4194.438477	18.664454
565.880615	1304.965820	16818.666016	4201.055176	18.667948
566.224121	1303.201416	16827.597656	4197.084961	18.640877
566.567627	1303.642578	16828.146484	4202.929199	18.675550
566.911072	1306.509766	16823.736328	4206.568359	18.689285
567.254517	1305.848022	16856.265625	4210.647949	18.679882
567.597839	1307.612305	16881.408203	4215.610840	18.672380
567.941223	1305.847900	16914.271484	4222.337402	18.685356
568.284485	1305.186401	16938.753906	4229.725586	18.706793
568.627808	1306.289063	17000.615234	4243.178711	18.713066
568.970947	1304.855591	17070.197266	4257.403809	18.728096
569.314148	1310.589600	17146.837891	4266.335938	18.664436
569.657288	1314.449341	17232.078125	4273.503418	18.589792
570.000366	1315.772461	17313.900391	4283.648926	18.551399
570.343445	1316.213745	17378.958984	4289.824219	18.512466
570.686462	1319.301392	17399.359375	4292.140137	18.487738
571.029419	1319.521851	17410.937500	4295.668945	18.495247
571.372314	1314.559570	17389.546875	4290.707031	18.514151
571.715210	1314.780029	17336.173828	4290.265625	18.571953
572.058105	1315.441650	17284.566406	4279.679688	18.562307
572.400879	1318.308716	17266.921875	4265.785156	18.481083
572.743713	1316.985474	17250.712891	4268.211426	18.521881
573.086426	1315.882813	17256.779297	4263.799805	18.492792
573.429077	1315.993042	17280.599609	4272.070313	18.516443
573.771790	1313.456787	17288.978516	4265.123535	18.476185
574.114441	1308.825317	17280.158203	4259.168457	18.472742
574.457031	1309.376709	17246.634766	4256.191406	18.490099
574.799561	1306.399414	17192.378906	4245.825684	18.503273
575.142029	1312.684937	17144.080078	4229.725586	18.425669
575.484436	1316.103271	17057.294922	4214.507813	18.412867
575.826904	1311.471802	16940.076172	4191.681641	18.429092
576.169250	1314.890381	16794.847656	4166.208496	18.419418
576.511597	1309.266357	16627.013672	4132.795898	18.433060
576.853943	1303.863037	16422.126953	4098.611328	18.485909
577.196167	1302.980835	16207.315430	4055.605225	18.468616
577.538391	1300.885742	15981.145508	4021.090088	18.529675
577.880554	1295.923462	15774.605469	3976.098877	18.511183
578.222717	1297.798096	15546.340820	3937.503418	18.526142
578.564819	1298.459717	15335.276367	3892.291748	18.478777
578.906860	1297.798096	15149.357422	3852.483154	18.443302
579.248901	1294.489990	14957.482422	3817.967529	18.469435
579.590942	1292.505005	14756.014648	3784.996338	18.512938
579.932861	1296.474854	14573.073242	3744.526123	18.438843
580.274780	1295.813232	14376.127930	3707.474609	18.437334
580.616638	1297.577515	14177.304688	3666.011963	18.388857
580.958496	1300.665161	13971.095703	3630.173828	18.385395
581.300232	1301.988525	13802.267578	3599.297363	18.378059
581.641968	1302.760376	13638.404297	3574.155029	18.413263
581.983704	1300.885620	13495.599609	3546.365967	18.413555
582.325317	1296.915771	13360.736328	3527.509766	18.489946
582.666992	1296.474731	13243.408203	3508.322266	18.513937
583.008606	1298.018555	13132.584961	3487.701660	18.502436
583.350098	1295.482300	13037.419922	3465.867188	18.484043
583.691589	1294.710449	12956.919922	3452.303467	18.500723
584.033081	1295.813232	12896.602539	3441.386475	18.495064
584.374512	1293.276978	12835.179688	3425.397217	18.472866
584.715881	1293.607666	12787.429688	3407.312500	18.389921
585.057190	1291.512451	12741.335938	3398.380615	18.400879
585.398499	1289.086548	12694.800781	3391.102783	18.429501
585.739807	1291.071655	12657.087891	3389.117676	18.458937
586.081055	1291.622803	12628.416992	3384.486572	18.460808
586.422180	1291.622803	12602.281250	3384.596680	18.504438
586.763367	1289.637939	12593.017578	3384.266113	18.530991
587.104431	1289.196777	12593.017578	3390.110107	18.585871
587.445496	1290.189331	12597.098633	3394.852051	18.613951
587.786499	1287.211914	12592.797852	3398.821777	18.677580
588.127502	1283.021484	12621.468750	3407.423096	18.736265
588.468445	1284.234619	12627.754883	3407.202393	18.715246
588.809326	1284.124390	12634.040039	3404.114502	18.678467
589.150208	1287.322266	12639.332031	3405.769043	18.661425
589.491028	1290.740723	12626.099609	3401.799072	18.623655
589.831848	1290.299683	12624.998047	3395.623779	18.574154
590.172546	1291.291992	12613.971680	3388.566162	18.522772
590.513245	1289.307251	12605.810547	3382.391113	18.495855
590.853943	1289.307251	12610.994141	3383.604248	18.498100
591.194458	1290.189331	12623.235352	3380.847412	18.447453
591.535095	1288.645508	12624.227539	3379.193359	18.442350
591.875610	1289.527588	12644.406250	3382.942627	18.436260
592.216125	1291.622803	12648.376953	3386.030029	18.441954
592.556580	1291.071411	12667.343750	3387.573975	18.428730
592.897034	1287.763184	12700.867188	3388.125732	18.403080
593.237366	1287.652954	12718.510742	3395.403564	18.439129
593.577698	1288.535156	12771.110352	3400.145020	18.389688
593.918030	1289.307007	12819.409180	3409.959473	18.392311
594.258301	1292.284302	12873.332031	3420.214600	18.374245
594.598511	1292.063843	12952.838867	3431.021240	18.343184
594.938721	1294.379639	13037.417969	3445.797607	18.320795
595.278809	1299.231567	13118.026367	3455.501953	18.244419
595.618958	1298.790527	13172.391602	3466.087891	18.253075
595.958984	1299.011108	13228.298828	3470.608887	18.203917
596.299011	1302.098633	13252.007813	3470.167725	18.142975
596.638977	1299.011108	13278.141602	3473.696777	18.153952
596.978943	1297.908447	13289.832031	3475.130127	18.155733
597.318848	1300.665161	13285.533203	3476.343262	18.153543
597.658630	1300.113770	13271.526367	3475.240723	18.169344
597.998474	1298.128662	13238.885742	3467.631592	18.168890
598.338257	1297.356934	13184.189453	3467.632080	18.257809
598.677979	1298.680298	13151.439453	3467.852295	18.300987
599.017700	1297.026245	13096.192383	3457.927490	18.314018
599.357361	1300.444580	13052.415039	3445.577393	18.253387
599.696960	1305.737671	13013.156250	3433.668213	18.175917
600.036560	1307.171265	12965.298828	3427.271973	18.185600
600.376038	1303.973389	12926.591797	3415.914063	18.170954
600.715576	1303.422119	12884.029297	3404.997070	18.147364
601.055054	1302.870850	12840.801758	3395.954590	18.140894
601.394409	1301.878174	12806.395508	3384.155762	18.099651
601.733826	1303.752930	12760.414063	3372.907715	18.060715
602.073120	1301.878296	12756.113281	3367.283936	18.031809
602.412415	1297.577515	12743.873047	3360.777588	18.025047
602.751587	1296.915894	12771.220703	3368.496582	18.054083
603.090820	1298.459839	12801.544922	3376.767090	18.067389
603.429993	1293.166748	12848.080078	3389.338135	18.140953
603.769104	1292.063965	12883.807617	3394.521240	18.137541
604.108154	1293.828369	12909.392578	3400.916992	18.140217
604.447205	1296.144165	12946.553711	3410.731445	18.150328
604.786194	1298.349487	12976.877930	3416.354980	18.135893
605.125183	1302.319336	13007.534180	3418.891357	18.082300
605.464111	1300.665039	13028.486328	3414.039795	18.020182
605.802979	1299.562378	13050.870117	3416.465088	18.014189
606.141846	1300.113770	13074.911133	3428.044189	18.071907
606.480652	1297.908325	13114.829102	3435.101563	18.085873
606.819336	1295.702881	13167.648438	3451.090820	18.155306
607.158020	1295.261719	13228.960938	3460.022949	18.139900
607.496765	1300.003296	13292.807617	3467.190918	18.070732
607.835388	1301.216431	13331.182617	3478.769287	18.101072
608.173950	1305.076050	13348.386719	3483.621338	18.089256
608.512512	1303.201416	13325.559570	3482.959473	18.130869
608.851013	1301.216431	13280.789063	3478.879395	18.178137
609.189514	1304.965820	13184.080078	3460.574463	18.146206
609.527893	1305.186279	13073.698242	3439.843018	18.138714
609.866333	1304.414673	12945.449219	3409.958984	18.087263
610.204712	1303.091309	12806.505859	3386.691650	18.112886
610.542969	1304.304321	12678.920898	3358.682373	18.061075
610.881226	1305.627563	12564.238281	3333.870850	18.015041
611.219482	1303.532349	12470.395508	3316.448242	18.025795
611.557678	1301.547363	12383.722656	3291.195801	17.953590
611.895813	1299.011108	12310.279297	3275.978027	17.954035
612.233948	1298.018555	12237.611328	3265.943115	17.989012
612.571960	1302.098633	12167.256836	3258.665283	18.007715
612.910034	1306.619873	12098.998047	3243.337402	17.945234
613.247986	1306.730103	12027.210938	3222.826660	17.873234
613.585938	1308.935547	11942.411133	3208.711670	17.865993
613.923828	1305.737671	11822.654297	3185.664795	17.875269
614.261658	1308.715088	11693.414063	3162.838135	17.854374
614.599487	1306.730103	11548.295898	3138.468018	17.885332
614.937317	1307.943115	11424.239258	3112.774902	17.840836
615.275024	1307.612305	11309.556641	3084.324707	17.763670
615.612732	1306.399414	11213.178711	3059.182373	17.692762
615.950378	1305.627441	11119.227539	3037.679199	17.649506
616.288025	1302.429443	11032.443359	3024.005615	17.693460
616.625549	1303.421997	10971.901367	3015.183594	17.704559
616.963074	1304.414307	10919.523438	3006.692627	17.704201
617.300537	1305.517212	10871.445313	2997.540039	17.688017
617.638000	1305.296631	10823.035156	2994.451904	17.747444
617.975464	1309.266357	10790.614258	2990.702637	17.734148
618.312744	1310.369141	10753.563477	2985.078613	17.734566
618.650024	1309.486938	10720.259766	2984.858154	17.802696
618.987305	1308.274048	10683.428711	2976.036621	17.789175
619.324585	1305.958374	10658.507813	2967.324951	17.763783
619.661743	1302.429565	10644.723633	2961.591064	17.759680
619.998901	1299.783081	10616.824219	2953.761719	17.752188
620.336060	1298.018799	10589.255859	2951.997314	17.801489
620.673096	1295.151611	10567.752930	2948.137939	17.826565
621.010193	1298.459717	10548.125000	2938.874756	17.734859
621.347168	1296.254272	10527.833984	2933.030518	17.730185
621.684082	1297.908447	10493.208984	2927.406738	17.720989
622.020996	1297.356934	10457.591797	2925.311279	17.771973
622.357849	1298.128906	10433.993164	2917.592041	17.726437
622.694641	1299.562500	10412.929688	2910.203857	17.673395
623.031433	1303.863037	10391.095703	2912.519775	17.702383
623.368164	1305.296631	10386.905273	2907.888184	17.646561
623.704895	1306.619873	10376.759766	2902.154053	17.591064
624.041504	1307.832886	10383.927734	2903.256836	17.578308
624.378174	1305.737671	10402.343750	2905.682861	17.588375
624.714783	1311.692505	10445.901367	2904.359619	17.436289
625.051331	1308.715210	10478.101563	2911.196533	17.476429
625.387756	1309.156250	10514.711914	2909.321777	17.382607
625.724304	1309.486938	10534.119141	2907.888184	17.327534
626.060669	1310.589600	10552.314453	2912.299316	17.331285
626.397034	1310.369141	10560.364258	2919.246582	17.393278
626.733337	1310.369141	10564.333984	2915.607422	17.346493
627.069641	1307.502075	10570.950195	2920.459473	17.412062
627.405884	1309.486938	10560.474609	2916.269043	17.368763
627.742126	1308.935669	10550.439453	2911.968262	17.346014
628.078308	1308.053467	10538.639648	2911.416992	17.370117
628.414429	1304.524780	10513.057617	2907.667725	17.409319
628.750488	1304.414551	10493.319336	2902.595215	17.392506
629.086548	1301.767944	10460.126953	2889.693359	17.338535
629.422546	1299.121338	10419.546875	2893.332520	17.479570
629.758545	1297.798096	10365.293945	2892.119141	17.582815
630.094421	1294.710571	10318.648438	2876.901611	17.533266
630.430298	1293.497437	10264.283203	2872.821533	17.605192
630.766113	1293.276855	10200.986328	2867.087158	17.667957
631.101929	1292.615479	10124.567383	2856.280762	17.704639
631.437622	1293.166626	10043.185547	2840.842529	17.687687
631.773376	1288.865967	9950.115234	2829.705078	17.790033
632.109070	1292.725586	9856.714844	2812.502197	17.746130
632.444641	1292.946167	9763.423828	2799.710449	17.788422
632.780273	1293.387329	9687.446289	2791.881104	17.851839
633.115784	1294.489990	9618.195313	2782.838867	17.880846
633.451294	1297.246826	9549.165039	2768.834229	17.833277
633.786682	1299.121338	9481.458008	2756.042725	17.805689
634.122131	1302.650146	9403.604492	2740.273926	17.746351
634.457458	1301.106323	9351.556641	2729.136230	17.738510
634.792847	1303.311768	9290.575195	2719.211670	17.726971
635.128113	1303.201538	9227.279297	2709.948975	17.752823
635.463318	1304.414429	9176.002930	2699.473145	17.722710
635.798584	1300.775513	9127.813477	2688.225342	17.726372
636.133728	1301.657715	9074.221680	2680.506104	17.739943
636.468872	1304.965820	9012.358398	2667.052979	17.672476
636.803955	1305.737793	8963.067383	2655.253662	17.623844
637.139038	1303.201416	8913.554688	2643.344238	17.609468
637.473999	1305.406860	8849.266602	2625.921387	17.504494
637.808899	1305.958374	8783.101563	2614.783691	17.504351
638.143799	1307.391846	8715.173828	2600.227783	17.452402
638.478638	1309.156128	8654.302734	2589.421143	17.430082
638.813538	1309.156006	8589.573242	2578.614258	17.436615
639.148315	1305.516968	8517.233398	2564.168457	17.452869
639.483032	1306.509521	8454.048828	2550.273926	17.401295
639.817749	1303.421875	8386.782227	2533.843262	17.370588
640.152405	1302.098633	8323.044922	2520.610596	17.355381
640.487000	1301.547363	8252.250000	2506.936768	17.341980
640.821594	1301.326782	8187.410156	2499.658936	17.402231
641.156128	1299.121338	8138.338379	2489.183105	17.400557
641.490662	1297.687744	8078.791504	2479.258545	17.424461
641.825134	1298.569946	8018.140625	2469.334229	17.423201
642.159546	1298.459717	7977.560059	2457.204346	17.348812
642.493896	1302.760376	7925.291016	2448.272217	17.297192
642.828186	1301.216553	7883.938477	2443.751221	17.356569
643.162537	1299.562622	7849.974609	2431.290283	17.277199
643.496765	1293.718140	7814.246094	2423.350586	17.324249
643.830994	1292.505005	7780.061523	2418.388672	17.354509
644.165100	1293.387329	7751.059570	2419.490967	17.438229
644.499268	1292.615479	7734.409180	2416.734131	17.450397
644.833313	1291.071655	7720.955566	2413.756836	17.460426
645.167358	1288.535278	7705.075684	2409.897217	17.476114
645.501343	1287.652954	7682.139648	2402.509033	17.434645
645.835327	1287.873535	7662.069824	2395.010498	17.369043
646.169189	1289.638062	7648.727539	2392.694824	17.346144
646.503052	1289.417358	7636.818359	2393.576904	17.395460
646.836914	1293.387207	7626.342285	2393.246094	17.367229
647.170654	1295.041260	7611.676270	2392.915283	17.380680
647.504395	1296.584961	7607.376465	2391.922607	17.356581
647.838074	1296.695435	7601.641602	2387.842529	17.306208
648.171753	1299.562500	7598.995605	2387.291016	17.267086
648.505371	1300.665283	7600.097656	2387.291260	17.249584
648.838928	1301.988525	7603.184570	2385.636963	17.197504
649.172424	1304.635010	7610.131836	2389.606689	17.206758
649.505920	1302.870728	7606.382324	2387.401611	17.205185
649.839294	1308.274048	7598.001465	2387.401611	17.156984
650.172729	1310.920532	7596.127441	2393.466553	17.223713
650.506104	1314.890381	7600.207520	2393.466797	17.160254
650.839355	1317.536987	7584.989746	2389.055908	17.096561
651.172668	1318.308838	7565.913086	2382.659912	17.036146
651.505859	1316.875244	7542.977051	2373.948486	16.978092
651.839111	1319.080688	7527.979980	2365.677734	16.856401
652.172241	1321.175903	7515.959961	2362.700439	16.812927
652.505371	1319.521729	7502.616211	2360.826172	16.841152
652.838379	1320.845093	7475.930176	2356.745605	16.829996
653.171387	1319.632202	7461.924805	2355.863770	16.870438
653.504333	1318.088379	7438.988281	2352.886230	16.905975
653.837280	1318.970459	7418.918945	2352.224609	16.938736
654.170227	1319.080811	7399.731934	2347.483154	16.912701
654.503052	1315.662354	7379.772461	2346.600830	17.000654
654.835876	1315.441895	7365.657715	2349.357666	17.088907
655.168579	1312.243896	7348.234375	2350.350098	17.198606
655.501343	1312.574707	7332.906250	2351.453125	17.256166
655.833984	1310.920532	7323.863770	2351.011719	17.297539
656.166626	1312.464233	7319.673340	2352.997070	17.321402
656.499268	1313.456787	7342.720215	2363.252197	17.411669
656.831787	1312.684937	7376.904785	2370.971191	17.451317
657.164307	1311.912964	7422.889160	2378.028564	17.445913
657.496765	1311.140991	7469.424316	2384.313721	17.426493
657.829224	1311.361572	7518.275391	2392.584473	17.419653
658.161621	1315.110718	7566.463379	2397.656738	17.316988
658.493958	1317.095703	7605.831055	2408.904541	17.361341
658.826233	1310.920410	7635.494629	2414.307861	17.446035
659.158508	1310.479370	7661.739746	2419.049561	17.454334
659.490723	1311.140991	7680.155273	2422.909424	17.455894
659.822876	1310.479492	7699.012695	2427.871338	17.490585
660.154968	1306.399414	7700.555664	2429.856689	17.570063
660.487061	1307.943115	7699.343750	2426.879150	17.506899
660.819153	1303.642700	7693.719727	2420.262939	17.474283
661.151123	1305.406982	7679.934570	2417.064697	17.439060
661.483093	1308.935791	7668.576660	2412.212646	17.348101
661.815002	1310.479614	7652.807129	2405.044922	17.258101
662.146851	1312.354126	7623.915039	2397.436279	17.191978
662.478760	1314.008057	7595.354980	2389.937744	17.128965
662.810486	1311.802612	7558.523926	2380.454346	17.107403
663.142212	1309.597168	7505.482910	2367.331787	17.071564
663.473938	1306.730103	7453.654785	2355.973877	17.069410
663.805603	1306.840332	7388.263184	2340.756348	17.001219
664.137207	1307.060913	7295.854980	2324.325684	16.986137
664.468689	1306.730103	7208.187500	2308.336182	16.972181
664.800293	1304.965820	7131.107910	2294.220947	16.979591
665.131775	1304.083496	7048.623535	2285.068604	17.076826
665.463196	1302.539795	6980.255859	2276.687988	17.157396
665.794617	1304.965820	6923.795410	2270.953613	17.191975
666.125916	1309.156250	6865.902344	2255.736084	17.034786
666.457275	1308.715210	6822.564941	2247.465332	17.025312
666.788574	1305.627563	6776.801270	2238.423340	17.049280
667.119812	1306.730225	6747.910645	2229.050049	16.950729
667.450928	1307.612305	6727.731445	2224.749512	16.920979
667.782104	1311.582153	6713.063965	2220.338623	16.824207
668.113159	1308.384155	6691.230469	2217.912598	16.896793
668.444214	1304.414307	6669.286621	2214.494141	16.963682
668.775208	1303.311523	6650.980469	2210.965332	16.972887
669.106201	1304.414307	6636.645996	2210.744873	16.997210
669.437134	1303.311646	6629.367676	2205.562012	16.940310
669.768005	1302.870605	6622.200195	2202.694824	16.916121
670.098877	1300.444702	6610.951660	2200.158691	16.942148
670.429688	1303.201416	6591.874023	2192.439697	16.814016
670.760437	1299.893311	6567.504395	2190.895752	16.914734
671.091187	1298.349487	6559.564941	2182.515137	16.805349
671.421814	1296.033813	6542.692871	2180.640381	16.860378
671.752441	1295.261963	6521.189941	2176.119141	16.855518
672.083008	1292.946167	6507.185059	2166.635986	16.755846
672.413574	1293.607788	6493.731934	2163.217529	16.722866
672.744080	1296.033813	6466.936035	2160.681152	16.721401
673.074524	1293.828369	6440.581055	2160.570801	16.840569
673.404968	1297.467407	6416.541504	2151.307861	16.679586
673.735352	1301.437256	6396.582520	2145.242676	16.560968
674.065613	1303.752930	6375.410156	2139.397949	16.476765
674.395935	1302.429688	6351.700684	2135.869385	16.506140
674.726196	1301.657837	6320.494141	2132.230713	16.549112
675.056335	1304.414551	6304.504395	2129.143066	16.494274
675.386536	1304.745361	6292.815430	2123.960449	16.423487
675.716614	1306.840454	6281.346680	2123.078369	16.408421
676.046692	1308.274048	6279.913086	2120.652344	16.340250
676.376770	1310.259033	6268.334961	2124.952881	16.431652
676.706726	1312.023315	6257.638184	2133.774902	16.615763
677.036621	1310.038452	6262.820801	2136.421387	16.685226
677.366516	1310.258911	6260.616211	2140.391113	16.769136
677.696411	1314.338989	6274.068359	2138.075439	16.608496
678.026184	1313.787720	6291.381836	2147.669189	16.752701
678.355957	1312.464355	6305.166016	2147.669189	16.728516
678.685669	1312.464355	6330.639160	2151.749023	16.724899
679.015320	1309.817749	6346.187500	2158.475342	16.850582
679.344971	1306.730103	6362.838379	2159.247314	16.861134
679.674561	1305.406860	6371.991211	2164.540527	16.956861
680.004150	1301.547241	6394.928711	2163.106934	16.915279
680.333618	1299.231689	6410.145996	2169.392822	17.025549
680.663086	1299.672729	6424.701660	2173.583008	17.051811
680.992493	1298.680298	6430.987305	2174.465088	17.064154
681.321899	1298.569824	6429.002930	2172.700928	17.038155
681.651184	1298.128784	6429.994629	2169.061768	16.971079
681.980530	1296.585083	6419.849609	2171.708740	17.081367
682.309753	1295.372070	6412.682129	2171.487793	17.120630
682.638977	1290.850952	6387.650391	2168.069336	17.211163
682.968079	1288.314697	6361.735840	2158.696289	17.155714
683.297241	1288.976318	6340.563965	2150.756592	17.059591
683.626343	1288.865845	6318.619629	2137.413574	16.870562
683.955383	1293.056396	6279.803711	2130.356445	16.790506
684.284363	1294.048950	6252.235352	2123.739990	16.733761
684.613281	1292.284546	6209.890137	2119.990967	16.831493
684.942139	1296.144043	6166.111816	2112.271484	16.758375
685.271057	1299.231567	6128.619629	2112.933105	16.848957
685.599792	1301.657593	6088.370117	2112.822754	16.946186
685.928589	1305.737671	6056.721191	2108.852783	16.904186
686.257324	1310.810181	6019.118164	2101.795654	16.799782
686.585999	1310.699951	5994.527344	2087.570313	16.586231
686.914612	1310.810303	5948.323242	2089.555176	16.792295
687.243164	1310.369141	5912.043457	2081.174561	16.750544
687.571777	1307.281494	5879.072754	2077.204834	16.840738
687.900269	1308.825317	5843.344727	2077.866455	16.959705
688.228699	1309.707520	5811.365234	2074.999512	17.000227
688.557129	1305.186401	5783.466309	2072.242676	17.128368
688.885498	1306.950806	5757.552246	2061.325439	16.949947
689.213867	1310.920532	5727.668457	2057.907227	16.912594
689.542114	1311.140991	5706.827148	2054.599121	16.913359
689.870361	1310.369141	5686.095703	2053.055176	16.972862
690.198608	1305.737671	5651.470215	2043.020264	16.965670
690.526794	1305.296631	5620.042969	2038.168213	16.985277
690.854858	1302.870605	5598.098633	2031.331299	16.959768
691.182922	1300.775513	5560.605957	2020.965576	16.906542
691.510986	1300.224121	5533.919922	2015.672607	16.898911
691.838928	1297.908447	5499.404785	2008.946045	16.923439
692.166931	1297.687866	5463.015137	1995.492920	16.752707
692.494812	1296.695557	5415.708496	1982.480469	16.649254
692.822632	1295.702881	5372.591309	1972.666260	16.604904
693.150452	1293.056396	5328.923828	1963.182861	16.604273
693.478149	1296.144043	5291.430664	1958.330933	16.574202
693.805908	1294.379639	5266.067871	1950.060669	16.508875
694.133606	1294.710449	5228.244141	1950.611938	16.674612
694.461243	1296.585083	5198.580078	1942.120850	16.543736
694.788818	1295.261841	5180.605957	1934.953369	16.464218
695.116333	1293.938477	5170.019531	1933.188599	16.492176
695.443848	1295.261719	5164.505371	1939.143555	16.641026
695.771301	1292.284302	5178.620605	1940.025635	16.667145
696.098755	1289.748047	5203.322266	1944.987915	16.742748
696.426147	1293.166626	5236.514160	1951.273438	16.689039
696.753418	1293.717896	5275.661133	1962.741821	16.801443
697.080688	1297.687744	5332.451660	1972.997192	16.737272
697.407898	1298.569946	5386.485352	1981.598633	16.708483
697.735107	1301.768066	5424.308594	1991.853760	16.739330
698.062317	1303.201660	5465.219727	2006.630371	16.901146
698.389404	1306.289307	5499.735352	2010.048706	16.782364
698.716492	1305.407104	5531.273438	2012.474731	16.731897
699.043457	1303.863281	5551.122559	2017.657593	16.805998
699.370483	1305.406982	5568.545410	2019.532227	16.751162
699.697388	1309.597412	5572.294434	2019.311401	16.649410
700.024292	1313.677490	5568.766113	2017.547241	16.541834
700.351135	1314.008423	5560.936523	2014.680298	16.498322
700.677917	1318.860352	5549.137695	2011.482300	16.372969
701.004639	1319.191162	5533.699219	2003.873535	16.245844
701.331299	1319.963013	5514.731934	1999.793579	16.206627
701.658020	1321.286133	5491.244629	1991.412720	16.070341
701.984619	1319.963013	5453.972168	1982.370117	16.023357
702.311218	1319.742432	5411.186523	1965.718994	15.788473
702.637756	1319.191040	5359.027344	1955.022461	15.739038
702.964233	1319.411621	5287.901855	1945.208130	15.769134
703.290649	1316.213867	5216.665527	1929.990723	15.736046
703.617065	1319.080933	5132.086914	1911.023804	15.524310
703.943481	1320.624756	5047.287109	1895.034546	15.413519
704.269775	1320.735107	4959.289551	1881.140015	15.401855
704.596008	1319.522095	4881.105957	1865.040405	15.316733
704.922241	1317.095947	4814.500977	1849.822754	15.232059
705.248474	1316.323975	4747.565430	1834.825317	15.111188
705.574585	1315.882935	4687.687500	1826.444580	15.142088
705.900696	1316.103271	4637.072266	1817.512695	15.098287
706.226746	1314.559570	4597.925781	1809.683228	15.079758
706.552734	1311.692505	4570.799316	1804.610840	15.124337
706.878723	1306.068604	4551.612305	1805.492920	15.388001
707.204651	1302.649902	4529.888672	1803.067383	15.506057
707.530518	1301.547363	4516.986328	1802.515991	15.580101
707.856323	1302.098633	4510.700684	1803.508179	15.627041
708.182068	1301.988403	4514.008789	1799.758911	15.497115
708.507813	1299.341797	4509.597656	1800.972046	15.625865
708.833496	1301.106201	4522.278809	1802.295166	15.559209
709.159180	1301.878052	4538.268066	1805.493164	15.561013
709.484802	1303.091187	4550.949219	1808.029419	15.546808
709.810303	1303.752563	4569.696289	1805.493164	15.362805
710.135864	1306.178711	4579.620117	1804.721191	15.229919
710.461304	1306.288818	4591.309570	1808.250000	15.280305
710.786743	1305.627319	4600.352051	1810.786255	15.332356
711.112122	1305.847900	4608.181152	1812.330200	15.337105
711.437500	1305.406860	4615.128418	1818.505371	15.502769
711.762817	1308.825195	4614.136230	1817.071777	15.376664
712.088013	1307.171143	4618.546875	1820.931396	15.515009
712.413269	1309.266357	4613.364258	1818.064209	15.398994
712.738403	1312.133423	4616.562012	1819.277100	15.347393
713.063538	1313.125977	4610.276855	1817.292358	15.290971
713.388611	1312.243652	4604.983398	1816.520508	15.314811
713.713623	1309.817749	4597.154297	1815.307495	15.376879
714.038574	1312.243652	4596.713379	1812.771240	15.239221
714.363525	1310.258789	4590.096680	1809.242432	15.213668
714.688477	1305.847900	4579.951660	1803.177490	15.189794
715.013306	1306.730103	4555.581543	1804.831421	15.331612
715.338135	1307.391724	4534.299316	1803.728638	15.381193
715.662842	1306.068604	4507.282227	1799.758789	15.421969
715.987549	1306.950684	4475.633789	1798.104858	15.500261
716.312195	1308.274048	4442.441406	1792.370483	15.445774
716.636841	1303.863037	4403.735840	1783.769287	15.481482
716.961426	1300.003540	4372.087891	1778.917603	15.589222
717.285950	1297.687744	4341.210938	1767.008057	15.420297
717.610474	1293.497437	4300.630371	1761.273804	15.555561
717.934937	1293.056396	4265.012695	1755.098633	15.546738
718.259277	1292.615234	4230.827637	1746.386963	15.443803
718.583679	1291.291992	4202.046875	1739.770630	15.407640
718.908020	1288.535156	4169.406738	1730.948853	15.356939
719.232239	1286.881104	4142.720703	1725.876343	15.371845
719.556519	1287.542725	4115.262695	1715.510742	15.134738
719.880737	1287.322144	4084.717285	1710.548340	15.129297
720.204834	1284.344727	4055.274902	1705.365479	15.194202
720.528931	1288.755615	4025.060303	1695.992432	14.882730
720.852966	1286.440063	3988.890625	1690.809692	14.963072
721.176941	1288.424805	3950.295410	1683.531860	14.843210
721.500916	1289.307129	3919.970703	1679.561890	14.834841
721.824829	1284.675537	3898.798096	1671.291260	14.789502
722.148743	1284.785767	3867.370117	1661.477173	14.585831
722.472534	1288.535034	3844.874268	1658.169067	14.459506
722.796326	1289.417236	3823.701660	1650.890991	14.263346
723.119995	1288.424805	3799.882813	1645.377441	14.212965
723.443665	1293.056396	3787.201172	1643.171631	14.037486
723.767334	1294.820801	3769.006348	1645.266968	14.164103
724.090942	1294.600220	3758.751221	1645.046509	14.221787
724.414551	1299.231689	3752.686035	1647.582764	14.198392
724.737976	1300.223999	3747.503418	1646.039307	14.130603
725.061462	1302.539795	3747.393555	1644.274536	13.977717
725.384888	1302.870728	3747.834717	1645.928589	14.031203
725.708252	1303.311768	3747.503662	1645.818237	14.013076
726.031616	1303.863159	3752.465820	1648.795776	14.086918
726.354858	1302.981079	3753.017090	1651.662964	14.231704
726.678162	1301.878296	3762.721436	1652.545044	14.249861
727.001404	1305.517334	3766.580811	1655.301758	14.212735
727.324463	1307.281860	3771.102051	1655.632568	14.138641
727.647583	1309.928345	3778.269775	1655.522339	14.001061
727.970642	1306.179077	3790.069092	1658.830566	14.197548
728.293701	1308.715210	3792.384766	1661.477173	14.203258
728.616699	1309.707642	3797.126221	1663.462280	14.221758
728.939575	1309.928223	3815.431152	1667.542236	14.273143
729.262512	1305.958252	3825.686768	1668.313965	14.380744
729.585266	1305.627441	3834.950195	1672.394287	14.500595
729.908142	1304.193848	3854.909180	1676.694946	14.603789
730.230896	1302.098633	3868.252197	1682.539307	14.825328
730.553467	1304.193848	3887.329346	1678.459229	14.488802
730.876160	1301.106201	3901.333740	1680.002930	14.571676
731.198792	1296.695313	3912.360840	1680.774780	14.683814
731.521362	1294.159058	3927.357910	1684.744629	14.833121
731.843872	1293.056152	3925.152832	1682.980225	14.814200
732.166321	1289.968506	3925.152832	1681.105713	14.842878
732.488770	1291.732910	3926.476074	1681.877441	14.807688
732.811157	1289.196655	3919.639404	1679.341309	14.831900
733.133484	1288.755615	3912.250732	1679.231079	14.883788
733.455811	1290.299438	3894.386475	1680.664673	14.990484
733.778015	1290.961182	3877.845947	1676.694702	14.911121
734.100281	1289.527710	3869.685547	1678.569336	15.078211
734.422424	1286.660522	3857.666016	1676.694702	15.170492
734.744507	1290.189331	3842.668945	1674.709961	15.064592
735.066589	1288.645508	3832.192627	1669.196411	14.961426
735.388611	1291.512695	3820.062988	1667.100952	14.853897
735.710571	1290.630493	3804.293945	1669.306519	15.064706
736.032532	1292.505005	3794.038574	1667.431763	14.987876
736.354431	1292.284424	3781.467529	1664.013428	14.933775
736.676270	1293.276733	3765.367920	1660.374390	14.849680
736.998108	1298.900879	3751.914551	1659.823120	14.713422
737.319824	1297.687866	3736.807373	1662.469727	14.955472
737.641541	1301.547485	3717.729980	1664.123901	15.006167
737.963135	1302.209106	3696.888672	1660.154053	14.947509
738.284790	1303.311890	3671.305176	1660.153809	15.069382
738.606323	1303.532227	3660.498047	1654.970947	14.910642
738.927856	1305.517334	3650.022217	1653.868286	14.858189
739.249390	1307.391968	3639.436279	1652.324463	14.790992
739.570740	1311.913086	3628.740234	1649.015991	14.550197
739.892212	1310.810303	3617.933350	1648.906006	14.654428
740.213562	1308.604858	3610.214355	1642.069214	14.488313
740.534790	1310.479614	3603.818359	1639.422607	14.343410
740.856079	1306.730347	3588.931641	1637.658081	14.500376
741.177246	1304.304443	3578.455322	1636.334961	14.600198
741.498413	1306.399536	3569.964600	1631.813843	14.376186
741.819580	1307.943237	3562.245605	1633.467773	14.440146
742.140625	1309.707642	3551.989990	1631.151978	14.335588
742.461670	1307.722534	3536.992920	1626.410400	14.295612
742.782654	1306.950562	3515.489990	1624.204834	14.364890
743.103577	1309.155884	3498.728760	1620.786499	14.232485
743.424438	1309.707275	3477.335938	1620.455566	14.335864
743.745300	1305.847900	3448.003418	1613.618652	14.367339
744.066101	1304.745117	3421.758545	1609.428345	14.392125
744.386902	1303.421875	3399.924561	1603.253174	14.301498
744.707581	1302.649902	3381.399170	1596.747070	14.147794
745.028198	1302.429443	3367.504395	1589.689697	13.910403
745.348816	1299.562378	3355.815430	1593.880005	14.313299
745.669373	1297.357056	3337.620605	1588.586914	14.274129
745.989929	1295.261963	3316.558350	1585.168579	14.342607
746.310364	1293.497437	3301.892090	1582.742554	14.401807
746.630798	1294.159180	3289.431641	1582.301514	14.441253
746.951172	1290.409912	3286.343750	1579.654907	14.491713
747.271545	1286.109375	3276.529297	1580.757568	14.803318
747.591858	1290.299683	3275.537109	1573.589844	14.269837
747.912109	1295.261841	3266.936035	1574.361816	14.155481
748.232300	1291.512695	3258.555176	1574.141235	14.368197
748.552429	1294.159180	3245.542725	1573.589844	14.319617
748.872559	1289.637817	3235.066895	1574.802856	14.658208
749.192627	1293.387329	3235.287598	1573.589844	14.429295
749.512695	1293.166626	3236.941162	1573.148804	14.404046
749.832642	1293.938477	3234.956543	1572.486938	14.350637
750.152588	1295.592651	3234.625732	1571.163818	14.211782
750.472473	1295.592651	3243.116455	1571.825317	14.183789
750.792358	1297.246704	3246.204346	1570.391724	14.014929
751.112122	1298.570068	3241.242188	1567.524902	13.844582
751.431824	1300.775391	3249.181641	1567.083740	13.668010
751.751587	1300.334351	3246.093750	1564.768066	13.590258
752.071228	1299.452148	3243.447510	1563.224121	13.568549
752.390869	1300.665161	3240.911133	1562.893188	13.515195
752.710327	1303.752808	3238.595215	1561.790527	13.336369
753.029846	1303.201416	3238.595215	1563.554932	13.452225
753.349304	1304.524780	3236.610596	1558.372070	13.138510
753.668762	1305.186279	3230.545654	1561.349487	13.304696
753.988098	1304.965820	3223.157471	1556.718018	13.124454
754.307434	1304.193848	3213.674072	1560.136475	13.403785
754.626770	1303.862915	3210.917480	1558.372192	13.345674
754.946045	1302.760376	3209.262939	1555.394897	13.251203
755.265259	1299.011108	3208.050293	1551.204468	13.210486
755.584351	1300.885742	3207.277832	1546.131958	12.864416
755.903442	1299.562500	3202.756592	1543.816284	12.833887
756.222534	1298.459839	3192.391357	1544.808838	13.007281
756.541565	1296.033813	3191.288330	1546.793701	13.230935
756.860535	1295.813354	3191.178223	1544.478027	13.119620
757.179443	1294.820923	3185.995605	1540.838989	13.008743
757.498291	1297.467529	3183.789795	1539.295166	12.820060
757.817139	1300.665405	3188.752197	1542.603394	12.813923
758.135925	1302.540039	3184.892822	1545.470459	12.905680
758.454651	1301.657837	3183.569092	1546.462891	13.008321
758.773376	1305.958374	3179.820313	1546.132080	12.817044
759.092041	1306.178955	3185.002930	1547.014282	12.818408
759.410645	1302.540039	3189.193359	1547.234863	12.969782
759.729187	1301.547485	3180.482178	1545.801270	12.999589
760.047607	1301.768188	3185.223633	1546.462891	12.991796
760.366089	1305.406982	3187.319092	1542.052002	12.574712
760.684509	1305.186523	3201.543945	1544.698608	12.630113
761.002869	1305.627563	3227.237305	1544.919067	12.452659
761.321228	1304.193970	3265.833008	1553.630493	12.715720
761.639465	1306.840576	3313.470703	1565.650269	12.897728
761.957642	1306.730225	3365.739990	1577.449463	13.148031
762.275879	1304.965820	3409.297607	1589.138428	13.504173
762.593994	1303.752930	3447.561768	1597.188232	13.687569
762.912109	1302.539673	3483.180176	1605.458496	13.891276
763.230103	1305.296387	3503.359863	1608.325684	13.786194
763.548157	1302.649780	3515.710449	1614.280273	14.081427
763.866150	1302.980713	3529.274170	1620.455688	14.260248
764.184021	1301.326660	3539.860596	1623.212402	14.379311
764.501892	1298.018555	3546.587158	1624.315308	14.511310
764.819702	1295.923340	3544.491699	1625.417969	14.653529
765.137451	1296.474731	3548.792725	1624.976929	14.585073
765.455200	1292.504883	3554.416748	1624.425415	14.674335
765.772888	1293.607666	3544.161377	1621.668701	14.576903
766.090515	1293.828247	3534.347168	1624.425415	14.755383
766.408081	1295.371948	3534.897949	1624.756348	14.707774
766.725586	1293.938477	3525.415283	1624.866577	14.830004
767.043091	1294.269287	3515.600342	1628.726196	15.056599
767.360535	1294.820679	3500.824463	1624.204956	14.931265
767.677917	1293.497437	3468.404053	1620.676514	15.043362
767.995239	1291.512573	3422.089355	1612.295776	15.056169
768.312500	1292.174194	3362.983643	1598.511719	14.793129
768.629822	1290.299561	3302.553467	1586.050781	14.697510
768.947021	1290.520142	3246.204346	1574.031006	14.496761
769.264160	1294.379639	3190.406738	1560.798340	14.051418
769.581299	1294.379639	3148.392822	1550.763550	13.828591
769.898376	1292.505005	3111.230713	1545.470459	13.908939
770.215393	1292.174072	3077.928467	1534.994507	13.597639
770.532349	1292.504883	3049.698975	1526.062500	13.291510
770.849304	1291.512451	3019.925293	1519.666626	13.200212
771.166199	1290.740601	2998.863281	1515.917358	13.182704
771.483032	1287.542725	2981.770752	1509.301025	13.089046
771.799866	1288.645508	2961.260010	1502.684570	12.796677
772.116577	1291.622803	2940.528564	1497.501709	12.485789
772.433350	1293.938599	2928.509033	1495.516968	12.332192
772.749939	1294.931030	2919.025391	1489.121094	11.956821
773.066589	1294.048828	2905.131348	1490.113403	12.169742
773.383057	1297.357178	2888.811035	1487.797729	11.966452
773.699646	1298.680420	2876.460205	1479.416992	11.455120
774.016113	1300.885864	2860.029785	1478.314209	11.379857
774.332520	1303.201660	2851.208008	1474.895752	11.091304
774.648804	1308.494751	2842.055176	1470.815552	10.584572
774.965149	1307.943359	2831.689697	1468.279297	10.522482
775.281433	1313.126099	2820.993164	1466.073853	10.143318
775.597656	1313.677490	2814.156494	1464.971191	10.083027
775.913879	1312.905640	2807.540283	1466.625244	10.284761
776.229980	1314.449463	2797.836426	1462.324585	9.968749
776.546082	1312.023315	2787.691162	1458.575317	9.931232
776.862122	1315.882935	2780.854248	1459.236938	9.785448
777.178162	1317.978149	2771.812012	1459.567871	9.739058
777.494141	1315.331421	2767.621582	1457.362427	9.779796
777.809998	1314.780151	2755.822266	1454.936523	9.726043
778.125854	1316.544556	2750.309082	1454.936523	9.652349
778.441711	1317.426758	2744.133789	1455.377686	9.669184
778.757446	1316.323975	2737.847900	1455.928955	9.820797
779.073181	1313.567017	2733.547363	1457.693359	10.149883
779.388855	1316.323853	2727.702637	1456.370117	9.922656
779.704468	1315.552124	2723.623047	1451.077026	9.624864
780.020020	1310.258911	2717.888672	1446.996948	9.714063
780.335571	1311.251343	2708.736328	1448.871582	9.847708
780.651062	1310.479492	2703.222168	1447.437988	9.833726
780.966553	1307.722656	2697.708740	1448.099487	10.099154
781.281860	1301.657471	2686.020020	1446.445435	10.458818
781.597290	1301.767944	2678.631592	1446.776245	10.531784
781.912476	1299.231812	2675.102783	1445.563232	10.635549
782.227722	1300.775635	2666.060547	1445.563232	10.604937
782.542908	1299.011108	2654.923096	1444.350220	10.718919
782.858093	1299.452148	2642.682373	1440.159912	10.475327
783.173218	1302.539917	2640.256836	1437.292969	10.073360
783.488281	1300.003662	2639.595215	1432.771729	9.911086
783.803345	1299.562622	2630.883789	1428.360840	9.674466
784.118225	1301.547485	2618.202148	1432.661499	9.958117
784.433167	1302.208862	2609.821533	1429.353271	9.723400
784.748047	1303.532227	2603.425537	1426.927490	9.492723
785.062866	1306.619995	2590.193115	1426.045288	9.304129
785.377686	1305.958374	2579.276123	1422.406250	9.145233
785.692444	1306.619995	2568.689697	1417.664429	8.798597
786.007141	1305.517334	2564.830078	1419.098022	9.019259
786.321716	1308.825439	2558.765137	1420.200806	8.910460
786.636353	1311.141113	2562.073242	1418.105713	8.550792
786.950928	1309.487061	2567.256104	1419.208252	8.723476
787.265442	1308.715088	2574.313721	1421.524048	8.913486
787.579834	1304.414551	2570.674561	1419.759644	9.109116
787.894226	1308.163696	2576.850098	1419.098022	8.744031
788.208618	1304.193970	2578.834961	1419.869995	9.075185
788.522949	1305.517212	2574.424072	1416.561890	8.751208
788.837219	1302.870605	2574.424072	1416.561768	8.941123
789.151367	1303.752808	2579.937500	1415.018066	8.718586
789.465515	1301.657593	2579.937744	1416.782349	9.006223
789.779602	1299.893188	2571.005615	1415.900146	9.126412
790.093689	1303.973267	2559.427002	1414.466553	8.801064
790.407776	1300.554688	2555.016113	1416.010376	9.203606
790.721741	1299.672607	2549.943848	1411.820068	8.969851
791.035645	1298.018555	2541.562988	1411.599487	9.133645
791.349548	1296.695190	2534.615967	1411.599365	9.282030
791.663391	1293.938477	2536.270020	1407.739868	9.160308
791.977173	1296.805664	2532.630859	1406.967896	8.914063
792.290894	1296.254150	2521.714111	1406.085693	8.962475
792.604614	1298.790771	2510.466064	1402.446655	8.554757
792.918274	1299.231812	2501.754639	1397.043335	8.133860
793.231812	1298.680542	2485.764893	1394.396729	8.063132
793.545410	1298.459839	2473.083496	1389.985840	7.791943
793.858948	1300.113892	2456.983398	1386.898193	7.501650
794.172363	1304.524780	2451.690186	1388.883179	7.353639
794.485840	1302.209106	2442.427490	1386.126465	7.359762
794.799194	1308.494629	2439.449951	1383.700439	6.649760
795.112488	1307.171265	2438.126953	1382.597778	6.669272
795.425781	1309.156128	2435.370117	1381.164307	6.393827
795.738953	1305.958374	2428.533203	1382.928589	6.856578
796.052185	1307.061035	2428.753906	1383.149048	6.783319
796.365234	1307.171265	2428.754150	1382.377197	6.705339
796.678284	1305.627441	2429.966797	1385.795654	7.130250
796.991333	1308.825317	2427.540771	1384.251831	6.742243
797.304382	1309.927979	2429.305176	1384.472412	6.659456
797.617310	1312.023193	2428.974121	1381.274414	6.200024
797.930115	1312.574463	2422.468262	1380.061523	6.080497
798.242981	1314.890259	2417.726318	1381.384644	6.029399
798.555786	1313.236084	2413.425781	1381.605225	6.214305
798.868530	1317.205933	2412.764160	1383.479858	6.049329
799.181213	1313.346436	2411.110352	1381.825928	6.238089
799.493896	1313.125854	2406.479004	1381.384644	6.243069
799.806519	1316.985474	2406.037842	1382.156494	5.984195
800.119080	1318.198608	2402.068115	1381.825806	5.870374
800.431580	1315.000610	2392.033203	1378.848389	5.928120
800.744080	1313.897949	2382.329346	1374.106812	5.635258
801.056458	1315.000732	2373.948486	1372.342407	5.414968
801.368835	1312.133667	2360.054199	1369.475342	5.471949
801.681152	1314.890381	2348.144531	1373.776001	5.699045
801.993408	1316.765015	2338.440430	1371.791138	5.385871
802.305664	1319.962891	2329.397949	1367.159668	4.675563
802.617798	1320.845093	2318.812012	1366.497925	4.574584
802.929993	1320.403809	2310.431396	1362.859009	4.288285
803.242065	1321.396240	2301.058105	1361.976807	4.142303
803.554016	1318.418945	2295.985596	1365.174683	4.782869
803.865967	1318.639404	2289.479492	1360.543213	4.316242
804.177979	1316.103271	2288.045898	1364.292480	4.958030
804.489807	1314.890381	2288.045654	1364.071899	5.053820
804.801697	1311.251343	2286.281494	1368.593140	5.881028
805.113464	1310.369263	2280.547363	1370.026733	6.149126
805.425232	1306.730225	2282.311523	1371.019287	6.589821
805.736938	1305.627563	2277.900879	1373.224609	6.952474
806.048584	1300.554932	2273.269287	1375.099121	7.663523
806.360168	1297.467285	2267.535400	1376.202026	8.116414
806.671753	1296.915771	2257.280029	1375.981445	8.232883
806.983276	1298.790527	2257.831299	1376.201904	8.071751
807.294739	1300.223999	2252.979248	1377.304565	8.090280
807.606140	1301.437012	2248.568359	1376.973877	7.975332
807.917542	1301.326782	2247.906738	1376.202026	7.910081
808.228760	1301.216431	2242.393311	1371.901367	7.510271
808.540100	1300.223999	2231.917236	1371.019165	7.598549
808.851318	1297.026123	2225.080322	1367.931519	7.640222
809.162476	1297.356934	2217.361328	1365.285034	7.383454
809.473633	1297.246704	2212.840088	1366.608398	7.575600
809.784668	1291.071411	2206.113525	1366.939209	8.291181
810.095703	1295.813110	2194.975830	1362.528320	7.419704
810.406738	1298.570068	2186.594971	1362.859009	7.239542
810.717590	1302.870605	2174.465332	1359.771240	6.528336
811.028503	1303.311890	2163.548096	1352.162598	5.678755
811.339294	1303.201416	2153.733887	1347.641357	5.224955
811.650085	1302.209106	2148.661377	1343.781738	4.911397
811.960876	1299.231812	2137.082764	1341.796875	5.080267
812.271545	1301.988525	2129.143311	1341.686523	4.799343
812.582153	1309.045898	2126.496582	1337.496338	3.480386
812.892761	1307.281616	2116.902832	1333.857178	3.282469
813.203308	1302.980957	2115.579590	1335.731934	4.030400
813.513855	1303.973511	2111.058594	1334.849854	3.825661
813.824280	1303.311768	2107.530029	1336.724365	4.154668
814.134705	1301.988525	2105.765869	1335.511353	4.170661
814.445068	1301.437012	2096.943604	1333.416260	4.019985
814.755371	1301.437012	2098.156738	1331.651733	3.792390
815.065613	1299.562378	2102.016113	1330.328613	3.834020
815.375854	1302.980835	2101.354492	1335.511353	4.074598
815.686035	1302.208984	2104.111328	1333.085327	3.850387
815.996155	1303.311646	2104.442139	1330.548950	3.399859
816.306152	1308.053467	2105.544922	1328.453735	2.558055
816.616211	1306.840454	2114.036133	1326.799805	2.472678
816.926208	1303.091187	2117.675049	1328.564087	3.127106
817.236145	1303.752930	2126.166016	1327.792114	2.923006
817.546021	1304.524780	2139.619141	1334.849609	3.631306
817.855774	1305.186401	2151.638916	1335.842163	3.621675
818.165588	1305.958252	2168.951660	1340.914673	4.050601
818.475281	1309.928101	2192.218750	1341.024902	3.524553
818.784973	1305.406860	2222.102783	1343.781860	4.186230
819.094604	1299.231689	2250.112061	1352.052124	5.554898
819.404175	1298.790405	2295.434082	1363.630737	6.505869
819.713684	1298.680298	2358.620117	1372.893677	7.001660
820.023254	1297.577515	2484.661865	1396.822876	8.360431
820.332642	1295.923340	2704.766113	1440.711304	10.277084
820.642090	1295.923584	2994.231445	1496.288696	11.797927
820.951416	1296.144043	3298.804688	1553.079102	12.829685
821.260681	1292.725586	3552.982910	1600.275635	13.606860
821.569946	1293.497559	3751.914551	1640.194214	14.102435
821.879150	1294.159180	3915.779785	1663.241211	14.078392
822.188293	1295.592773	4045.460449	1687.060303	14.235868
822.497437	1298.018799	4152.204102	1708.012329	14.364643
822.806458	1298.018799	4247.811035	1723.119385	14.411204
823.115479	1298.790649	4328.861328	1738.557617	14.513422
823.424438	1300.334473	4405.721191	1748.371826	14.427748
823.733337	1295.813232	4468.245605	1758.958008	14.599043
824.042236	1296.144043	4520.073730	1770.205933	14.704473
824.351013	1295.372192	4567.932129	1782.225464	14.876832
824.659790	1297.467407	4607.079102	1788.841919	14.846892
824.968445	1297.908447	4665.522949	1799.869263	14.905531
825.277100	1301.106445	4735.656250	1815.307251	14.971418
825.585693	1304.635010	4822.220703	1834.384521	15.060032
825.894287	1309.376709	4879.562012	1844.088501	14.977144
826.202820	1314.890381	4901.395996	1848.389160	14.875169
826.511292	1313.787720	4834.019531	1836.810425	14.857620
826.819702	1316.213745	4662.435059	1803.067139	14.549349
827.128113	1320.073242	4409.911133	1757.193604	14.147032
827.436401	1319.962769	4141.618164	1705.365723	13.658754
827.744751	1321.506592	3911.148438	1666.770142	13.332482
828.052917	1322.057983	3731.293945	1630.159546	12.788352
828.361145	1319.521729	3583.308105	1605.569214	12.635798
828.669312	1320.183350	3465.977295	1584.727539	12.328499
828.977356	1315.993164	3366.732178	1570.833130	12.426738
829.285400	1312.464233	3275.867920	1558.703369	12.541442
829.593384	1310.920532	3197.353516	1544.808838	12.398442
829.901306	1307.833008	3122.257813	1534.112427	12.471138
830.209167	1312.133667	3057.858887	1524.408447	12.159690
830.517029	1312.795288	2998.532471	1509.852539	11.689678
830.824829	1314.669922	2946.704346	1498.494385	11.263516
831.132568	1311.802856	2898.073975	1490.995850	11.296493
831.440247	1308.935791	2841.724609	1480.630249	11.201443
831.747925	1308.384399	2783.059814	1470.595337	10.999772
832.055481	1305.848022	2716.786133	1453.503052	10.465025
832.363037	1306.178833	2668.706787	1441.262817	9.914217
832.670532	1304.635010	2628.898438	1431.999878	9.617789
832.977966	1306.178833	2611.034180	1424.942383	9.101664
833.285400	1308.825317	2591.847168	1414.907593	8.268158
833.592712	1306.840454	2572.659668	1409.614624	8.119183
833.900085	1307.391724	2552.700195	1404.983032	7.836718
834.207275	1302.760254	2539.798096	1399.138428	7.791045
834.514526	1301.767822	2527.668213	1402.115845	8.185658
834.821716	1302.760376	2517.964111	1400.351685	8.030860
835.128784	1303.091187	2508.921631	1397.484497	7.828075
835.435852	1306.399292	2503.297852	1390.978271	7.066512
835.742798	1308.163696	2494.696533	1385.354492	6.505576
836.049805	1307.722534	2485.323730	1383.038818	6.395738
836.356750	1309.597168	2474.847656	1381.494995	6.170161
836.663574	1306.950562	2463.930664	1378.076538	6.147554
836.970398	1307.060913	2452.021484	1379.179321	6.298768
837.277161	1304.524658	2437.244629	1374.988892	6.220799
837.583923	1305.075928	2424.122314	1370.136963	5.813971
837.890564	1308.053345	2396.774658	1363.300049	5.074458
838.197205	1308.604858	2354.650391	1353.816528	4.322151
838.503784	1311.692505	2308.005371	1345.876953	3.431096
838.810303	1309.376709	2257.059326	1336.944702	2.908990
839.116699	1306.509766	2211.626953	1330.659302	2.668112
839.423096	1309.046021	2160.791260	1323.491577	1.695995
839.729492	1308.715210	2120.541992	1318.639526	1.222467
840.035828	1304.745361	2089.996582	1311.361572	0.842560
840.342102	1302.760620	2067.500732	1311.802734	1.182377
840.648315	1308.494751	2039.601807	1305.847900	-0.362033
840.954529	1311.692505	2021.517090	1298.129028	-1.910821
841.260620	1313.015747	2003.432251	1298.018555	-2.172195
841.566711	1310.258911	1989.207275	1296.695313	-1.997736
841.872803	1309.707397	1968.365845	1296.254272	-2.042504
842.178772	1312.795044	1954.250977	1295.702881	-2.664589
842.484680	1310.920532	1935.394165	1295.151489	-2.525173
842.790588	1312.574585	1921.830688	1290.409912	-3.637990
843.096436	1313.567017	1911.354858	1287.542725	-4.353433
843.402222	1314.118286	1899.996826	1284.675659	-5.025381
843.707947	1315.551880	1889.300415	1281.477661	-5.938877
844.013611	1315.993042	1878.162720	1278.941406	-6.590828
844.319275	1313.125977	1861.070679	1280.705811	-5.916686
844.624817	1314.118530	1844.529785	1277.728516	-6.860717
844.930359	1311.913086	1820.380005	1274.199707	-7.417076
845.235901	1311.030884	1800.530884	1274.640869	-7.434119
845.541321	1315.993164	1778.035400	1271.001831	-9.737494
845.846680	1311.913086	1765.354004	1270.450562	-9.143975
846.152039	1311.472046	1751.459839	1270.340332	-9.348376
846.457275	1316.323975	1736.793335	1272.986816	-10.306853
846.762512	1318.308838	1724.553223	1270.230103	-11.834929
847.067749	1316.654785	1716.392822	1271.663452	-11.255204
847.372925	1315.110840	1705.365479	1270.671143	-11.387359
847.677979	1313.125977	1699.410889	1268.134888	-11.647125
847.983032	1314.669922	1687.391235	1264.826660	-13.372796
848.288025	1310.369263	1681.767456	1262.952148	-12.767190
848.592957	1309.045898	1679.782349	1260.856812	-12.998206
848.897888	1312.905518	1675.812744	1263.172607	-13.704029
849.202759	1312.133667	1675.151001	1266.039673	-12.697464
849.507507	1308.715210	1670.739990	1269.237671	-10.904651
849.812317	1308.825439	1668.093506	1267.693848	-11.448719
850.117004	1308.163818	1667.211182	1269.788940	-10.687971
850.421631	1305.958374	1663.682617	1267.804077	-10.665840
850.726257	1304.745361	1661.146240	1266.149780	-10.829261
851.030823	1304.635010	1660.154053	1268.465576	-10.173698
851.335327	1303.421875	1660.264282	1267.142334	-10.166824
851.639771	1301.326782	1656.404785	1267.031860	-9.658420
851.944153	1296.805664	1654.419800	1267.252563	-8.263963
852.248535	1297.136353	1657.507446	1262.731445	-9.547077
852.552856	1295.041260	1663.792725	1263.393066	-8.582527
852.857056	1291.733032	1663.131104	1260.305420	-8.461975
853.161255	1286.770874	1662.579834	1262.841675	-6.367384
853.465393	1284.124268	1660.594727	1259.423218	-6.561219
853.769531	1279.382568	1652.765381	1257.548584	-5.847614
854.073547	1280.044189	1649.788086	1260.746582	-5.219182
854.377563	1280.375000	1644.715576	1260.084961	-5.568976
854.681580	1280.485474	1645.156616	1258.871826	-5.926887
854.985474	1280.926392	1640.194336	1259.533447	-5.954593
855.289307	1279.492920	1640.525269	1252.806885	-7.391591
855.593140	1276.736084	1639.312134	1253.137817	-6.508501
855.896851	1277.066895	1640.525269	1254.681641	-6.158959
856.200623	1276.736084	1638.981445	1253.358276	-6.453584
856.504272	1275.633423	1635.783691	1249.719360	-7.195347
856.807922	1278.169678	1635.452759	1249.609131	-7.993814
857.111389	1280.044312	1639.312256	1251.373413	-7.980366
857.414978	1278.390259	1637.768555	1244.977539	-9.297367
857.718445	1279.382568	1635.121826	1245.087769	-9.640431
858.021790	1284.565308	1632.585693	1240.346069	-12.705934
858.325195	1287.322144	1635.452881	1242.772095	-12.796930
858.628479	1291.071655	1630.380371	1244.757080	-13.649686
858.931763	1289.637817	1624.315308	1241.559204	-14.365655
859.234985	1288.866089	1626.410522	1242.441284	-13.753687
859.538147	1291.071533	1623.763916	1241.118164	-15.014882
859.841248	1294.710571	1626.410522	1242.661865	-15.691503
860.144287	1297.687866	1629.828857	1245.418701	-15.737041
860.447266	1298.459717	1628.615723	1236.707275	-18.704020
860.750305	1296.915894	1632.585571	1236.265991	-18.068329
861.053223	1299.121338	1634.680786	1237.589233	-18.337170
861.356018	1295.592651	1635.342407	1240.897339	-16.098705
861.658813	1294.489746	1634.460205	1241.228149	-15.666536
861.961609	1299.672607	1630.049316	1240.897339	-17.790379
862.264343	1299.562256	1629.056885	1237.589233	-18.808508
862.567017	1301.216309	1630.821289	1237.589233	-19.304039
862.869629	1302.539673	1627.843994	1240.346069	-19.118591
863.172180	1302.429443	1623.322754	1241.228271	-19.072124
863.474670	1302.980713	1619.463135	1238.361206	-20.418039
863.777161	1304.083496	1617.037231	1242.992676	-19.520720
864.079590	1303.973267	1616.044800	1243.874756	-19.257927
864.381958	1302.760254	1622.330322	1245.198120	-18.012367
864.684265	1300.665161	1622.991943	1240.566650	-18.645212
864.986511	1297.246704	1621.889160	1240.566772	-17.459187
865.288757	1299.341797	1621.338013	1241.559204	-17.945116
865.590942	1301.988281	1621.117432	1240.897461	-19.142977
865.893066	1303.642578	1622.661133	1239.022827	-20.255796
866.195068	1301.988403	1619.352905	1242.441162	-18.763044
866.497131	1300.223999	1619.353027	1240.015259	-18.866583
866.799133	1304.193848	1623.874023	1245.639282	-18.316608
867.100952	1304.965698	1619.794067	1246.852173	-18.458796
867.402832	1306.619751	1616.816650	1248.065063	-18.876619
867.704651	1309.597168	1615.272827	1247.293335	-20.382334
868.006409	1309.045898	1617.808960	1250.932251	-18.821438
868.308105	1307.612305	1620.345459	1247.844727	-19.111366
868.609802	1310.810303	1620.896973	1247.293335	-20.483618
868.911438	1310.148682	1618.360474	1250.932251	-19.212902
869.213013	1310.479370	1617.478394	1251.704224	-19.145060
869.514465	1310.258911	1621.117432	1250.822021	-19.120237
869.815979	1312.133545	1620.345459	1253.358276	-19.069759
870.117371	1311.802734	1622.771362	1253.358398	-18.794287
870.418701	1315.000610	1624.425537	1250.050171	-20.990694
870.720093	1317.536987	1622.440674	1250.270630	-22.061510
871.021301	1319.080811	1621.558350	1250.491211	-22.675932
871.322571	1320.955322	1622.550781	1250.270630	-23.436922
871.623718	1319.301392	1625.638550	1249.829590	-22.678215
871.924805	1318.088379	1625.417969	1247.734375	-22.892036
872.225891	1318.970581	1625.528442	1248.837036	-22.877750
872.526917	1321.396484	1629.277588	1245.418579	-24.677677
872.827881	1323.491699	1626.631104	1246.741821	-25.318344
873.128784	1318.970459	1619.242920	1245.197998	-24.568506
873.429626	1317.867798	1620.345581	1246.190430	-23.696737
873.730408	1317.757568	1618.691406	1243.984985	-24.514553
874.031189	1314.338989	1621.338013	1240.015137	-24.209801
874.331848	1314.780151	1621.227661	1236.817261	-25.440863
874.632568	1311.692627	1620.786499	1238.912354	-23.546333
874.933167	1311.251343	1620.896973	1240.787109	-22.756411
875.233704	1309.156250	1623.102295	1239.353760	-22.233913
875.534241	1308.494629	1626.630981	1237.037842	-22.461058
875.834717	1307.171509	1627.513184	1238.361084	-21.480322
876.135071	1303.752930	1634.570679	1236.707153	-20.266680
876.435425	1302.539917	1634.019165	1233.178345	-20.924862
876.735779	1304.635132	1635.893799	1238.471558	-19.973387
877.036011	1298.901001	1636.004150	1238.912598	-17.795267
877.336182	1297.246948	1638.650635	1239.794678	-16.828251
877.636353	1294.931152	1645.928589	1242.331055	-14.985892
877.936462	1294.931030	1651.001099	1243.764526	-14.369785
878.236511	1297.908447	1661.366821	1246.631592	-14.108041
878.536560	1297.798218	1679.782349	1245.528931	-13.683628
878.836487	1297.246826	1703.049805	1254.461060	-10.543483
879.136414	1294.379639	1762.486816	1262.510864	-6.808008
879.436279	1291.843506	1852.138428	1280.154541	-2.086216
879.736084	1293.276855	1963.513550	1299.782959	0.970717
880.035828	1290.961182	2086.908691	1322.388916	3.948468
880.335510	1293.938477	2202.694824	1347.641357	5.909492
880.635193	1293.276855	2303.594238	1368.813599	7.476536
880.934753	1297.797852	2393.576904	1385.685303	8.020545
881.234314	1296.474854	2473.193359	1391.971069	8.115468
881.533752	1298.569946	2539.467529	1400.241577	8.193395
881.833252	1297.798096	2600.889404	1409.283813	8.555480
882.132629	1298.570068	2658.892822	1417.995239	8.779180
882.431946	1298.680298	2704.766113	1425.714233	9.034579
882.731323	1299.893433	2746.559326	1432.882080	9.192768
883.030579	1298.459839	2780.192627	1434.425781	9.176145
883.329712	1298.018677	2813.053955	1437.734009	9.221919
883.628845	1298.790527	2833.675049	1443.688599	9.440324
883.927979	1298.900879	2847.128174	1447.107056	9.572637
884.226990	1299.452148	2858.045166	1447.768677	9.516052
884.526001	1296.144043	2861.684082	1450.635742	9.868269
884.824951	1296.695435	2855.398682	1452.841187	10.017671
885.123840	1295.702881	2838.306396	1447.879028	9.864890
885.422729	1297.687744	2793.645996	1437.844238	9.369011
885.721497	1300.223999	2709.948975	1421.965088	8.635804
886.020203	1301.216553	2605.962158	1403.439209	7.834681
886.318909	1302.760376	2484.331299	1382.266968	6.728889
886.617554	1302.980835	2367.773193	1360.212402	5.374904
886.916138	1302.980957	2268.858643	1340.914795	3.927396
887.214661	1300.554932	2181.522705	1322.829956	2.528472
887.513184	1301.106323	2099.369629	1315.552002	1.809638
887.811523	1298.018677	2028.905518	1307.502197	1.297536
888.109924	1303.752808	1794.686401	1308.384277	0.943400
888.408264	1292.174194	1871.105347	1222.702515	-11.999990
888.706543	1294.489868	1690.478760	1273.648438	-5.263135
889.004761	1331.541504	1743.740479	1262.069824	-16.853918
889.302979	1313.015747	1655.742920	1234.281128	-22.972973
889.601135	1329.225830	1637.217163	1271.332642	-18.797018
889.899170	1282.911255	1678.900146	1250.491211	-8.187109
890.197205	1313.015747	1667.321533	1248.175415	-18.300671
890.495178	1299.121338	1597.849854	1241.228271	-19.379826
890.793091	1271.332642	1570.061157	1252.806885	-6.201536
>>>>>End Processed Spectral Data<<<<<
