Jaz Data File
++++++++++++++++++++++++++++++++++++
Date: Thu Sep 26 04:30:36 2019
User: jaz
Dark Spectrum Present: Yes
Reference Spectrum Present: Yes
Processed Spectrum Present: Yes
Spectrometers: JAZA3541
Integration Time (usec): 100000 (JAZA3541)
Spectra Averaged: 1 (JAZA3541)
Boxcar Smoothing: 10 (JAZA3541)
Correct for Electrical Dark: No (JAZA3541)
Strobe/Lamp Enabled: Yes (JAZA3541)
Correct for Detector Non-linearity: No (JAZA3541)
Correct for Stray Light: No (JAZA3541)
Number of Pixels in Processed Spectrum: 2048
>>>>>Begin Processed Spectral Data<<<<<
W	D	R	S	P
190.543274	0.000000	0.000000	0.000000	0.000000
190.921555	0.000000	0.000000	0.000000	0.000000
191.299805	1296.805664	1336.172974	1141.652100	-394.117767
191.678024	1229.649658	1322.278564	1185.650879	-47.500053
192.056229	1345.435913	1313.015747	1183.335205	499.999634
192.434387	1331.541504	1278.279907	1204.176636	239.130768
192.812531	1303.752808	1324.594360	1215.755249	-422.221710
193.190659	1310.699951	1296.805664	1204.176636	766.669861
193.568741	1319.962891	1359.330200	1206.492432	-288.235229
193.946793	0.000000	0.000000	0.000000	0.000000
194.324829	1207.815674	1211.785522	1093.352783	-2883.306152
194.702835	1271.994385	1273.317627	1150.143188	-9208.533203
195.080811	1337.606445	1335.070313	1209.028687	5069.835449
195.458755	1337.827148	1332.203125	1211.344482	2248.971191
195.836685	1338.268188	1331.541626	1212.006104	1877.067017
196.214569	1339.811890	1336.172974	1213.329224	3475.833496
196.592422	1341.907104	1340.032471	1217.299072	6647.060059
196.970261	1342.679077	1342.127686	1217.188843	22758.822266
197.348068	1343.781860	1343.120117	1218.953247	18863.605469
197.725861	1344.222900	1342.127563	1221.048340	5878.508789
198.103622	1343.561279	1338.157837	1214.983398	2379.554932
198.481323	1340.253052	1337.496216	1215.093506	4539.970703
198.859039	1337.937378	1335.290771	1211.895630	4762.391113
199.236694	1335.070313	1335.621460	1209.469604	-22788.947266
199.614334	1333.416138	1335.511230	1210.792847	-5852.881348
199.991959	1329.115479	1337.937134	1217.188843	-1268.771362
200.369553	1324.373657	1337.826904	1214.101196	-819.671692
200.747101	1322.499023	1341.355835	1213.660156	-577.185974
201.124619	1320.514038	1341.576294	1214.211548	-504.706116
201.502136	1316.323608	1346.538452	1216.416992	-330.654083
201.879623	1313.677246	1349.736450	1217.629883	-266.360199
202.257065	1311.030640	1351.500854	1218.842896	-227.791580
202.634476	1309.927979	1352.934570	1218.953125	-211.537003
203.011871	1305.186279	1354.809082	1218.732666	-174.221542
203.389221	1303.091064	1361.866455	1220.496948	-140.524994
203.766571	1304.745117	1367.931519	1223.363892	-128.795471
204.143875	1300.334229	1365.064331	1221.048218	-122.487076
204.521164	1296.254272	1365.284912	1220.496948	-109.744492
204.898392	1297.798096	1363.300049	1220.827881	-117.508278
205.275620	1298.459717	1368.703369	1217.188721	-115.698708
205.652817	1293.718018	1368.482910	1215.314209	-104.867142
206.029984	1293.607666	1372.673218	1222.151123	-90.376328
206.407135	1291.953613	1374.988892	1220.497070	-86.055641
206.784225	1292.394775	1374.437378	1221.048340	-86.962669
207.161301	1293.607910	1372.893555	1221.599609	-90.821358
207.538376	1298.570190	1373.555176	1219.945435	-104.853996
207.915405	1302.209229	1370.798462	1216.086060	-125.563683
208.292404	1303.422119	1370.798584	1218.842773	-125.532478
208.669373	1305.406860	1366.718506	1217.078369	-144.064789
209.046310	1302.319336	1363.961670	1216.086060	-139.892944
209.423218	1303.863159	1361.645874	1215.975586	-152.100113
209.800095	1305.737793	1357.124756	1214.542236	-177.468277
210.176956	1308.715210	1353.265137	1211.454590	-218.318253
210.553787	1308.163818	1355.911743	1210.131348	-205.312531
210.930603	1309.597412	1356.242554	1208.587646	-216.549377
211.307358	1315.221313	1353.485718	1208.036255	-280.116882
211.684113	1317.316406	1349.846680	1204.948608	-345.425323
212.060837	1316.985596	1348.413086	1207.815796	-347.370392
212.437531	1316.765015	1350.839233	1201.530273	-338.187469
212.814178	1314.008179	1354.037109	1196.678223	-293.112885
213.190826	1312.574585	1351.280273	1200.537842	-289.458069
213.567413	1313.125977	1352.383057	1201.530273	-284.268982
213.943985	1310.258789	1357.345337	1197.229492	-240.045837
214.320541	1309.266479	1357.124756	1194.582886	-239.631683
214.697052	1307.612305	1361.315186	1197.449951	-205.133041
215.073563	1309.266357	1363.300049	1197.560181	-206.734299
215.449997	1303.863159	1360.874023	1199.545166	-182.979141
215.826431	1301.326904	1362.086914	1203.073975	-161.706573
216.202850	1300.334351	1364.954102	1202.963623	-150.682617
216.579224	1298.459717	1369.695923	1205.279419	-130.804688
216.955582	1300.885742	1374.989014	1208.036133	-125.297585
217.331894	1300.554932	1374.217041	1210.020996	-122.904350
217.708191	1300.003418	1376.863647	1212.777954	-113.485825
218.084442	1300.113770	1383.480103	1213.549805	-103.835640
218.460678	1296.915771	1384.141602	1217.629761	-90.897400
218.836899	1295.041260	1385.685303	1221.158569	-81.508598
219.213074	1292.615234	1387.339478	1222.040771	-74.505173
219.589233	1294.269287	1392.191650	1227.113281	-68.580864
219.965347	1296.805542	1398.697510	1230.200928	-65.367874
220.341431	1295.592529	1399.359131	1231.303711	-61.955212
220.717499	1296.254150	1400.241455	1236.155640	-57.794083
221.093552	1295.041260	1402.336548	1237.258545	-53.853916
221.469543	1299.011108	1407.078247	1236.596802	-57.755119
221.845535	1302.980835	1407.409058	1238.802124	-61.457249
222.221466	1305.296631	1411.709595	1241.559082	-59.896412
222.597397	1305.186279	1417.884766	1237.368652	-60.176167
222.973297	1302.760376	1426.706543	1240.787231	-50.000050
223.349167	1300.554932	1437.403076	1239.353760	-44.721958
223.725006	1297.467285	1446.996826	1237.589233	-40.044296
224.100800	1295.041260	1454.385010	1236.817383	-36.539795
224.476578	1295.372070	1465.081543	1237.368774	-34.177994
224.852325	1297.577515	1475.778076	1236.596802	-34.220268
225.228058	1298.680298	1495.847778	1240.676880	-29.418348
225.603760	1297.577637	1523.195313	1242.000122	-24.633493
225.979416	1295.261963	1552.086792	1247.734253	-18.505886
226.355057	1295.372192	1590.351318	1252.255493	-14.616864
226.730652	1296.805664	1642.069214	1254.571289	-12.232503
227.106232	1296.915894	1691.912231	1262.841675	-8.626465
227.481796	1294.159180	1736.903687	1264.716309	-6.650082
227.857315	1292.946167	1778.145630	1266.370483	-5.477270
228.232788	1296.033813	1815.638184	1273.648560	-4.308134
228.608246	1296.695435	1848.058350	1280.375244	-2.959972
228.983704	1297.026245	1883.345459	1284.014282	-2.219263
229.359100	1297.577637	1916.206665	1289.197021	-1.354708
229.734482	1293.166748	1945.870117	1291.512695	-0.253416
230.109833	1290.189453	1973.768921	1291.292114	0.161307
230.485153	1290.189331	1989.979126	1295.482422	0.756383
230.860443	1289.527710	2012.585205	1298.239258	1.204821
231.235703	1293.166748	2031.331421	1305.848022	1.717947
231.610931	1293.607788	2055.481445	1311.251343	2.315811
231.986145	1293.056396	2079.300049	1320.183350	3.450197
232.361313	1290.189209	2098.708252	1329.446289	4.855431
232.736465	1287.983765	2121.313965	1339.812012	6.219413
233.111572	1285.888550	2134.656982	1342.348145	6.651943
233.486664	1288.865845	2141.052734	1346.648804	6.780550
233.861725	1290.409668	2141.604248	1348.082275	6.775490
234.236755	1292.284302	2138.957520	1351.721313	7.020065
234.611771	1296.474731	2120.873047	1356.683594	7.303370
234.986740	1298.900635	2101.023926	1358.447876	7.423702
235.361679	1299.782959	2083.710938	1363.299805	8.102383
235.736588	1298.570068	2073.235107	1367.931396	8.953718
236.111496	1297.908447	2069.375488	1376.312134	10.162934
236.486343	1298.459717	2071.139893	1380.612671	10.632207
236.861160	1301.106323	2071.250000	1388.662720	11.368839
237.235962	1300.334351	2079.961426	1396.712524	12.362086
237.610733	1302.760376	2089.996338	1410.276001	13.657357
237.985474	1301.437134	2106.978271	1424.170410	15.236128
238.360199	1300.665283	2140.501221	1445.453125	17.240015
238.734879	1301.767944	2177.662842	1466.294678	18.783844
239.109543	1300.334473	2227.616455	1488.569702	20.299675
239.484177	1304.635132	2281.650146	1516.358398	21.670422
239.858749	1310.810303	2350.680908	1553.740723	23.361601
240.233322	1311.361694	2434.047119	1593.328491	25.115387
240.607864	1313.126099	2511.899414	1629.056885	26.354506
240.982391	1314.559570	2592.618896	1673.386719	28.075939
241.356857	1316.213745	2651.063232	1712.092041	29.657148
241.731308	1315.000610	2704.435059	1742.637695	30.777781
242.105728	1317.977905	2744.684814	1770.646729	31.728228
242.480118	1312.354126	2785.926758	1800.089600	33.098843
242.854492	1310.479492	2835.880127	1825.452393	33.759846
243.228836	1309.045898	2893.442383	1859.526611	34.743874
243.603134	1312.905518	2957.290283	1898.783691	35.629021
243.977402	1312.023193	3046.721436	1947.083130	36.609245
244.351654	1310.920532	3168.241699	2013.246826	37.813938
244.725861	1310.810303	3315.235107	2087.129395	38.730267
245.100067	1311.912964	3466.970215	2169.062012	39.773842
245.474213	1311.361694	3603.377197	2242.172852	40.611031
245.848343	1316.985474	3710.341553	2310.210938	41.499279
246.222443	1318.198486	3794.700195	2360.716064	42.096382
246.596512	1318.419067	3855.019287	2401.075684	42.681408
246.970566	1321.286133	3892.181641	2430.518311	43.145752
247.344574	1320.845093	3904.862793	2443.751221	43.455822
247.718567	1317.206055	3891.740234	2445.294922	43.817204
248.092529	1318.749756	3859.430420	2441.324951	44.184032
248.466431	1315.441650	3833.075195	2434.157227	44.435204
248.840332	1313.236206	3807.051025	2426.327637	44.634083
249.214203	1311.030640	3809.476563	2426.217529	44.635223
249.588043	1313.787598	3825.797363	2436.472900	44.692711
249.961838	1310.038330	3853.696045	2450.918457	44.851952
250.335617	1313.677124	3886.888428	2463.379395	44.679665
250.709381	1313.456665	3901.664795	2472.973145	44.799973
251.083084	1318.198608	3899.569824	2471.539795	44.679401
251.456787	1314.780029	3882.367188	2459.299316	44.575676
251.830460	1316.434204	3829.656738	2436.362793	44.561455
252.204071	1313.456787	3746.069824	2394.569336	44.442440
252.577667	1310.038452	3638.995117	2346.600830	44.507587
252.951248	1310.369263	3513.615234	2282.973633	44.144154
253.324799	1308.604858	3406.099365	2223.205811	43.604446
253.698303	1305.737671	3326.152100	2179.978760	43.270386
254.071793	1305.296631	3267.817627	2141.383301	42.602688
254.445236	1304.083618	3233.853760	2115.469238	42.045712
254.818665	1300.113770	3219.959473	2103.008545	41.820797
255.192062	1300.003418	3219.077393	2107.529785	42.078960
255.565430	1300.444458	3243.888672	2116.131104	41.971188
255.938782	1301.878052	3283.365967	2126.386475	41.610569
256.312103	1304.745117	3340.266846	2142.927490	41.177765
256.685364	1306.730225	3419.442383	2172.260010	40.967709
257.058594	1304.965820	3518.357178	2208.870605	40.838001
257.431793	1302.098633	3646.714600	2258.603271	40.795792
257.804993	1302.760254	3790.178955	2316.165527	40.741241
258.178162	1299.672729	3928.240234	2371.522217	40.776947
258.551270	1298.128906	4052.517578	2423.901611	40.871964
258.924377	1294.379639	4145.587402	2460.512207	40.899601
259.297485	1293.938599	4222.999023	2492.381104	40.915592
259.670502	1293.056396	4286.625977	2516.420410	40.866398
260.043518	1295.151489	4346.063477	2541.011230	40.835648
260.416473	1298.569946	4394.473145	2558.875732	40.708824
260.789459	1297.026123	4449.830078	2581.260986	40.733101
261.162354	1297.246704	4497.467773	2604.638672	40.853176
261.535278	1298.349365	4541.796875	2617.209717	40.662300
261.908142	1298.790527	4576.092285	2630.552734	40.635937
262.280975	1301.216553	4595.279297	2631.655518	40.389000
262.653717	1302.870605	4609.834961	2632.868408	40.218086
263.026520	1300.113892	4627.809570	2628.567871	39.921135
263.399261	1297.357056	4643.688477	2622.172119	39.590073
263.771973	1296.915894	4654.495605	2617.981689	39.345779
264.144653	1298.239258	4653.502930	2617.540527	39.320347
264.517334	1301.106323	4633.103027	2603.756592	39.095184
264.889954	1302.208862	4586.678223	2577.511719	38.828278
265.262543	1305.627563	4506.179199	2540.790771	38.592197
265.635071	1308.053589	4405.610840	2486.646973	38.049126
266.007599	1311.802856	4310.224609	2437.134277	37.530788
266.380127	1312.133545	4240.201660	2399.090332	37.121979
266.752594	1315.882935	4205.575684	2376.705078	36.710548
267.125031	1315.000732	4197.084473	2365.788086	36.459293
267.497437	1313.236328	4212.963867	2357.187012	36.001682
267.869843	1316.544556	4239.098633	2356.194580	35.573338
268.242218	1313.567261	4277.473633	2358.069092	35.240719
268.614532	1311.913208	4335.697754	2369.427246	34.973194
268.986816	1312.354126	4430.973633	2391.040771	34.588593
269.359100	1311.471924	4539.150879	2417.175293	34.256920
269.731354	1310.038452	4652.510742	2447.610596	34.033855
270.103516	1311.030762	4749.219727	2477.163574	33.917065
270.475708	1311.361572	4830.049805	2502.636475	33.855652
270.847839	1314.890381	4902.499023	2519.397949	33.574108
271.219971	1318.419067	4961.053711	2538.364502	33.490742
271.592041	1320.403809	5006.596191	2550.935791	33.382198
271.964081	1321.065552	5036.369629	2555.897949	33.236374
272.336151	1316.434204	5064.048340	2556.559814	33.091068
272.708130	1316.654785	5090.182129	2560.198730	32.954418
273.080109	1313.015869	5107.385254	2553.692383	32.697830
273.452026	1311.582275	5141.238770	2559.426758	32.583717
273.823914	1310.369263	5176.085449	2563.286621	32.410999
274.195770	1310.369263	5215.893555	2564.278564	32.106041
274.567627	1309.376831	5261.987793	2570.012939	31.893757
274.939423	1310.700073	5304.332031	2579.606689	31.773251
275.311249	1312.243896	5345.464355	2588.428467	31.641825
275.682983	1310.479492	5376.120117	2595.927246	31.617348
276.054688	1309.707520	5401.151855	2593.721680	31.382906
276.426422	1307.943115	5403.577148	2587.987305	31.253872
276.798065	1312.243896	5370.495117	2572.880371	31.063540
277.169708	1313.236206	5325.172852	2554.795654	30.946638
277.541321	1317.757446	5277.536133	2538.254639	30.822357
277.912903	1316.985352	5267.832031	2531.638184	30.744114
278.284424	1316.764893	5279.741211	2526.014404	30.513670
278.655945	1315.882813	5301.685547	2534.284668	30.568544
279.027435	1312.574707	5332.010254	2543.768066	30.631001
279.398865	1310.920532	5391.226563	2567.256104	30.790228
279.770294	1307.502075	5467.424805	2586.884521	30.754955
280.141663	1310.810303	5539.763672	2610.482666	30.732721
280.513031	1313.015869	5615.631348	2638.712646	30.811419
280.884369	1315.993164	5680.912598	2664.957520	30.904680
281.255676	1314.559570	5725.462402	2680.726563	30.972502
281.626953	1313.787720	5763.727051	2700.796143	31.169153
281.998199	1316.654907	5805.189453	2721.086426	31.289310
282.369385	1313.346680	5856.245605	2741.707275	31.441610
282.740540	1313.236328	5915.572754	2759.902344	31.433296
283.111694	1311.802856	5983.280273	2791.660645	31.678581
283.482819	1310.479492	6070.064941	2819.890381	31.713076
283.853912	1314.559570	6165.339844	2861.132324	31.882969
284.224945	1315.441772	6257.858398	2904.138672	32.144131
284.595978	1313.346436	6348.502930	2941.631592	32.338326
284.966980	1311.030762	6425.914551	2981.990967	32.668587
285.337952	1309.817749	6500.238281	3013.749512	32.828396
285.708893	1306.730103	6535.746094	3046.280029	33.267250
286.079803	1305.406860	6558.352051	3075.281738	33.693001
286.450684	1304.745239	6574.893066	3099.431641	34.053814
286.821533	1307.391846	6588.677246	3118.398682	34.291027
287.192322	1306.399414	6596.506836	3137.916992	34.621559
287.563110	1307.391968	6602.571289	3166.146484	35.102768
287.933868	1303.642700	6627.272461	3194.817383	35.524158
288.304596	1299.672852	6668.735352	3236.280029	36.069744
288.675262	1300.885742	6725.304199	3293.070801	36.726242
289.045929	1301.326782	6777.683594	3349.971436	37.408894
289.416565	1300.113770	6826.645020	3402.791260	38.046967
289.787170	1296.805664	6843.957520	3441.277100	38.658962
290.157745	1293.718018	6845.170898	3483.621582	39.447395
290.528259	1293.497437	6840.870605	3524.091553	40.209919
290.898773	1294.820801	6830.614746	3546.586670	40.676476
291.269226	1294.269287	6813.852539	3580.440430	41.419273
291.639679	1290.630371	6797.202148	3616.499512	42.238060
292.010101	1294.820801	6810.876465	3662.924561	42.931107
292.380463	1293.828369	6840.539551	3722.030762	43.777336
292.750824	1298.680298	6882.332031	3779.041748	44.421848
293.121155	1300.775391	6928.756836	3840.573730	45.128052
293.491455	1307.502197	6990.068359	3898.687012	45.598846
293.861725	1310.920532	7072.000977	3966.284668	46.091427
294.231964	1313.125977	7184.479004	4040.828857	46.457825
294.602142	1314.669678	7298.721680	4120.776855	46.893097
294.972321	1314.669800	7398.077148	4191.902344	47.296398
295.342468	1316.213623	7496.991699	4264.681641	47.703831
295.712555	1317.095825	7559.295410	4324.339355	48.176025
296.082672	1318.419067	7583.776855	4360.508789	48.554127
296.452728	1315.882813	7585.761719	4375.946777	48.805790
296.822693	1319.080688	7589.400879	4387.084473	48.928982
297.192657	1321.065552	7589.180664	4394.142090	49.027126
297.562622	1322.388916	7606.824219	4417.630371	49.252499
297.932556	1326.027954	7627.886230	4434.061035	49.319313
298.302460	1328.233398	7634.833496	4446.742188	49.448338
298.672333	1327.792358	7640.347656	4467.694336	49.740585
299.042145	1329.005127	7636.597656	4471.664063	49.823429
299.411957	1330.218140	7623.033691	4468.025391	49.863327
299.781677	1326.027954	7584.768555	4454.130371	49.979744
300.151428	1326.579224	7523.125977	4432.296387	50.120129
300.521149	1326.248291	7458.727051	4404.176758	50.190613
300.890839	1322.829956	7386.829590	4371.536133	50.275501
301.260468	1317.095825	7310.961914	4334.153809	50.335758
301.630096	1318.418945	7223.515625	4287.288086	50.276386
301.999695	1319.080688	7102.436523	4234.356934	50.408039
302.369232	1316.323975	6976.063965	4169.736816	50.415970
302.738739	1314.449219	6859.727051	4105.337891	50.329105
303.108246	1310.699951	6722.106445	4042.151367	50.475815
303.477692	1311.251343	6610.841309	3986.794922	50.485859
303.847137	1311.361816	6522.182129	3943.678955	50.516369
304.216553	1311.361572	6456.680176	3904.863037	50.405071
304.585876	1310.369141	6397.794434	3873.104492	50.373917
304.955231	1309.597046	6350.267090	3849.175537	50.381767
305.324493	1306.619751	6311.010254	3831.090332	50.445118
305.693787	1306.178711	6280.244629	3804.735107	50.231670
306.063049	1306.509521	6274.399414	3791.612305	50.023308
306.432251	1307.391846	6272.414551	3784.775391	49.896725
306.801422	1305.627319	6267.783691	3779.152100	49.847782
307.170593	1304.524658	6268.334961	3774.740967	49.764515
307.539673	1303.642456	6275.171875	3775.844238	49.727188
307.908783	1304.304077	6290.831055	3775.513428	49.557728
308.277832	1302.650146	6307.150879	3778.049561	49.463463
308.646851	1300.444702	6338.357910	3783.673096	49.290817
309.015839	1303.973389	6378.717773	3797.897949	49.143848
309.384796	1298.239258	6410.586914	3812.454346	49.179268
309.753723	1295.151733	6446.205566	3826.458740	49.141541
310.122620	1294.600220	6472.339844	3842.227783	49.203468
310.491486	1296.144165	6484.690430	3850.166992	49.224247
310.860352	1299.342041	6501.231445	3854.247314	49.114944
311.229126	1299.452148	6515.456055	3858.216797	49.056034
311.597931	1298.680298	6523.726074	3857.666016	48.975376
311.966675	1300.224121	6544.016602	3874.096680	49.084179
312.335388	1300.665161	6579.523926	3892.512207	49.098625
312.704071	1298.680298	6617.236816	3903.539063	48.976799
313.072723	1301.326904	6632.564941	3906.186279	48.860306
313.441345	1301.988525	6630.139160	3913.022705	49.004513
313.809875	1302.650146	6611.061523	3900.672363	48.941616
314.178436	1298.459839	6573.018066	3875.309082	48.854313
314.546967	1304.193970	6535.194824	3854.136963	48.746750
314.915466	1304.635132	6494.283691	3839.801758	48.850449
315.283936	1308.604858	6440.911621	3812.123047	48.779587
315.652374	1309.266602	6398.125977	3784.114258	48.632660
316.020752	1307.943237	6345.084961	3758.200195	48.643795
316.389130	1313.236328	6299.542480	3739.784668	48.664246
316.757416	1313.346680	6259.072266	3715.745117	48.575249
317.125732	1312.574585	6233.378418	3695.565186	48.426861
317.494019	1313.126099	6201.399414	3677.260010	48.363369
317.862274	1315.441895	6169.530762	3655.646484	48.210995
318.230469	1314.338989	6137.441406	3642.744873	48.276100
318.598663	1315.441772	6109.211914	3623.005615	48.136726
318.966797	1315.221069	6076.571289	3606.795654	48.128674
319.334930	1314.449341	6049.113281	3585.182617	47.959759
319.703003	1310.148682	6018.347656	3555.519287	47.690647
320.071045	1307.612305	5975.341309	3528.722412	47.584385
320.439056	1306.178711	5939.722656	3513.504883	47.637966
320.807037	1306.399292	5937.627441	3494.427490	47.245102
321.175049	1305.296631	5958.910156	3491.119873	46.970451
321.542969	1301.878052	5990.778809	3505.344971	46.993248
321.910828	1306.178711	6035.219238	3527.178955	46.965134
322.278717	1304.965820	6093.112305	3551.880127	46.926598
322.646515	1308.053345	6142.183594	3565.113525	46.690094
323.014313	1307.501953	6192.908691	3574.816895	46.409954
323.382111	1304.855469	6229.739746	3589.704346	46.393959
323.749817	1304.745117	6278.259766	3600.289551	46.155376
324.117523	1303.752808	6305.828125	3603.598145	45.977821
324.485199	1301.326782	6320.052734	3604.149658	45.884609
324.852814	1304.193970	6319.501465	3601.833740	45.812538
325.220428	1306.399292	6317.957520	3592.129395	45.609169
325.588013	1305.075928	6324.794434	3596.209717	45.642673
325.955536	1308.384155	6334.498535	3594.666016	45.488056
326.323059	1308.825317	6352.804199	3597.643311	45.377228
326.690552	1309.597168	6376.622070	3596.319824	45.129494
327.058014	1311.030640	6396.030273	3601.723633	45.048046
327.425415	1314.338989	6409.152344	3606.795654	44.995888
327.792816	1317.977905	6423.708984	3611.757813	44.925591
328.160187	1320.955322	6430.545410	3609.111328	44.781597
328.527496	1321.837646	6416.541504	3604.921143	44.812878
328.894775	1322.940430	6410.255859	3598.415283	44.728401
329.262054	1325.697144	6391.839844	3583.528564	44.567074
329.629303	1323.712280	6378.275879	3570.075195	44.442272
329.996490	1321.837646	6364.161621	3559.158447	44.370823
330.363647	1317.977905	6370.558105	3560.812500	44.389885
330.730774	1316.985718	6381.474609	3568.641357	44.459686
331.097839	1316.544434	6412.020020	3568.200439	44.189320
331.464935	1316.103394	6438.044434	3573.052490	44.064335
331.831970	1312.353882	6459.437500	3575.919678	43.977642
332.198975	1311.802490	6487.336426	3584.851563	43.919121
332.565948	1311.582153	6516.007324	3591.027100	43.798203
332.932892	1304.965698	6553.610352	3600.510498	43.735958
333.299744	1305.406860	6581.950195	3603.377197	43.550674
333.666656	1301.878174	6619.553711	3609.001221	43.385929
334.033478	1300.444702	6650.540039	3614.956055	43.261124
334.400299	1300.665283	6674.027344	3623.778320	43.233879
334.767090	1298.570068	6710.527344	3632.820313	43.131351
335.133850	1299.562622	6735.669434	3641.531738	43.081738
335.500549	1296.805786	6758.166016	3651.014893	43.106640
335.867218	1291.622803	6781.985352	3653.109863	43.011497
336.233917	1292.725586	6818.154785	3665.460449	42.942093
336.600525	1292.505005	6834.694824	3668.769043	42.875908
336.967102	1293.938599	6855.757324	3680.127197	42.903023
337.333649	1296.915894	6867.004395	3681.340088	42.807655
337.700195	1294.269287	6866.563965	3678.142090	42.780807
338.066681	1296.254150	6856.970215	3663.475830	42.570450
338.433136	1295.813110	6847.266602	3652.338135	42.448792
338.799591	1296.254272	6825.983398	3644.950195	42.473976
339.165985	1296.584961	6811.758789	3641.862793	42.524097
339.532318	1300.775391	6816.390625	3648.478516	42.564663
339.898651	1300.995972	6828.851074	3655.426270	42.592113
340.264954	1300.444580	6846.163574	3659.615967	42.540409
340.631226	1305.627319	6861.712891	3671.084717	42.574173
340.997467	1305.406860	6901.410645	3682.994141	42.487236
341.363678	1306.840454	6942.652344	3696.337158	42.398445
341.729828	1308.274048	6995.914551	3721.810303	42.434750
342.095947	1305.627563	7056.674316	3752.576172	42.547882
342.462067	1306.178833	7114.677734	3773.197510	42.472565
342.828156	1305.076050	7183.377441	3804.404297	42.517864
343.194183	1304.414551	7254.171875	3824.584473	42.357525
343.560211	1309.597290	7313.718750	3850.498535	42.319286
343.926178	1311.582275	7371.282227	3876.412598	42.326027
344.292114	1310.259155	7404.143066	3894.056152	42.399837
344.658020	1307.502197	7440.643066	3903.208252	42.322624
345.023926	1307.943237	7478.025391	3909.934814	42.171104
345.389771	1309.817871	7515.187500	3920.852051	42.077011
345.755585	1307.061157	7535.036621	3927.578857	42.076553
346.121368	1309.376953	7556.099121	3939.377930	42.102097
346.487122	1309.707642	7582.233398	3946.325195	42.034386
346.852844	1309.597412	7608.037109	3947.318115	41.878956
347.218536	1308.163818	7628.216309	3949.302490	41.789822
347.584167	1309.487061	7650.822266	3950.516113	41.647839
347.949768	1309.487061	7669.127930	3962.314697	41.713482
348.315369	1310.259033	7693.718750	3969.482422	41.658024
348.680939	1312.684937	7708.384766	3972.129150	41.581757
349.046448	1312.464478	7717.426270	3975.217529	41.573284
349.411957	1310.810303	7721.727051	3970.034668	41.479626
349.777435	1313.677490	7716.654785	3955.478516	41.258945
350.142792	1315.772705	7705.848145	3950.295410	41.228352
350.508209	1317.757568	7707.170898	3937.944824	41.008263
350.873566	1320.734985	7710.369629	3941.583252	41.017181
351.238892	1324.153320	7723.822754	3949.743652	41.026970
351.604187	1317.647217	7751.722656	3958.896240	41.050949
351.969482	1319.521973	7817.224609	3975.657715	40.878075
352.334717	1317.647339	7876.330566	3999.035645	40.883026
352.699890	1318.308838	7959.255371	4040.387207	40.989315
353.065063	1317.647217	8043.062500	4069.500000	40.917217
353.430237	1317.095825	8157.305176	4113.498047	40.881824
353.795319	1313.456787	8287.425781	4158.489746	40.795036
354.160370	1313.897827	8413.466797	4215.060059	40.863918
354.525421	1315.441650	8548.000977	4280.230957	40.992256
354.890442	1315.993164	8704.146484	4338.234375	40.906586
355.255402	1310.589600	8870.106445	4413.219727	41.042706
355.620331	1311.912964	9055.035156	4486.991699	41.005146
355.985260	1311.913086	9232.242188	4554.919922	40.945354
356.350098	1310.699951	9388.499023	4620.201172	40.970333
356.714935	1313.015869	9533.837891	4676.991211	40.920181
357.079742	1313.456909	9660.432617	4732.348145	40.959641
357.444519	1311.361694	9805.770508	4794.541992	41.005562
357.809296	1311.030762	9967.540039	4862.249512	41.023678
358.173981	1309.266479	10156.877930	4936.021973	40.991352
358.538605	1307.171265	10367.388672	5014.535645	40.919151
358.903259	1303.091187	10606.127930	5103.856934	40.855106
359.267914	1305.958008	10871.113281	5206.079590	40.774261
359.632477	1302.208740	11147.125000	5326.717285	40.879055
359.997009	1303.091064	11412.661133	5434.012695	40.861500
360.361542	1299.893188	11615.783203	5512.306641	40.834225
360.726013	1303.201416	11769.945313	5579.792969	40.858856
361.090485	1304.304321	11863.676758	5620.152832	40.872208
361.454895	1310.259033	11911.866211	5644.854004	40.886204
361.819244	1311.251343	11933.588867	5657.866211	40.919567
362.183594	1308.935791	11933.038086	5652.462891	40.883709
362.547913	1305.958374	11891.907227	5637.355469	40.916473
362.912201	1310.148682	11832.580078	5609.346191	40.857449
363.276489	1311.692383	11753.514648	5569.096191	40.772614
363.640686	1309.045898	11666.289063	5530.611816	40.759552
364.004883	1308.053467	11603.984375	5496.647461	40.682030
364.369049	1307.502075	11540.247070	5469.189941	40.670300
364.733154	1305.627319	11501.651367	5443.496094	40.583157
365.097198	1305.296631	11440.780273	5415.486816	40.552486
365.461273	1304.855469	11349.916992	5385.381836	40.622215
365.825287	1303.863037	11219.022461	5336.090332	40.667297
366.189270	1305.517212	11049.423828	5265.625977	40.641903
366.553223	1306.509644	10853.798828	5182.922363	40.602234
366.917114	1304.083740	10603.810547	5081.581543	40.619450
367.281006	1309.156250	10322.946289	4958.186523	40.482754
367.644867	1308.715088	10066.894531	4848.795898	40.420280
368.008698	1311.251465	9856.163086	4753.520996	40.284435
368.372498	1305.958374	9704.648438	4684.380371	40.225578
368.736237	1305.075928	9600.442383	4638.616699	40.185577
369.099976	1302.429565	9538.358398	4605.094238	40.100693
369.463654	1301.988525	9494.360352	4575.541016	39.958542
369.827332	1302.208862	9463.153320	4559.219727	39.909729
370.190948	1304.193848	9440.435547	4547.200684	39.858784
370.554535	1302.650146	9416.837891	4534.188477	39.825779
370.918091	1301.106445	9393.791016	4524.263672	39.828033
371.281647	1303.091309	9380.999023	4523.270996	39.864033
371.645111	1305.848267	9366.443359	4528.233398	39.977013
372.008575	1305.186523	9363.686523	4532.423828	40.047619
372.371979	1305.406982	9347.367188	4535.511719	40.165642
372.735382	1308.604858	9362.143555	4541.907227	40.147598
373.098724	1308.384155	9392.909180	4542.789551	40.007362
373.462067	1307.501953	9422.242188	4562.087891	40.107086
373.825348	1305.847900	9491.492188	4591.088379	40.134171
374.188599	1304.855347	9567.139648	4623.398926	40.164963
374.551819	1305.517090	9684.690430	4667.728027	40.125805
374.915009	1303.091187	9826.390625	4720.989746	40.100647
375.278168	1303.532227	9977.463867	4772.156738	39.989071
375.641266	1299.672729	10109.459961	4838.209961	40.165977
376.004395	1302.319214	10216.204102	4884.303711	40.184326
376.367462	1305.296631	10289.535156	4910.549316	40.128639
376.730469	1302.980957	10335.959961	4934.037109	40.197773
377.093475	1300.995972	10366.173828	4946.167480	40.210701
377.456421	1299.672852	10399.367188	4959.069336	40.214500
377.819336	1303.201538	10434.763672	4973.625000	40.194912
378.182281	1304.304199	10477.661133	4986.196289	40.136799
378.545135	1306.619873	10523.974609	5009.463379	40.172520
378.907928	1304.965820	10570.621094	5020.049805	40.095211
379.270752	1303.752808	10610.319336	5020.821289	39.940277
379.633484	1304.304077	10644.283203	5032.730469	39.918999
379.996246	1308.604858	10675.931641	5041.221680	39.847191
380.358948	1305.737671	10694.016602	5048.168457	39.862797
380.721558	1306.509521	10717.394531	5058.865234	39.872509
381.084198	1307.281494	10758.856445	5057.652832	39.679855
381.446747	1309.156006	10778.814453	5061.291504	39.622711
381.809326	1310.589722	10797.670898	5062.834961	39.551102
382.171875	1312.574707	10791.716797	5061.402344	39.548172
382.534363	1312.354126	10755.877930	5049.712402	39.575890
382.896790	1311.361572	10704.710938	5036.589844	39.658146
383.259247	1315.441772	10669.204102	5022.144531	39.627930
383.621613	1316.544556	10660.161133	5013.542969	39.567104
383.983948	1316.765015	10687.950195	5027.327148	39.595440
384.346283	1317.647217	10738.124023	5044.860352	39.565018
384.708588	1315.772705	10823.144531	5077.391113	39.565281
385.070831	1320.073242	10899.012695	5105.951660	39.522938
385.433075	1315.662354	10992.963867	5137.379395	39.491554
385.795258	1316.765015	11075.448242	5169.358398	39.478615
386.157440	1312.133667	11151.536133	5199.352539	39.506657
386.519531	1312.795288	11244.496094	5232.985840	39.471489
386.881622	1310.810303	11316.504883	5273.345703	39.602802
387.243683	1310.700073	11391.710938	5298.157227	39.554138
387.605713	1307.391724	11473.091797	5324.401855	39.515331
387.967682	1309.817749	11555.907227	5351.970703	39.450687
388.329651	1307.832886	11652.283203	5386.264648	39.426277
388.691559	1308.053345	11748.441406	5430.042969	39.481194
389.053467	1303.752686	11868.749023	5479.114746	39.520718
389.415314	1301.326782	11987.513672	5527.523926	39.548225
389.777130	1303.752808	12107.820313	5565.347656	39.444355
390.138885	1299.782959	12230.442383	5607.912598	39.413265
390.500641	1300.665039	12323.181641	5644.964355	39.412952
390.862366	1296.584961	12410.408203	5674.076660	39.387810
391.224060	1296.364502	12484.620117	5700.651855	39.365269
391.585693	1297.246704	12571.514648	5728.881836	39.307522
391.947296	1298.569946	12659.623047	5761.853516	39.285828
392.308868	1304.524658	12724.023438	5791.958008	39.296238
392.670441	1304.304077	12789.525391	5817.650879	39.296993
393.031952	1307.171265	12819.077148	5835.074219	39.332348
393.393433	1306.399414	12846.205078	5840.477539	39.290768
393.754883	1308.494507	12861.644531	5839.484863	39.218655
394.116302	1307.502075	12850.395508	5841.028320	39.275475
394.477692	1311.141113	12853.373047	5838.602051	39.225174
394.839020	1310.589722	12852.491211	5836.175781	39.210056
395.200348	1310.589722	12851.718750	5839.594727	39.242306
395.561646	1308.825317	12834.958008	5839.263672	39.305798
395.922882	1312.574585	12799.230469	5827.022949	39.301674
396.284088	1313.787476	12739.682617	5809.489746	39.346607
396.645264	1316.103271	12662.161133	5775.746094	39.305656
397.006409	1316.985474	12567.545898	5741.121094	39.323692
397.367523	1312.905396	12464.992188	5707.488281	39.405926
397.728577	1317.426514	12368.834961	5677.494629	39.452606
398.089600	1319.080688	12297.267578	5643.971680	39.395313
398.450592	1319.631958	12241.248047	5617.836914	39.355026
398.811584	1319.631958	12182.804688	5594.569336	39.352570
399.172546	1317.536865	12098.225586	5567.222656	39.419426
399.533447	1316.323853	12017.835938	5534.471191	39.416370
399.894318	1310.479492	11962.148438	5508.226563	39.409290
400.255127	1308.935791	11911.533203	5482.202148	39.360794
400.615936	1307.502197	11882.752930	5475.254883	39.410439
400.976685	1307.171387	11886.833008	5484.187012	39.481560
401.337433	1305.517212	11916.826172	5497.529297	39.505138
401.698151	1304.745483	11971.852539	5519.474121	39.511448
402.058807	1301.657715	12056.542969	5545.608398	39.460682
402.419434	1299.672729	12151.487305	5590.489258	39.540081
402.780060	1297.467285	12260.105469	5630.518066	39.525620
403.140594	1296.364624	12359.020508	5668.672852	39.523132
403.501129	1292.394775	12453.856445	5707.708984	39.558567
403.861633	1291.181763	12540.641602	5741.783691	39.562805
404.222076	1289.196777	12626.102539	5771.777832	39.539722
404.582550	1287.983765	12698.000000	5805.962402	39.596600
404.942932	1289.307007	12768.574219	5835.846191	39.606525
405.303284	1293.607666	12843.891602	5857.018555	39.509083
405.663605	1292.174316	12899.579102	5873.669922	39.470459
406.023895	1293.056396	12936.077148	5888.005371	39.465267
406.384125	1290.409912	12989.669922	5919.212891	39.564919
406.744354	1290.850952	13056.826172	5940.936523	39.521461
407.104553	1291.291992	13123.429688	5969.166504	39.535328
407.464691	1296.364624	13183.198242	5993.536621	39.515751
407.824829	1296.916016	13253.110352	6035.550293	39.633301
408.184906	1296.805664	13333.279297	6062.346191	39.592499
408.544922	1298.129028	13397.016602	6080.872070	39.530437
408.904938	1299.562500	13444.985352	6098.405273	39.511532
409.264923	1300.224121	13466.709961	6102.265137	39.469414
409.624847	1298.239258	13452.485352	6107.888672	39.571762
409.984802	1301.437256	13428.113281	6097.302246	39.548061
410.344666	1303.091187	13393.708008	6077.232910	39.486336
410.704529	1305.076050	13355.223633	6059.810059	39.457890
411.064331	1307.612305	13323.023438	6045.584961	39.432465
411.424133	1306.399414	13317.508789	6038.086426	39.394253
411.783875	1306.509644	13312.107422	6039.409180	39.422440
412.143555	1310.369263	13321.479492	6042.496582	39.397919
412.503235	1308.274048	13338.792969	6047.127930	39.390274
412.862885	1304.635010	13348.716797	6066.206055	39.534531
413.222473	1305.406860	13404.625000	6097.192871	39.604099
413.582062	1303.642578	13483.800781	6128.068848	39.608898
413.941559	1302.870605	13553.383789	6147.807617	39.548847
414.301086	1304.855591	13638.513672	6178.352539	39.513802
414.660522	1306.399414	13709.198242	6204.377441	39.490910
415.019958	1303.863037	13795.209961	6235.033203	39.476688
415.379364	1302.429688	13906.364258	6262.711426	39.355026
415.738708	1300.555054	14027.223633	6301.636719	39.296078
416.098053	1300.996216	14169.366211	6352.693359	39.256699
416.457336	1300.996094	14353.409180	6420.731445	39.224434
416.816559	1302.870728	14553.443359	6500.348145	39.224552
417.175812	1306.840454	14794.830078	6584.376465	39.127670
417.535004	1302.319336	15084.958008	6683.731445	39.044861
417.894135	1306.289063	15413.351563	6810.435059	39.016953
418.253265	1303.091187	15806.914063	6959.633789	39.000355
418.612335	1300.775513	16211.945313	7122.947754	39.045712
418.971405	1302.870728	16630.541016	7288.908691	39.053802
419.330414	1304.304077	17066.005859	7462.145996	39.068382
419.689423	1303.642334	17500.701172	7632.296875	39.072861
420.048370	1306.178711	17901.873047	7791.750977	39.079845
420.407257	1306.619751	18312.748047	7935.214844	38.977684
420.766144	1307.281372	18696.716797	8078.349121	38.937824
421.125000	1310.479370	19089.509766	8224.129883	38.886543
421.483795	1311.692383	19479.652344	8374.430664	38.874687
421.842560	1309.817749	19892.181641	8546.896484	38.945953
422.201324	1305.627563	20295.669922	8704.476563	38.961731
422.560028	1306.730225	20666.406250	8841.876953	38.921864
422.918671	1310.259033	21005.935547	8980.048828	38.941494
423.277283	1307.281494	21295.291016	9097.599609	38.974957
423.635925	1306.950806	21519.697266	9188.574219	38.993332
423.994476	1306.178833	21684.664063	9257.274414	39.017109
424.353027	1301.437134	21815.447266	9303.919922	39.009842
424.711487	1299.562500	21918.664063	9344.279297	39.015846
425.069946	1303.422119	21966.853516	9360.709961	38.992981
425.428375	1300.003662	21932.335938	9356.739258	39.049076
425.786743	1302.980957	21839.044922	9315.277344	39.015736
426.145081	1302.650146	21688.634766	9246.686523	38.968124
426.503418	1303.201538	21511.423828	9168.283203	38.920204
426.861725	1303.642578	21295.402344	9079.955078	38.897591
427.219971	1305.958252	21063.716797	8985.009766	38.866009
427.578186	1305.737671	20870.742188	8907.267578	38.852688
427.936371	1306.509521	20683.941406	8836.914063	38.861725
428.294495	1304.524658	20465.931641	8756.966797	38.892982
428.652618	1305.406982	20213.738281	8659.044922	38.890991
429.010712	1308.604858	19949.083984	8559.467773	38.898479
429.368744	1307.502197	19655.095703	8433.647461	38.839672
429.726746	1309.266479	19377.318359	8315.655273	38.777775
430.084717	1308.163818	19099.431641	8208.470703	38.784794
430.442688	1307.060913	18835.882813	8092.243164	38.708717
430.800568	1309.376709	18608.390625	8006.892090	38.716171
431.158417	1306.840454	18434.820313	7941.279785	38.734512
431.516235	1306.068604	18281.431641	7877.211426	38.709881
431.874023	1311.692505	18144.582031	7830.787109	38.728317
432.231812	1313.567261	18015.671875	7785.464844	38.748993
432.589508	1312.574707	17917.308594	7754.479004	38.795589
432.947205	1313.015869	17823.136719	7715.883789	38.781471
433.304840	1313.015747	17743.410156	7693.388184	38.832741
433.662476	1316.213623	17696.322266	7672.877441	38.807217
434.020050	1314.890381	17657.066406	7658.982910	38.820370
434.377594	1312.795166	17623.541016	7635.164551	38.761986
434.735138	1308.825195	17599.613281	7630.091309	38.802704
435.092621	1308.935669	17586.931641	7616.197266	38.747162
435.450043	1307.612305	17582.742188	7609.250000	38.719433
435.807465	1309.707520	17606.451172	7611.454590	38.668751
436.164856	1308.053345	17642.402344	7631.194336	38.710701
436.522156	1303.973267	17711.433594	7649.168945	38.672626
436.879486	1305.737671	17791.822266	7684.676270	38.692867
437.236755	1306.840454	17887.759766	7726.359375	38.716301
437.593994	1306.730225	17994.613281	7768.703125	38.722542
437.951172	1304.635010	18134.107422	7825.052734	38.744041
438.308380	1308.053467	18255.406250	7861.223145	38.667809
438.665497	1306.840454	18378.800781	7912.610840	38.693684
439.022583	1309.266602	18541.562500	7970.944336	38.658096
439.379608	1306.399414	18692.748047	8025.418945	38.645378
439.736633	1303.973389	18803.460938	8052.104980	38.561882
440.093628	1303.311646	18901.603516	8082.980469	38.524586
440.450562	1302.098633	18996.988281	8105.697266	38.449509
440.807495	1300.003540	19074.402344	8141.535156	38.490932
441.164368	1297.687866	19164.937500	8174.836914	38.490250
441.521210	1294.820679	19226.908203	8204.279297	38.531254
441.878021	1295.813232	19294.947266	8236.148438	38.559269
442.234833	1294.820801	19409.521484	8259.636719	38.448418
442.591522	1293.056274	19506.119141	8299.776367	38.470852
442.948242	1294.379517	19605.806641	8341.019531	38.482201
443.304901	1289.748169	19723.906250	8384.245117	38.485603
443.661530	1290.961060	19876.414063	8435.632813	38.442280
444.018127	1295.372070	20038.294922	8492.973633	38.401707
444.374664	1293.717773	20193.007813	8549.213867	38.390312
444.731201	1294.710327	20324.121094	8599.277344	38.385674
445.087738	1294.159058	20459.091797	8647.026367	38.366253
445.444183	1294.048950	20529.777344	8679.556641	38.394741
445.800598	1288.535278	20607.960938	8699.294922	38.359112
446.156982	1294.710449	20632.111328	8698.744141	38.288670
446.513336	1294.379639	20623.511719	8699.515625	38.310749
446.869598	1296.143921	20639.279297	8696.869141	38.260216
447.225891	1296.254272	20655.710938	8716.386719	38.328205
447.582153	1298.569946	20644.904297	8716.938477	38.345089
447.938354	1298.900757	20658.910156	8739.654297	38.433624
448.294495	1300.113892	20673.464844	8725.098633	38.325764
448.650665	1300.775269	20647.441406	8721.789063	38.358101
449.006775	1304.304199	20650.308594	8708.998047	38.275055
449.362823	1304.634888	20653.947266	8709.329102	38.268513
449.718842	1306.068604	20646.886719	8708.446289	38.273342
450.074860	1303.201416	20633.435547	8704.696289	38.289734
450.430817	1299.121338	20615.460938	8696.978516	38.298443
450.786713	1303.091187	20522.720703	8653.640625	38.245010
451.142578	1302.429443	20414.103516	8603.797852	38.203709
451.498444	1299.672852	20259.611328	8542.595703	38.201195
451.854248	1298.790649	20091.447266	8465.847656	38.137543
452.210022	1296.364624	19887.664063	8376.636719	38.083794
452.565765	1297.687866	19641.093750	8280.258789	38.065834
452.921478	1298.790527	19413.382813	8191.488770	38.050529
453.277191	1300.665039	19194.601563	8115.511230	38.084663
453.632813	1293.717896	19016.619141	8044.165039	38.088840
453.988434	1291.953491	18836.214844	7970.613281	38.067486
454.343964	1291.512451	18654.484375	7906.764648	38.099766
454.699524	1291.512451	18502.417969	7837.734375	38.035313
455.054993	1289.858398	18362.921875	7784.803711	38.042065
455.410400	1292.946045	18256.728516	7735.511230	37.978352
455.765839	1292.505005	18209.533203	7720.845215	37.999229
456.121216	1291.843384	18214.494141	7711.361816	37.934475
456.476593	1290.850952	18258.162109	7739.261719	38.004906
456.831909	1292.505005	18381.447266	7781.605469	37.972515
457.187195	1290.299438	18541.011719	7844.020996	37.991020
457.542450	1292.725586	18748.433594	7910.183594	37.909996
457.897644	1294.049072	18936.558594	7988.918945	37.947380
458.252808	1294.710571	19188.201172	8092.795410	37.991943
458.607971	1291.733398	19381.619141	8177.374023	38.063480
458.963013	1290.079224	19505.677734	8227.438477	38.084721
459.318085	1288.755859	19596.982422	8260.410156	38.079353
459.673096	1285.116821	19666.013672	8289.852539	38.108784
460.028076	1286.440063	19745.630859	8323.706055	38.123371
460.383057	1284.786133	19806.941406	8344.216797	38.113438
460.737976	1287.983887	19834.839844	8357.670898	38.117981
461.092865	1292.725586	19855.791016	8360.317383	38.073406
461.447723	1296.916016	19856.453125	8355.685547	38.033112
461.802551	1298.239258	19856.453125	8346.421875	37.978775
462.157288	1297.467407	19858.546875	8347.192383	37.981224
462.512054	1300.224121	19875.419922	8341.238281	37.905464
462.866760	1298.349487	19855.460938	8333.740234	37.912102
463.221405	1300.224121	19807.162109	8313.890625	37.897499
463.576019	1303.091187	19712.216797	8283.455078	37.917953
463.930603	1302.539917	19614.736328	8243.426758	37.903080
464.285156	1299.121338	19475.904297	8176.602539	37.836624
464.639709	1298.128906	19264.953125	8095.332031	37.831966
464.994171	1297.908203	19023.126953	8009.759766	37.866116
465.348633	1296.584961	18747.886719	7894.414551	37.807095
465.703033	1295.923462	18464.816406	7786.678711	37.805325
466.057434	1298.790649	18214.716797	7676.075195	37.699886
466.411774	1299.562622	18037.949219	7597.450195	37.625416
466.766083	1301.106445	17885.222656	7540.659180	37.623665
467.120331	1305.737793	17779.470703	7500.299805	37.602661
467.474548	1301.106445	17689.046875	7455.419434	37.553913
467.828735	1303.752930	17619.908203	7423.220215	37.505573
468.182922	1304.083740	17569.181641	7396.204102	37.455170
468.537048	1303.752808	17523.308594	7378.890625	37.455635
468.891144	1301.878296	17492.320313	7368.194336	37.468498
469.245178	1301.878174	17462.218750	7366.540039	37.528057
469.599213	1302.539917	17443.248047	7350.220215	37.468494
469.953186	1298.680298	17429.464844	7343.382324	37.473083
470.307129	1296.805664	17448.871094	7339.633301	37.412106
470.661041	1296.364624	17470.375000	7340.294434	37.368156
471.014923	1294.159180	17540.398438	7355.622559	37.309948
471.368713	1291.402344	17554.513672	7350.329590	37.255646
471.722504	1291.733154	17527.056641	7351.102051	37.322136
472.076294	1294.159180	17506.875000	7343.493164	37.312279
472.429993	1294.820679	17450.636719	7315.042480	37.263493
472.783722	1298.680298	17445.673828	7311.293945	37.236740
473.137329	1298.900757	17468.169922	7309.749023	37.174519
473.490967	1297.136353	17501.912109	7321.106934	37.174046
473.844543	1299.893188	17586.824219	7354.630371	37.175434
474.198090	1304.304077	17671.072266	7389.145020	37.178020
474.551605	1302.319214	17800.201172	7420.572754	37.085083
474.905060	1308.384155	17940.027344	7481.332520	37.115685
475.258484	1308.935547	18086.910156	7528.308594	37.068676
475.611877	1306.178711	18251.660156	7594.582520	37.109623
475.965240	1308.273926	18447.281250	7669.898926	37.117813
476.318573	1309.266235	18634.302734	7741.355469	37.125977
476.671844	1309.597168	18851.650391	7817.555176	37.099182
477.025116	1311.912964	19080.025391	7906.324219	37.113739
477.378326	1311.582275	19312.589844	8002.592285	37.170197
477.731506	1315.882690	19547.250000	8100.403809	37.213451
478.084656	1316.323975	19827.232422	8213.433594	37.259705
478.437744	1317.867554	20118.792969	8323.485352	37.262089
478.790833	1320.844971	20460.417969	8448.754883	37.241741
479.143890	1321.506836	20876.585938	8607.216797	37.257381
479.496826	1319.191040	21361.125000	8779.130859	37.221657
479.849823	1318.308838	22011.734375	9013.239258	37.185387
480.202728	1315.441650	22825.765625	9296.971680	37.105579
480.555603	1315.110840	23823.623047	9667.928711	37.109600
480.908478	1315.441772	25161.562500	10178.159180	37.166286
481.261292	1316.985596	26807.597656	10826.121094	37.304462
481.614075	1312.574707	28644.851563	11610.490234	37.676758
481.966797	1312.464355	30482.433594	12438.637695	38.142563
482.319489	1309.045898	32214.595703	13162.908203	38.355125
482.672150	1305.296631	33764.917969	13784.292969	38.444675
483.024780	1306.730103	35107.265625	14283.718750	38.392849
483.377350	1302.870605	36224.988281	14697.901367	38.356869
483.729919	1298.018677	37244.351563	15068.417969	38.308220
484.082428	1299.011108	38192.691406	15414.122070	38.258888
484.434937	1295.702881	39178.636719	15777.582031	38.227978
484.787384	1295.151489	40234.167969	16177.541992	38.219742
485.139771	1292.725586	41388.390625	16611.462891	38.205471
485.492157	1292.835815	42569.632813	17056.080078	38.189117
485.844482	1293.387207	43648.093750	17467.949219	38.188347
486.196777	1294.710449	44636.695313	17835.156250	38.162640
486.549072	1296.033813	45404.960938	18120.765625	38.143600
486.901276	1296.695313	45975.839844	18338.109375	38.141766
487.253448	1298.239258	46288.355469	18451.583984	38.126915
487.605591	1302.208984	46303.132813	18463.382813	38.135162
487.957703	1299.672607	46083.031250	18384.205078	38.149288
488.309784	1299.562378	45554.933594	18187.808594	38.160896
488.661835	1296.033691	44797.800781	17870.115234	38.099792
489.013855	1298.349365	44004.054688	17475.226563	37.879894
489.365814	1299.231567	43266.445313	17072.289063	37.584236
489.717743	1303.532349	42634.578125	16737.943359	37.343384
490.069611	1305.186401	42050.355469	16494.132813	37.277908
490.421509	1304.965820	41502.742188	16289.245117	37.276386
490.773315	1302.981079	41014.894531	16095.057617	37.248459
491.125092	1306.619995	40491.542969	15902.190430	37.247925
491.476807	1304.524780	39882.945313	15664.001953	37.221527
491.828522	1307.612305	39140.375000	15382.144531	37.201969
492.180176	1309.707520	38236.800781	15033.681641	37.165054
492.531830	1309.156128	37205.195313	14636.148438	37.126637
492.883423	1306.178711	36045.132813	14193.404297	37.097336
493.234985	1304.745239	34956.851563	13769.408203	37.039772
493.586487	1304.965698	33935.281250	13373.087891	36.984386
493.937988	1305.296509	33071.078125	13043.704102	36.952995
494.289429	1307.391846	32372.283203	12773.205078	36.909233
494.640869	1306.950562	31790.261719	12561.482422	36.920307
494.992218	1303.752808	31337.705078	12397.948242	36.938847
495.343567	1308.053345	30892.642578	12222.724609	36.893097
495.694855	1309.266479	30385.390625	12020.594727	36.838913
496.046112	1310.589722	29761.578125	11778.326172	36.792171
496.397339	1310.479492	28948.871094	11451.257813	36.690914
496.748535	1314.008179	28032.728516	11098.715820	36.621170
497.099670	1311.030884	27087.691406	10752.679688	36.628674
497.450806	1309.817871	26246.529297	10422.302734	36.542446
497.801880	1306.840576	25569.789063	10149.929688	36.446884
498.152924	1311.582275	24976.521484	9937.103516	36.448524
498.503937	1313.897827	24514.037109	9767.394531	36.437271
498.854889	1314.449219	24176.052734	9634.294922	36.392223
499.205841	1312.243774	23892.431641	9533.836914	36.410648
499.556702	1311.140991	23686.552734	9451.573242	36.381149
499.907562	1307.943115	23485.634766	9368.758789	36.346504
500.258362	1310.148560	23315.595703	9300.059570	36.308788
500.609161	1309.707520	23158.457031	9243.490234	36.312294
500.959900	1308.494507	22990.400391	9192.432617	36.361832
501.310608	1307.171265	22819.037109	9121.197266	36.324261
501.661255	1307.171265	22611.285156	9036.286133	36.279919
502.011902	1309.266602	22391.291016	8956.339844	36.272957
502.362488	1311.913086	22170.857422	8869.333984	36.231079
502.713043	1309.487061	21960.457031	8796.114258	36.253147
503.063568	1309.817871	21776.964844	8722.672852	36.218311
503.414063	1310.369263	21571.416016	8654.192383	36.246021
503.764496	1309.487061	21409.425781	8601.923828	36.280888
504.114899	1307.722656	21250.632813	8540.390625	36.266865
504.465271	1306.950684	21128.449219	8500.693359	36.292629
504.815613	1310.699951	21029.423828	8463.310547	36.273190
505.165894	1314.559570	20931.613281	8437.397461	36.309414
505.516174	1314.890381	20892.464844	8417.327148	36.278431
505.866394	1313.125977	20881.437500	8409.387695	36.264046
506.216583	1311.802856	20873.714844	8418.981445	36.331718
506.566711	1311.802734	20907.458984	8424.274414	36.296165
506.916840	1310.810303	20949.033203	8430.338867	36.253426
507.266907	1311.251343	21002.847656	8439.050781	36.197166
507.616882	1312.464355	21083.457031	8449.636719	36.099213
507.966858	1310.589966	21133.298828	8464.303711	36.088478
508.316803	1311.251587	21188.214844	8476.323242	36.047115
508.666748	1311.030884	21251.291016	8485.585938	35.980247
509.016632	1309.707642	21313.376953	8518.888672	36.039291
509.366486	1309.046021	21402.917969	8549.103516	36.031174
509.716309	1306.840454	21490.474609	8571.157227	35.991123
510.066040	1308.715088	21588.066406	8601.041016	35.959366
510.415771	1308.935669	21689.849609	8641.070313	35.975494
510.765503	1303.863037	21797.253906	8672.607422	35.956688
511.115173	1302.870483	21897.271484	8715.614258	35.993977
511.464752	1302.650024	21996.625000	8741.198242	35.945480
511.814270	1304.965820	22078.666016	8758.179688	35.878124
512.163818	1302.980835	22163.134766	8780.013672	35.843613
512.513306	1300.444580	22225.990234	8793.687500	35.809071
512.862793	1297.797974	22280.796875	8805.818359	35.781448
513.212219	1294.931030	22320.494141	8821.698242	35.798172
513.561646	1295.482178	22372.982422	8836.033203	35.775356
513.911011	1294.710449	22402.203125	8849.376953	35.791397
514.260315	1298.128906	22437.380859	8866.578125	35.802826
514.609558	1299.893188	22506.414063	8895.360352	35.816658
514.958801	1300.665283	22600.585938	8944.541992	35.886883
515.308044	1304.193970	22745.705078	8993.281250	35.860752
515.657227	1303.311890	22949.488281	9072.125977	35.890007
516.006348	1307.171387	23197.712891	9165.747070	35.899414
516.355408	1308.935669	23468.322266	9257.273438	35.868942
516.704529	1306.950684	23702.210938	9347.255859	35.901817
517.053467	1310.810181	23927.384766	9424.446289	35.874737
517.402466	1309.817627	24100.404297	9483.994141	35.866463
517.751404	1310.589600	24227.660156	9536.593750	35.894657
518.100281	1315.882813	24354.253906	9588.532227	35.908134
518.449219	1316.764893	24445.224609	9616.651367	35.886036
518.798035	1314.228638	24541.933594	9658.554688	35.924023
519.146851	1311.471924	24637.761719	9692.848633	35.931034
519.495544	1311.582275	24703.267578	9723.835938	35.962582
519.844299	1311.582031	24792.478516	9758.902344	35.975288
520.192932	1310.589600	24892.824219	9792.976563	35.969395
520.541626	1311.912964	24987.878906	9818.229492	35.928062
520.890198	1313.236084	25089.660156	9848.885742	35.899635
521.238770	1315.993042	25211.404297	9875.682617	35.821476
521.587280	1313.897827	25350.234375	9914.278320	35.780746
521.935791	1315.000488	25468.556641	9958.056641	35.783783
522.284180	1312.905273	25587.652344	9997.534180	35.776394
522.632629	1310.810181	25735.308594	10053.994141	35.796780
522.981018	1313.346436	25881.085938	10103.505859	35.779274
523.329346	1309.376709	26049.583984	10170.551758	35.816898
523.677551	1312.795288	26239.253906	10245.757813	35.837273
524.025818	1310.810303	26502.146484	10327.910156	35.794449
524.374023	1305.848267	26813.333984	10440.387695	35.811207
524.722229	1304.304443	27208.441406	10581.977539	35.815411
525.070374	1302.760376	27733.115234	10763.265625	35.794090
525.418457	1301.878174	28432.574219	10995.940430	35.730976
525.766541	1303.532227	29419.845703	11348.482422	35.726414
526.114563	1305.406860	30673.535156	11809.752930	35.767841
526.462585	1304.414429	32059.880859	12354.940430	35.930283
526.810547	1302.319214	33429.792969	12879.287109	36.034477
527.158447	1303.311523	34649.191406	13330.632813	36.068390
527.506348	1306.509521	35670.535156	13700.376953	36.066399
527.854065	1305.406860	36507.835938	13992.929688	36.041611
528.201904	1305.296631	37179.289063	14225.164063	36.014580
528.549622	1304.965820	37700.105469	14410.310547	36.008503
528.897339	1304.965820	38087.820313	14545.616211	35.996799
529.245056	1305.848022	38392.945313	14636.701172	35.944721
529.592712	1304.965942	38621.097656	14711.135742	35.925938
529.940369	1302.209106	38808.785156	14764.286133	35.892578
530.287903	1298.239258	39002.093750	14831.773438	35.894299
530.635437	1300.003662	39242.042969	14913.154297	35.878807
530.982910	1296.254272	39534.929688	15002.034180	35.842716
531.330383	1298.349487	39778.742188	15086.613281	35.831917
531.677795	1296.364624	39893.535156	15138.772461	35.863789
532.025208	1296.805664	39896.734375	15138.110352	35.858368
532.372498	1296.144043	39700.453125	15054.963867	35.826241
532.719788	1294.379639	39259.023438	14904.113281	35.848442
533.067078	1295.261841	38522.738281	14626.666992	35.810661
533.414307	1297.577637	37499.183594	14245.564453	35.766331
533.761536	1299.782959	36364.812500	13773.154297	35.572109
534.108643	1298.790649	35301.566406	13346.401367	35.431255
534.455811	1298.349487	34402.292969	13004.886719	35.362968
534.802856	1298.459717	33658.390625	12738.689453	35.353069
535.149902	1300.996094	33076.042969	12525.312500	35.324310
535.496887	1300.665161	32572.203125	12364.203125	35.378941
535.843811	1298.790527	32153.277344	12223.935547	35.408607
536.190796	1300.113892	31807.683594	12088.632813	35.363415
536.537659	1300.885742	31473.228516	11978.138672	35.387550
536.884460	1301.216553	31187.402344	11869.851563	35.362942
537.231323	1303.973267	30885.589844	11762.998047	35.356499
537.578064	1306.950806	30573.738281	11642.911133	35.316345
537.924805	1308.274048	30209.177734	11510.252930	35.299858
538.271423	1307.502197	29892.691406	11390.606445	35.273876
538.618164	1308.935547	29722.433594	11320.252930	35.234371
538.964783	1312.795288	29751.984375	11323.560547	35.200600
539.311279	1312.354126	29938.345703	11389.723633	35.203564
539.657776	1313.787720	30217.447266	11486.653320	35.195766
540.004333	1312.023193	30474.714844	11582.923828	35.219315
540.350769	1311.030762	30722.937500	11673.898438	35.233578
540.697144	1310.920410	30910.619141	11733.665039	35.212330
541.043518	1307.501953	31016.039063	11782.294922	35.258530
541.389893	1307.832764	30991.449219	11776.672852	35.268074
541.736145	1312.243652	30870.919922	11721.205078	35.214573
542.082458	1311.030762	30728.115234	11653.387695	35.157658
542.428711	1313.677490	30558.958984	11594.283203	35.153042
542.774902	1311.030884	30414.613281	11526.354492	35.099884
543.121033	1314.559570	30309.851563	11480.589844	35.060966
543.467102	1315.772705	30228.580078	11467.689453	35.112183
543.813171	1314.449341	30173.115234	11445.083008	35.104305
544.159180	1314.118530	30124.265625	11429.754883	35.111370
544.505127	1316.103394	30064.390625	11403.730469	35.089489
544.851135	1315.882813	29946.505859	11359.732422	35.080791
545.197021	1314.228760	29733.347656	11267.985352	35.024860
545.542908	1312.574585	29327.765625	11121.653320	35.013428
545.888733	1313.125977	28734.279297	10916.104492	35.020332
546.234558	1312.574585	27955.421875	10632.923828	34.982559
546.580322	1314.449219	27086.472656	10305.524414	34.886959
546.926025	1314.449219	26190.398438	9991.909180	34.882931
547.271667	1315.331421	25366.664063	9697.370117	34.850624
547.617371	1312.464233	24569.062500	9417.499023	34.850475
547.962952	1309.376709	23836.634766	9165.526367	34.873970
548.308533	1316.875244	23176.984375	8931.638672	34.834061
548.654053	1318.749878	22597.058594	8725.979492	34.811176
548.999573	1316.985596	22105.242188	8551.198242	34.799519
549.344971	1317.426514	21676.394531	8403.874023	34.807495
549.690430	1313.456787	21303.451172	8275.958008	34.829929
550.035767	1313.897827	20995.458984	8161.714844	34.793060
550.381104	1314.338867	20720.439453	8058.389648	34.752220
550.726440	1308.715088	20440.898438	7960.799316	34.769077
551.071655	1308.053345	20193.007813	7873.132324	34.763542
551.416931	1305.737671	19905.525391	7766.057129	34.733295
551.762085	1305.958130	19601.064453	7657.659180	34.718037
552.107178	1303.752686	19293.402344	7540.660156	34.669418
552.452332	1302.539795	18985.742188	7437.665039	34.694649
552.797424	1304.304077	18713.041016	7342.610352	34.685493
553.142395	1299.011108	18451.914063	7247.775391	34.680801
553.487366	1300.113770	18255.408203	7171.356934	34.627785
553.832336	1301.106323	18065.296875	7120.520996	34.713364
554.177185	1299.782959	17916.652344	7056.563477	34.644192
554.522095	1301.326782	17807.810547	7009.035156	34.578583
554.866943	1304.745361	17704.042969	6967.461914	34.530243
555.211731	1306.068604	17624.757813	6930.741699	34.467674
555.556396	1300.885742	17547.566406	6898.873535	34.456192
555.901123	1302.760376	17476.771484	6863.035156	34.377834
556.245789	1303.201538	17389.656250	6846.052734	34.456635
556.590454	1305.406860	17291.294922	6817.713379	34.482330
556.934998	1303.642700	17206.494141	6774.927246	34.404427
557.279541	1307.722656	17093.353516	6737.766602	34.398651
557.624023	1306.620117	16953.750000	6693.767090	34.428978
557.968567	1311.361694	16822.525391	6644.916504	34.385265
558.312988	1313.567017	16687.994141	6599.042969	34.378361
558.657349	1316.213745	16581.359375	6563.976074	34.377415
559.001770	1315.000732	16496.228516	6535.305176	34.386578
559.346069	1317.757568	16420.470703	6512.478516	34.395943
559.690308	1318.970459	16366.767578	6494.724609	34.395428
560.034485	1318.529541	16310.417969	6477.852539	34.414097
560.378723	1321.727173	16279.982422	6463.848145	34.376476
560.722900	1318.970459	16237.306641	6454.916016	34.427067
561.067017	1315.662354	16214.701172	6431.427734	34.336212
561.411072	1315.110962	16186.361328	6427.899414	34.380356
561.755127	1317.206055	16158.242188	6421.944824	34.396107
562.099182	1316.213745	16149.860352	6418.967773	34.399860
562.443115	1316.103394	16154.382813	6427.569336	34.447834
562.787048	1318.198486	16166.845703	6432.311035	34.441605
563.130920	1317.536865	16204.117188	6451.608398	34.487915
563.474792	1314.559570	16275.242188	6468.149414	34.447559
563.818604	1309.817749	16366.658203	6487.778320	34.389423
564.162354	1314.890259	16455.423828	6526.704590	34.422924
564.506042	1312.133545	16567.021484	6556.367676	34.377403
564.849731	1311.582153	16664.722656	6588.346191	34.369282
565.193420	1309.376709	16735.189453	6605.879395	34.335327
565.537048	1304.304077	16789.001953	6617.237305	34.310860
565.880615	1304.965820	16818.666016	6629.808105	34.323483
566.224121	1303.201416	16827.597656	6631.572754	34.322567
566.567627	1303.642578	16828.146484	6630.800781	34.314514
566.911072	1306.509766	16823.736328	6631.793945	34.318531
567.254517	1305.848022	16856.265625	6626.389648	34.214783
567.597839	1307.612305	16881.408203	6631.352539	34.183960
567.941223	1305.847900	16914.271484	6642.048340	34.187950
568.284485	1305.186401	16938.753906	6659.251465	34.247238
568.627808	1306.289063	17000.615234	6673.477051	34.198269
568.970947	1304.855591	17070.197266	6692.773926	34.175716
569.314148	1310.589600	17146.837891	6719.901855	34.157791
569.657288	1314.449341	17232.078125	6737.435059	34.069057
570.000366	1315.772461	17313.900391	6764.340820	34.057537
570.343445	1316.213745	17378.958984	6779.007324	34.009090
570.686462	1319.301392	17399.359375	6782.977539	33.977966
571.029419	1319.521851	17410.937500	6793.232910	34.016342
571.372314	1314.559570	17389.546875	6778.346191	33.989368
571.715210	1314.780029	17336.173828	6768.090820	34.037678
572.058105	1315.441650	17284.566406	6751.549316	34.041359
572.400879	1318.308716	17266.921875	6746.255859	34.033978
572.743713	1316.985474	17250.712891	6751.438965	34.106606
573.086426	1315.882813	17256.779297	6745.153809	34.058754
573.429077	1315.993042	17280.599609	6752.651855	34.054447
573.771790	1313.456787	17288.978516	6755.299316	34.063633
574.114441	1308.825317	17280.158203	6751.108398	34.075321
574.457031	1309.376709	17246.634766	6749.454590	34.134342
574.799561	1306.399414	17192.378906	6734.016602	34.166084
575.142029	1312.684937	17144.080078	6704.243164	34.056114
575.484436	1316.103271	17057.294922	6671.933105	34.024300
575.826904	1311.471802	16940.076172	6631.903809	34.042912
576.169250	1314.890381	16794.847656	6573.459961	33.970181
576.511597	1309.266357	16627.013672	6509.942871	33.951969
576.853943	1303.863037	16422.126953	6438.264648	33.961582
577.196167	1302.980835	16207.315430	6356.222656	33.904510
577.538391	1300.885742	15981.145508	6274.730469	33.881176
577.880554	1295.923462	15774.605469	6206.472168	33.915718
578.222717	1297.798096	15546.340820	6131.155762	33.921764
578.564819	1298.459717	15335.276367	6053.633789	33.876442
578.906860	1297.798096	15149.357422	5983.280273	33.826389
579.248901	1294.489990	14957.482422	5918.550293	33.843689
579.590942	1292.505005	14756.014648	5852.937500	33.872540
579.932861	1296.474854	14573.073242	5782.804199	33.791252
580.274780	1295.813232	14376.127930	5716.971680	33.800091
580.616638	1297.577515	14177.304688	5644.081543	33.746861
580.958496	1300.665161	13971.095703	5576.925293	33.749920
581.300232	1301.988525	13802.267578	5524.545898	33.779705
581.641968	1302.760376	13638.404297	5470.511719	33.786251
581.983704	1300.885620	13495.599609	5420.007813	33.777931
582.325317	1296.915771	13360.736328	5375.788086	33.810783
582.666992	1296.474731	13243.408203	5335.318359	33.806530
583.008606	1298.018555	13132.584961	5299.810547	33.814438
583.350098	1295.482300	13037.419922	5273.014648	33.874580
583.691589	1294.710449	12956.919922	5245.446289	33.876392
584.033081	1295.813232	12896.602539	5226.589844	33.883701
584.374512	1293.276978	12835.179688	5207.843262	33.916130
584.715881	1293.607666	12787.429688	5190.751953	33.906425
585.057190	1291.512451	12741.335938	5165.499023	33.834465
585.398499	1289.086548	12694.800781	5145.540039	33.811592
585.739807	1291.071655	12657.087891	5144.106445	33.899605
586.081055	1291.622803	12628.416992	5132.196289	33.877068
586.422180	1291.622803	12602.281250	5124.808594	33.890034
586.763367	1289.637939	12593.017578	5112.347656	33.819176
587.104431	1289.196777	12593.017578	5108.819336	33.790546
587.445496	1290.189331	12597.098633	5101.541016	33.708164
587.786499	1287.211914	12592.797852	5106.613281	33.783314
588.127502	1283.021484	12621.468750	5110.914551	33.760292
588.468445	1284.234619	12627.754883	5112.127441	33.745193
588.809326	1284.124390	12634.040039	5108.709473	33.697033
589.150208	1287.322266	12639.332031	5104.518555	33.625732
589.491028	1290.740723	12626.099609	5097.571777	33.583683
589.831848	1290.299683	12624.998047	5087.646973	33.501968
590.172546	1291.291992	12613.971680	5085.662109	33.511238
590.513245	1289.307251	12605.810547	5090.624023	33.590916
590.853943	1289.307251	12610.994141	5089.631348	33.566769
591.194458	1290.189331	12623.235352	5092.829102	33.553555
591.535095	1288.645508	12624.227539	5095.475586	33.583015
591.875610	1289.527588	12644.406250	5106.171875	33.612373
592.216125	1291.622803	12648.376953	5117.860840	33.691299
592.556580	1291.071411	12667.343750	5125.028809	33.701351
592.897034	1287.763184	12700.867188	5118.191406	33.561672
593.237366	1287.652954	12718.510742	5133.188477	33.641708
593.577698	1288.535156	12771.110352	5143.113770	33.568939
593.918030	1289.307007	12819.409180	5162.301270	33.590282
594.258301	1292.284302	12873.332031	5184.797363	33.611061
594.598511	1292.063843	12952.838867	5213.688477	33.630905
594.938721	1294.379639	13037.417969	5242.910645	33.624443
595.278809	1299.231567	13118.026367	5266.839844	33.570328
595.618958	1298.790527	13172.391602	5279.852051	33.528679
595.958984	1299.011108	13228.298828	5304.663086	33.578297
596.299011	1302.098633	13252.007813	5315.028809	33.581261
596.638977	1299.011108	13278.141602	5324.953613	33.607967
596.978943	1297.908447	13289.832031	5332.341309	33.642918
597.318848	1300.665161	13285.533203	5330.136230	33.621323
597.658630	1300.113770	13271.526367	5309.074219	33.487782
597.998474	1298.128662	13238.885742	5302.458496	33.534977
598.338257	1297.356934	13184.189453	5281.947266	33.521046
598.677979	1298.680298	13151.439453	5266.949707	33.479713
599.017700	1297.026245	13096.192383	5247.982910	33.485050
599.357361	1300.444580	13052.415039	5223.392578	33.381191
599.696960	1305.737671	13013.156250	5206.189941	33.316071
600.036560	1307.171265	12965.298828	5198.250977	33.376537
600.376038	1303.973389	12926.591797	5181.158203	33.358963
600.715576	1303.422119	12884.029297	5172.556641	33.410461
601.055054	1302.870850	12840.801758	5169.579102	33.513012
601.394409	1301.878174	12806.395508	5161.308594	33.547085
601.733826	1303.752930	12760.414063	5151.825195	33.588078
602.073120	1301.878296	12756.113281	5140.687500	33.514320
602.412415	1297.577515	12743.873047	5145.760254	33.619457
602.751587	1296.915894	12771.220703	5149.729492	33.577751
603.090820	1298.459839	12801.544922	5154.471191	33.521542
603.429993	1293.166748	12848.080078	5172.225098	33.570641
603.769104	1292.063965	12883.807617	5187.222168	33.602867
604.108154	1293.828369	12909.392578	5205.086426	33.672562
604.447205	1296.144165	12946.553711	5214.459961	33.632431
604.786194	1298.349487	12976.877930	5229.015625	33.657204
605.125183	1302.319336	13007.534180	5235.191406	33.599316
605.464111	1300.665039	13028.486328	5245.226074	33.634220
605.802979	1299.562378	13050.870117	5257.025391	33.676788
606.141846	1300.113770	13074.911133	5266.067871	33.681721
606.480652	1297.908325	13114.829102	5279.631348	33.695099
606.819336	1295.702881	13167.648438	5298.708496	33.718193
607.158020	1295.261719	13228.960938	5323.960938	33.759014
607.496765	1300.003296	13292.807617	5339.950684	33.686424
607.835388	1301.216431	13331.182617	5349.323730	33.650200
608.173950	1305.076050	13348.386719	5341.494629	33.515854
608.512512	1303.201416	13325.559570	5320.542480	33.415581
608.851013	1301.216431	13280.789063	5303.670898	33.410664
609.189514	1304.965820	13184.080078	5274.668945	33.417500
609.527893	1305.186279	13073.698242	5230.780273	33.356758
609.866333	1304.414673	12945.449219	5193.067383	33.404701
610.204712	1303.091309	12806.505859	5143.775391	33.387341
610.542969	1304.304321	12678.920898	5097.902344	33.351440
610.881226	1305.627563	12564.238281	5058.424316	33.332684
611.219482	1303.532349	12470.395508	5017.733887	33.260921
611.557678	1301.547363	12383.722656	4981.674805	33.207626
611.895813	1299.011108	12310.279297	4954.988770	33.202148
612.233948	1298.018555	12237.611328	4930.177246	33.201954
612.571960	1302.098633	12167.256836	4903.381836	33.145245
612.910034	1306.619873	12098.998047	4872.725586	33.042816
613.247986	1306.730103	12027.210938	4846.811523	33.021667
613.585938	1308.935547	11942.411133	4819.684570	33.016006
613.923828	1305.737671	11822.654297	4782.412109	33.057922
614.261658	1308.715088	11693.414063	4738.413086	33.026455
614.599487	1306.730103	11548.295898	4694.524902	33.078876
614.937317	1307.943115	11424.239258	4651.628906	33.052471
615.275024	1307.612305	11309.556641	4613.033691	33.047787
615.612732	1306.399414	11213.178711	4581.605469	33.060249
615.950378	1305.627441	11119.227539	4550.508789	33.065147
616.288025	1302.429443	11032.443359	4526.359375	33.133869
616.625549	1303.421997	10971.901367	4510.259277	33.167961
616.963074	1304.414307	10919.523438	4489.859375	33.129578
617.300537	1305.517212	10871.445313	4467.252441	33.052052
617.638000	1305.296631	10823.035156	4448.837402	33.028233
617.975464	1309.266357	10790.614258	4439.905762	33.018929
618.312744	1310.369141	10753.563477	4432.407227	33.061249
618.650024	1309.486938	10720.259766	4427.224121	33.129452
618.987305	1308.274048	10683.428711	4425.349121	33.248257
619.324585	1305.958374	10658.507813	4422.703125	33.325081
619.661743	1302.429565	10644.723633	4419.615234	33.366383
619.998901	1299.783081	10616.824219	4413.660156	33.421307
620.336060	1298.018799	10589.255859	4399.435059	33.380013
620.673096	1295.151611	10567.752930	4388.518066	33.360287
621.010193	1298.459717	10548.125000	4378.152344	33.295181
621.347168	1296.254272	10527.833984	4373.630859	33.335316
621.684082	1297.908447	10493.208984	4359.516113	33.295349
622.020996	1297.356934	10457.591797	4350.584473	33.331326
622.357849	1298.128906	10433.993164	4344.298828	33.342987
622.694641	1299.562500	10412.929688	4331.948242	33.274044
623.031433	1303.863037	10391.095703	4319.377441	33.184078
623.368164	1305.296631	10386.905273	4316.621094	33.158493
623.704895	1306.619873	10376.759766	4314.194336	33.159077
624.041504	1307.832886	10383.927734	4313.312500	33.114235
624.378174	1305.737671	10402.343750	4325.552246	33.197155
624.714783	1311.692505	10445.901367	4337.241211	33.123272
625.051331	1308.715210	10478.101563	4350.915527	33.177795
625.387756	1309.156250	10514.711914	4348.048340	33.011501
625.724304	1309.486938	10534.119141	4358.414063	33.052021
626.060669	1310.589600	10552.314453	4364.147949	33.041000
626.397034	1310.369141	10560.364258	4361.832031	32.988804
626.733337	1310.369141	10564.333984	4358.964844	32.943672
627.069641	1307.502075	10570.950195	4360.949707	32.962322
627.405884	1309.486938	10560.474609	4367.565918	33.056786
627.742126	1308.935669	10550.439453	4367.676270	33.097866
628.078308	1308.053467	10538.639648	4365.911621	33.127453
628.414429	1304.524780	10513.057617	4355.105469	33.127758
628.750488	1304.414551	10493.319336	4353.010254	33.176922
629.086548	1301.767944	10460.126953	4341.982910	33.196064
629.422546	1299.121338	10419.546875	4322.464844	33.149147
629.758545	1297.798096	10365.293945	4310.003906	33.219818
630.094421	1294.710571	10318.648438	4295.337891	33.251865
630.430298	1293.497437	10264.283203	4269.975098	33.179672
630.766113	1293.276855	10200.986328	4239.870605	33.079144
631.101929	1292.615479	10124.567383	4218.478516	33.128159
631.437622	1293.166626	10043.185547	4199.511230	33.215298
631.773376	1288.865967	9950.115234	4171.170898	33.278168
632.109070	1292.725586	9856.714844	4138.199707	33.226036
632.444641	1292.946167	9763.423828	4119.784668	33.372833
632.780273	1293.387329	9687.446289	4088.687500	33.300938
633.115784	1294.489990	9618.195313	4056.377686	33.180988
633.451294	1297.246826	9549.165039	4027.045410	33.080776
633.786682	1299.121338	9481.458008	4001.792725	33.030556
634.122131	1302.650146	9403.604492	3983.266846	33.090137
634.457458	1301.106323	9351.556641	3955.478027	32.971718
634.792847	1303.311768	9290.575195	3933.202637	32.926056
635.128113	1303.201538	9227.279297	3913.132813	32.936718
635.463318	1304.414429	9176.002930	3891.409180	32.864964
635.798584	1300.775513	9127.813477	3870.677490	32.833645
636.133728	1301.657715	9074.221680	3847.630859	32.755898
636.468872	1304.965820	9012.358398	3829.215088	32.751015
636.803955	1305.737793	8963.067383	3809.476074	32.697277
637.139038	1303.201416	8913.554688	3791.722900	32.699158
637.473999	1305.406860	8849.266602	3777.718262	32.772499
637.808899	1305.958374	8783.101563	3761.949463	32.846653
638.143799	1307.391846	8715.173828	3735.924805	32.783535
638.478638	1309.156128	8654.302734	3709.900635	32.684776
638.813538	1309.156006	8589.573242	3688.177490	32.676994
639.148315	1305.516968	8517.233398	3667.666748	32.754337
639.483032	1306.509521	8454.048828	3641.642090	32.670441
639.817749	1303.421875	8386.782227	3616.279297	32.651981
640.152405	1302.098633	8323.044922	3593.342529	32.634403
640.487000	1301.547363	8252.250000	3575.699463	32.718304
640.821594	1301.326782	8187.410156	3554.416748	32.719467
641.156128	1299.121338	8138.338379	3529.053467	32.605080
641.490662	1297.687744	8078.791504	3512.953857	32.668224
641.825134	1298.569946	8018.140625	3494.317627	32.676903
642.159546	1298.459717	7977.560059	3479.761475	32.658615
642.493896	1302.760376	7925.291016	3464.985107	32.649521
642.828186	1301.216553	7883.938477	3453.847900	32.701237
643.162537	1299.562622	7849.974609	3439.402100	32.667248
643.496765	1293.718140	7814.246094	3429.036133	32.747623
643.830994	1292.505005	7780.061523	3422.970947	32.839264
644.165100	1293.387329	7751.059570	3415.913574	32.868290
644.499268	1292.615479	7734.409180	3410.510498	32.877411
644.833313	1291.071655	7720.955566	3400.034668	32.799393
645.167358	1288.535278	7705.075684	3395.623779	32.838387
645.501343	1287.652954	7682.139648	3388.345703	32.851627
645.835327	1287.873535	7662.069824	3375.995117	32.758980
646.169189	1289.638062	7648.727539	3364.196533	32.623516
646.503052	1289.417358	7636.818359	3359.454590	32.612358
646.836914	1293.387207	7626.342285	3358.131348	32.603172
647.170654	1295.041260	7611.676270	3360.777832	32.703117
647.504395	1296.584961	7607.376465	3361.659668	32.722912
647.838074	1296.695435	7601.641602	3366.180908	32.823204
648.171753	1299.562500	7598.995605	3364.747314	32.783661
648.505371	1300.665283	7600.097656	3363.203613	32.741653
648.838928	1301.988525	7603.184570	3363.314453	32.713249
649.172424	1304.635010	7610.131836	3356.035645	32.533527
649.505920	1302.870728	7606.382324	3355.705078	32.566521
649.839294	1308.274048	7598.001465	3354.161133	32.527435
650.172729	1310.920532	7596.127441	3359.785400	32.598206
650.506104	1314.890381	7600.207520	3358.682617	32.516930
650.839355	1317.536987	7584.989746	3356.477295	32.532200
651.172668	1318.308838	7565.913086	3352.617676	32.561420
651.505859	1316.875244	7542.977051	3344.347168	32.564068
651.839111	1319.080688	7527.979980	3342.031738	32.581474
652.172241	1321.175903	7515.959961	3336.848145	32.538216
652.505371	1319.521729	7502.616211	3330.452637	32.523048
652.838379	1320.845093	7475.930176	3325.269775	32.565346
653.171387	1319.632202	7461.924805	3319.535400	32.559555
653.504333	1318.088379	7438.988281	3315.896973	32.639133
653.837280	1318.970459	7418.918945	3311.816650	32.669888
654.170227	1319.080811	7399.731934	3303.656250	32.637547
654.503052	1315.662354	7379.772461	3291.416016	32.581097
654.835876	1315.441895	7365.657715	3287.446045	32.593948
655.168579	1312.243896	7348.234375	3284.469238	32.674431
655.501343	1312.574707	7332.906250	3281.491699	32.704460
655.833984	1310.920532	7323.863770	3287.004883	32.863846
656.166626	1312.464233	7319.673340	3294.614258	32.996189
656.499268	1313.456787	7342.720215	3301.561279	32.974251
656.831787	1312.684937	7376.904785	3309.941895	32.935101
657.164307	1311.912964	7422.889160	3321.740967	32.888821
657.496765	1311.140991	7469.424316	3336.297363	32.885078
657.829224	1311.361572	7518.275391	3347.875732	32.810413
658.161621	1315.110718	7566.463379	3360.446777	32.718296
658.493958	1317.095703	7605.831055	3371.804688	32.672848
658.826233	1310.920410	7635.494629	3381.398926	32.737041
659.158508	1310.479370	7661.739746	3388.566162	32.719284
659.490723	1311.140991	7680.155273	3394.410645	32.709450
659.822876	1310.479492	7699.012695	3400.696045	32.718254
660.154968	1306.399414	7700.555664	3403.894043	32.803307
660.487061	1307.943115	7699.343750	3402.240234	32.767422
660.819153	1303.642700	7693.719727	3396.505859	32.751770
661.151123	1305.406982	7679.934570	3382.942383	32.591206
661.483093	1308.935791	7668.576660	3374.781982	32.483692
661.815002	1310.479614	7652.807129	3364.968018	32.393284
662.146851	1312.354126	7623.915039	3353.610107	32.341537
662.478760	1314.008057	7595.354980	3344.126465	32.319794
662.810486	1311.802612	7558.523926	3327.034180	32.260628
663.142212	1309.597168	7505.482910	3302.994873	32.172924
663.473938	1306.730103	7453.654785	3281.602051	32.127804
663.805603	1306.840332	7388.263184	3257.452393	32.074928
664.137207	1307.060913	7295.854980	3238.264893	32.246960
664.468689	1306.730103	7208.187500	3213.343262	32.307495
664.800293	1304.965820	7131.107910	3191.399170	32.378773
665.131775	1304.083496	7048.623535	3159.751221	32.303158
665.463196	1302.539795	6980.255859	3129.756592	32.182251
665.794617	1304.965820	6923.795410	3108.364258	32.095623
666.125916	1309.156250	6865.902344	3093.587402	32.112881
666.457275	1308.715210	6822.564941	3080.023926	32.124718
666.788574	1305.627563	6776.801270	3075.392578	32.347080
667.119812	1306.730225	6747.910645	3068.224854	32.373390
667.450928	1307.612305	6727.731445	3059.513428	32.322189
667.782104	1311.582153	6713.063965	3054.992188	32.276512
668.113159	1308.384155	6691.230469	3057.638672	32.496834
668.444214	1304.414307	6669.286621	3060.505859	32.733150
668.775208	1303.311523	6650.980469	3056.315186	32.780708
669.106201	1304.414307	6636.645996	3054.771484	32.825977
669.437134	1303.311646	6629.367676	3045.508301	32.710819
669.768005	1302.870605	6622.200195	3035.473633	32.571831
670.098877	1300.444702	6610.951660	3035.032715	32.663322
670.429688	1303.201416	6591.874023	3030.511475	32.660557
670.760437	1299.893311	6567.504395	3024.225830	32.734619
671.091187	1298.349487	6559.564941	3007.574707	32.487270
671.421814	1296.033813	6542.692871	3002.943115	32.533260
671.752441	1295.261963	6521.189941	2986.181641	32.356354
672.083008	1292.946167	6507.185059	2987.395020	32.496571
672.413574	1293.607788	6493.731934	2987.946289	32.582657
672.744080	1296.033813	6466.936035	2982.873779	32.621773
673.074524	1293.828369	6440.581055	2971.184814	32.590576
673.404968	1297.467407	6416.541504	2963.686035	32.549217
673.735352	1301.437256	6396.582520	2951.004395	32.375271
674.065613	1303.752930	6375.410156	2939.646484	32.255600
674.395935	1302.429688	6351.700684	2930.494141	32.243553
674.726196	1301.657837	6320.494141	2920.790283	32.261112
675.056335	1304.414551	6304.504395	2911.306641	32.137264
675.386536	1304.745361	6292.815430	2906.564941	32.113010
675.716614	1306.840454	6281.346680	2899.066162	32.007713
676.046692	1308.274048	6279.913086	2892.449951	31.864258
676.376770	1310.259033	6268.334961	2896.860840	32.000351
676.706726	1312.023315	6257.638184	2901.271729	32.134499
677.036621	1310.038452	6262.820801	2906.454590	32.232716
677.366516	1310.258911	6260.616211	2909.321533	32.301964
677.696411	1314.338989	6274.068359	2916.930420	32.312073
678.026184	1313.787720	6291.381836	2927.626953	32.422073
678.355957	1312.464355	6305.166016	2933.581543	32.469738
678.685669	1312.464355	6330.639160	2946.483398	32.562019
679.015320	1309.817749	6346.187500	2951.776611	32.602032
679.344971	1306.730103	6362.838379	2955.195068	32.603436
679.674561	1305.406860	6371.991211	2954.202637	32.542549
680.004150	1301.547241	6394.928711	2962.803711	32.615986
680.333618	1299.231689	6410.145996	2964.899170	32.590405
680.663086	1299.672729	6424.701660	2965.340332	32.500648
680.992493	1298.680298	6430.987305	2967.545898	32.516869
681.321899	1298.569824	6429.002930	2966.884033	32.517998
681.651184	1298.128784	6429.994629	2966.443115	32.508923
681.980530	1296.585083	6419.849609	2962.142578	32.509689
682.309753	1295.372070	6412.682129	2953.651367	32.405293
682.638977	1290.850952	6387.650391	2950.233154	32.557339
682.968079	1288.314697	6361.735840	2945.822021	32.670410
683.297241	1288.976318	6340.563965	2930.824951	32.501633
683.626343	1288.865845	6318.619629	2922.113281	32.471718
683.955383	1293.056396	6279.803711	2905.792725	32.340446
684.284363	1294.048950	6252.235352	2892.449707	32.237610
684.613281	1292.284546	6209.890137	2871.167236	32.106739
684.942139	1296.144043	6166.111816	2859.147217	32.094734
685.271057	1299.231567	6128.619629	2843.819580	31.983099
685.599792	1301.657593	6088.370117	2828.712158	31.901949
685.928589	1305.737671	6056.721191	2817.354248	31.816919
686.257324	1310.810181	6019.118164	2806.988770	31.777414
686.585999	1310.699951	5994.527344	2805.445068	31.912901
686.914612	1310.810303	5948.323242	2791.881592	31.936760
687.243164	1310.369141	5912.043457	2775.120117	31.830826
687.571777	1307.281494	5879.072754	2760.123047	31.778389
687.900269	1308.825317	5843.344727	2746.449219	31.703997
688.228699	1309.707520	5811.365234	2735.752686	31.678223
688.557129	1305.186401	5783.466309	2727.812988	31.767256
688.885498	1306.950806	5757.552246	2720.093994	31.751734
689.213867	1310.920532	5727.668457	2710.059082	31.678024
689.542114	1311.140991	5706.827148	2697.708496	31.543825
689.870361	1310.369141	5686.095703	2685.247803	31.420580
690.198608	1305.737671	5651.470215	2680.836914	31.642519
690.526794	1305.296631	5620.042969	2669.919922	31.626966
690.854858	1302.870605	5598.098633	2658.451660	31.560165
691.182922	1300.775513	5560.605957	2643.344238	31.516951
691.510986	1300.224121	5533.919922	2637.279297	31.581276
691.838928	1297.908447	5499.404785	2619.525146	31.455860
692.166931	1297.687866	5463.015137	2603.756104	31.355719
692.494812	1296.695557	5415.708496	2590.854248	31.419147
692.822632	1295.702881	5372.591309	2578.503662	31.465193
693.150452	1293.056396	5328.923828	2562.844971	31.462593
693.478149	1296.144043	5291.430664	2545.091064	31.260511
693.805908	1294.379639	5266.067871	2535.938721	31.260235
694.133606	1294.710449	5228.244141	2527.337402	31.336378
694.461243	1296.585083	5198.580078	2524.690918	31.473793
694.788818	1295.261841	5180.605957	2523.037109	31.600166
695.116333	1293.938477	5170.019531	2520.059814	31.633017
695.443848	1295.261719	5164.505371	2516.641113	31.566360
695.771301	1292.284302	5178.620605	2525.132080	31.722622
696.098755	1289.748047	5203.322266	2536.049072	31.845596
696.426147	1293.166626	5236.514160	2548.178955	31.826063
696.753418	1293.717896	5275.661133	2568.799561	32.021591
697.080688	1297.687744	5332.451660	2582.363281	31.840166
697.407898	1298.569946	5386.485352	2600.668457	31.852383
697.735107	1301.768066	5424.308594	2619.415039	31.962013
698.062317	1303.201660	5465.219727	2641.359375	32.151657
698.389404	1306.289307	5499.735352	2653.379150	32.123695
698.716492	1305.407104	5531.273438	2664.185791	32.153851
699.043457	1303.863281	5551.122559	2671.133057	32.191814
699.370483	1305.406982	5568.545410	2671.574219	32.046043
699.697388	1309.597412	5572.294434	2668.596680	31.881205
700.024292	1313.677490	5568.766113	2669.258545	31.857880
700.351135	1314.008423	5560.936523	2668.817139	31.900909
700.677917	1318.860352	5549.137695	2665.509033	31.833578
701.004639	1319.191162	5533.699219	2663.854980	31.905596
701.331299	1319.963013	5514.731934	2652.717285	31.771814
701.658020	1321.286133	5491.244629	2639.043457	31.601210
701.984619	1319.963013	5453.972168	2628.898438	31.662615
702.311218	1319.742432	5411.186523	2611.034180	31.560781
702.637756	1319.191040	5359.027344	2586.553955	31.371639
702.964233	1319.411621	5287.901855	2562.072998	31.313202
703.290649	1316.213867	5216.665527	2539.136230	31.353354
703.617065	1319.080933	5132.086914	2503.959717	31.074665
703.943481	1320.624756	5047.287109	2474.186279	30.954281
704.269775	1320.735107	4959.289551	2443.199463	30.849184
704.596008	1319.522095	4881.105957	2413.426270	30.713980
704.922241	1317.095947	4814.500977	2385.857910	30.558712
705.248474	1316.323975	4747.565430	2363.692871	30.524488
705.574585	1315.882935	4687.687500	2346.270020	30.558920
705.900696	1316.103271	4637.072266	2334.029541	30.651484
706.226746	1314.559570	4597.925781	2323.774414	30.737200
706.552734	1311.692505	4570.799316	2314.952148	30.783268
706.878723	1306.068604	4551.612305	2303.704590	30.738640
707.204651	1302.649902	4529.888672	2295.323975	30.759239
707.530518	1301.547363	4516.986328	2287.163574	30.652618
707.856323	1302.098633	4510.700684	2279.224121	30.453308
708.182068	1301.988403	4514.008789	2283.635010	30.561655
708.507813	1299.341797	4509.597656	2288.818115	30.822351
708.833496	1301.106201	4522.278809	2288.266602	30.645994
709.159180	1301.878052	4538.268066	2298.411377	30.791508
709.484802	1303.091187	4550.949219	2304.255859	30.825384
709.810303	1303.752563	4569.696289	2308.005127	30.749229
710.135864	1306.178711	4579.620117	2306.571777	30.560898
710.461304	1306.288818	4591.309570	2313.739502	30.668016
710.786743	1305.627319	4600.352051	2318.591797	30.745043
711.112122	1305.847900	4608.181152	2321.017578	30.740982
711.437500	1305.406860	4615.128418	2321.458740	30.699013
711.762817	1308.825195	4614.136230	2322.120361	30.656576
712.088013	1307.171143	4618.546875	2318.481445	30.540487
712.413269	1309.266357	4613.364258	2314.842285	30.434204
712.738403	1312.133423	4616.562012	2311.975098	30.257626
713.063538	1313.125977	4610.276855	2316.496338	30.431437
713.388611	1312.243652	4604.983398	2319.473633	30.589420
713.713623	1309.817749	4597.154297	2322.341064	30.800720
714.038574	1312.243652	4596.713379	2320.025146	30.683233
714.363525	1310.258789	4590.096680	2316.716797	30.686213
714.688477	1305.847900	4579.951660	2318.040283	30.915098
715.013306	1306.730103	4555.581543	2307.453857	30.802385
715.338135	1307.391724	4534.299316	2296.647217	30.656454
715.662842	1306.068604	4507.282227	2286.722656	30.633821
715.987549	1306.950684	4475.633789	2273.600342	30.506353
716.312195	1308.274048	4442.441406	2263.124268	30.465832
716.636841	1303.863037	4403.735840	2249.670898	30.511183
716.961426	1300.003540	4372.087891	2238.754150	30.557447
717.285950	1297.687744	4341.210938	2224.969971	30.467394
717.610474	1293.497437	4300.630371	2208.539307	30.429047
717.934937	1293.056396	4265.012695	2200.709961	30.540609
718.259277	1292.615234	4230.827637	2191.777832	30.602369
718.583679	1291.291992	4202.046875	2177.552734	30.447798
718.908020	1288.535156	4169.406738	2166.415039	30.472719
719.232239	1286.881104	4142.720703	2161.562988	30.627836
719.556519	1287.542725	4115.262695	2152.741455	30.597044
719.880737	1287.322144	4084.717285	2133.333252	30.242819
720.204834	1284.344727	4055.274902	2119.218506	30.129730
720.528931	1288.755615	4025.060303	2105.434570	29.846054
720.852966	1286.440063	3988.890625	2092.973877	29.844534
721.176941	1288.424805	3950.295410	2082.056641	29.814817
721.500916	1289.307129	3919.970703	2075.219971	29.875080
721.824829	1284.675537	3898.798096	2070.037109	30.043028
722.148743	1284.785767	3867.370117	2058.678711	29.965834
722.472534	1288.535034	3844.874268	2054.488770	29.962914
722.796326	1289.417236	3823.701660	2051.401123	30.067022
723.119995	1288.424805	3799.882813	2045.776733	30.155867
723.443665	1293.056396	3787.201172	2041.366089	30.002657
723.767334	1294.820801	3769.006348	2041.917358	30.195656
724.090942	1294.600220	3758.751221	2042.799683	30.363379
724.414551	1299.231689	3752.686035	2046.218018	30.446310
724.737976	1300.223999	3747.503418	2040.925171	30.266312
725.061462	1302.539795	3747.393555	2040.814697	30.197098
725.384888	1302.870728	3747.834717	2041.255981	30.200253
725.708252	1303.311768	3747.503662	2042.248291	30.232346
726.031616	1303.863159	3752.465820	2040.814697	30.096821
726.354858	1302.981079	3753.017090	2039.050537	30.043209
726.678162	1301.878296	3762.721436	2045.777100	30.229427
727.001404	1305.517334	3766.580811	2050.188232	30.258095
727.324463	1307.281860	3771.102051	2053.165527	30.273460
727.647583	1309.928345	3778.269775	2058.678955	30.334160
727.970642	1306.179077	3790.069092	2061.545898	30.410637
728.293701	1308.715210	3792.384766	2058.348145	30.182476
728.616699	1309.707642	3797.126221	2059.229980	30.132540
728.939575	1309.928223	3815.431152	2063.751221	30.086695
729.262512	1305.958252	3825.686768	2065.515625	30.144413
729.585266	1305.627441	3834.950195	2067.169922	30.108553
729.908142	1304.193848	3854.909180	2069.485596	30.003025
730.230896	1302.098633	3868.252197	2074.558105	30.101841
730.553467	1304.193848	3887.329346	2074.117188	29.805767
730.876160	1301.106201	3901.333740	2075.330078	29.775236
731.198792	1296.695313	3912.360840	2076.653564	29.818731
731.521362	1294.159058	3927.357910	2081.064453	29.884010
731.843872	1293.056152	3925.152832	2086.247314	30.135336
732.166321	1289.968506	3925.152832	2092.201904	30.443161
732.488770	1291.732910	3926.476074	2096.723145	30.552893
732.811157	1289.196655	3919.639404	2101.354492	30.875326
733.133484	1288.755615	3912.250732	2100.472168	30.940273
733.455811	1290.299438	3894.386475	2096.171387	30.946430
733.778015	1290.961182	3877.845947	2091.319336	30.939072
734.100281	1289.527710	3869.685547	2087.459717	30.925707
734.422424	1286.660522	3857.666016	2080.512451	30.877102
734.744507	1290.189331	3842.668945	2075.991455	30.785835
735.066589	1288.645508	3832.192627	2074.447754	30.893953
735.388611	1291.512695	3820.062988	2070.477783	30.806786
735.710571	1290.630493	3804.293945	2067.169922	30.892735
736.032532	1292.505005	3794.038574	2066.287842	30.932337
736.354431	1292.284424	3781.467529	2060.774170	30.873171
736.676270	1293.276733	3765.367920	2054.598877	30.796684
736.998108	1298.900879	3751.914551	2049.857178	30.613621
737.319824	1297.687866	3736.807373	2045.115479	30.643335
737.641541	1301.547485	3717.729980	2039.270874	30.532600
737.963135	1302.209106	3696.888672	2036.513916	30.664009
738.284790	1303.311890	3671.305176	2030.007813	30.688261
738.606323	1303.532227	3660.498047	2019.862671	30.392059
738.927856	1305.517334	3650.022217	2010.930664	30.087944
739.249390	1307.391968	3639.436279	2003.322021	29.842058
739.570740	1311.913086	3628.740234	1995.823486	29.519268
739.892212	1310.810303	3617.933350	1991.302246	29.495260
740.213562	1308.604858	3610.214355	1990.420166	29.623415
740.534790	1310.479614	3603.818359	1985.899170	29.451363
740.856079	1306.730347	3588.931641	1979.503174	29.479120
741.177246	1304.304443	3578.455322	1982.480713	29.821075
741.498413	1306.399536	3569.964600	1979.723755	29.746185
741.819580	1307.943237	3562.245605	1975.864258	29.628725
742.140625	1309.707642	3551.989990	1966.491211	29.290852
742.461670	1307.722534	3536.992920	1960.536499	29.283749
742.782654	1306.950562	3515.489990	1951.052856	29.164173
743.103577	1309.155884	3498.728760	1944.216187	29.003845
743.424438	1309.707275	3477.335938	1937.709961	28.971876
743.745300	1305.847900	3448.003418	1929.770508	29.125925
744.066101	1304.745117	3421.758545	1928.336670	29.456192
744.386902	1303.421875	3399.924561	1919.956055	29.407745
744.707581	1302.649902	3381.399170	1911.685425	29.298172
745.028198	1302.429443	3367.504395	1904.407349	29.150414
745.348816	1299.562378	3355.815430	1900.327393	29.216494
745.669373	1297.357056	3337.620605	1897.129517	29.396812
745.989929	1295.261963	3316.558350	1894.483032	29.645384
746.310364	1293.497437	3301.892090	1887.535889	29.577776
746.630798	1294.159180	3289.431641	1884.448120	29.584377
746.951172	1290.409912	3286.343750	1877.721558	29.425407
747.271545	1286.109375	3276.529297	1874.413330	29.556776
747.591858	1290.299683	3275.537109	1872.428345	29.322874
747.912109	1295.261841	3266.936035	1865.591309	28.926151
748.232300	1291.512695	3258.555176	1866.032593	29.207294
748.552429	1294.159180	3245.542725	1861.401001	29.068699
748.872559	1289.637817	3235.066895	1863.386108	29.492121
749.192627	1293.387329	3235.287598	1864.047852	29.386705
749.512695	1293.166626	3236.941162	1868.348389	29.590971
749.832642	1293.938477	3234.956543	1866.253174	29.485285
750.152588	1295.592651	3234.625732	1869.781982	29.612146
750.472473	1295.592651	3243.116455	1870.443604	29.517017
750.792358	1297.246704	3246.204346	1867.245728	29.246353
751.112122	1298.570068	3241.242188	1870.223022	29.426117
751.431824	1300.775391	3249.181641	1868.017700	29.113144
751.751587	1300.334351	3246.093750	1868.789673	29.215088
752.071228	1299.452148	3243.447510	1867.245728	29.207558
752.390869	1300.665161	3240.911133	1863.606812	29.013931
752.710327	1303.752808	3238.595215	1862.834961	28.895489
753.029846	1303.201416	3238.595215	1862.393799	28.892952
753.349304	1304.524780	3236.610596	1858.865112	28.691290
753.668762	1305.186279	3230.545654	1861.842407	28.911804
753.988098	1304.965820	3223.157471	1857.210938	28.789883
754.307434	1304.193848	3213.674072	1857.321289	28.967436
754.626770	1303.862915	3210.917480	1850.814941	28.680460
754.946045	1302.760376	3209.262939	1841.441772	28.254953
755.265259	1299.011108	3208.050293	1835.045898	28.078773
755.584351	1300.885742	3207.277832	1834.715210	28.002081
755.903442	1299.562500	3202.756592	1834.384277	28.101273
756.222534	1298.459839	3192.391357	1828.650146	27.994165
756.541565	1296.033813	3191.288330	1826.444702	27.986261
756.860535	1295.813354	3191.178223	1821.592773	27.740274
757.179443	1294.820923	3185.995605	1821.592773	27.854214
757.498291	1297.467529	3183.789795	1820.600464	27.732956
757.817139	1300.665405	3188.752197	1819.277100	27.467577
758.135925	1302.540039	3184.892822	1822.695557	27.633265
758.454651	1301.657837	3183.569092	1824.901001	27.803818
758.773376	1305.958374	3179.820313	1820.159424	27.440712
759.092041	1306.178955	3185.002930	1820.380005	27.368240
759.410645	1302.540039	3189.193359	1820.380005	27.447542
759.729187	1301.547485	3180.482178	1818.284790	27.501610
760.047607	1301.768188	3185.223633	1817.071777	27.359478
760.366089	1305.406982	3187.319092	1815.968994	27.129961
760.684509	1305.186523	3201.543945	1819.718140	27.132629
761.002869	1305.627563	3227.237305	1828.981201	27.235168
761.321228	1304.193970	3265.833008	1846.624756	27.651917
761.639465	1306.840576	3313.470703	1870.884888	28.109032
761.957642	1306.730225	3365.739990	1894.813965	28.561483
762.275879	1304.965820	3409.297607	1906.723267	28.596130
762.593994	1303.752930	3447.561768	1918.081421	28.655935
762.912109	1302.539673	3483.180176	1933.519775	28.935537
763.230103	1305.296387	3503.359863	1948.847656	29.278103
763.548157	1302.649780	3515.710449	1953.368896	29.403584
763.866150	1302.980713	3529.274170	1959.103271	29.471521
764.184021	1301.326660	3539.860596	1966.050171	29.694592
764.501892	1298.018555	3546.587158	1971.453735	29.949505
764.819702	1295.923340	3544.491699	1974.651245	30.184891
765.137451	1296.474731	3548.792725	1970.130005	29.909422
765.455200	1292.504883	3554.416748	1972.115112	30.045832
765.772888	1293.607666	3544.161377	1973.327881	30.202354
766.090515	1293.828247	3534.347168	1968.475952	30.111223
766.408081	1295.371948	3534.897949	1967.593750	30.016254
766.725586	1293.938477	3525.415283	1969.578491	30.277708
767.043091	1294.269287	3515.600342	1963.844482	30.142971
767.360535	1294.820679	3500.824463	1959.984985	30.152454
767.677917	1293.497437	3468.404053	1944.877808	29.949806
767.995239	1291.512573	3422.089355	1929.439575	29.941519
768.312500	1292.174194	3362.983643	1909.921265	29.831186
768.629822	1290.299561	3302.553467	1890.182495	29.811493
768.947021	1290.520142	3246.204346	1872.428711	29.754730
769.264160	1294.379639	3190.406738	1855.557129	29.597546
769.581299	1294.379639	3148.392822	1835.266968	29.173866
769.898376	1292.505005	3111.230713	1817.623169	28.872862
770.215393	1292.174072	3077.928467	1806.816406	28.819323
770.532349	1292.504883	3049.698975	1788.400635	28.220886
770.849304	1291.512451	3019.925293	1776.270630	28.046434
771.166199	1290.740601	2998.863281	1768.882568	27.992250
771.483032	1287.542725	2981.770752	1758.516968	27.798752
771.799866	1288.645508	2961.260010	1750.577393	27.617355
772.116577	1291.622803	2940.528564	1746.497070	27.586432
772.433350	1293.938599	2928.509033	1742.968506	27.470819
772.749939	1294.931030	2919.025391	1740.101196	27.410364
773.066589	1294.048828	2905.131348	1733.374756	27.268990
773.383057	1297.357178	2888.811035	1725.876343	26.926270
773.699646	1298.680420	2876.460205	1723.340088	26.915014
774.016113	1300.885864	2860.029785	1719.370361	26.840658
774.332520	1303.201660	2851.208008	1717.605835	26.770185
774.648804	1308.494751	2842.055176	1710.107300	26.188244
774.965149	1307.943359	2831.689697	1707.460693	26.219412
775.281433	1313.126099	2820.993164	1704.814209	25.976303
775.597656	1313.677490	2814.156494	1703.491089	25.979277
775.913879	1312.905640	2807.540283	1702.057495	26.036587
776.229980	1314.449463	2797.836426	1700.513550	26.025852
776.546082	1312.023315	2787.691162	1702.719116	26.475863
776.862122	1315.882935	2780.854248	1701.505981	26.322908
777.178162	1317.978149	2771.812012	1700.954590	26.342518
777.494141	1315.331421	2767.621582	1699.631348	26.461649
777.809998	1314.780151	2755.822266	1693.786865	26.300877
778.125854	1316.544556	2750.309082	1688.934937	25.972910
778.441711	1317.426758	2744.133789	1685.185425	25.776747
778.757446	1316.323975	2737.847900	1682.098022	25.731121
779.073181	1313.567017	2733.547363	1674.378906	25.409639
779.388855	1316.323853	2727.702637	1670.409058	25.087893
779.704468	1315.552124	2723.623047	1667.100952	24.966700
780.020020	1310.258911	2717.888672	1670.850220	25.616915
780.335571	1311.251343	2708.736328	1668.203857	25.542494
780.651062	1310.479492	2703.222168	1666.108643	25.534449
780.966553	1307.722656	2697.708740	1665.888184	25.767563
781.281860	1301.657471	2686.020020	1666.770264	26.374073
781.597290	1301.767944	2678.631592	1662.910767	26.229382
781.912476	1299.231812	2675.102783	1660.594849	26.264311
782.227722	1300.775635	2666.060547	1658.389526	26.193352
782.542908	1299.011108	2654.923096	1651.773071	26.016582
782.858093	1299.452148	2642.682373	1647.913452	25.942039
783.173218	1302.539917	2640.256836	1638.760986	25.133947
783.488281	1300.003662	2639.595215	1638.099365	25.238716
783.803345	1299.562622	2630.883789	1638.650635	25.470039
784.118225	1301.547485	2618.202148	1630.821289	25.008366
784.433167	1302.208862	2609.821533	1627.623535	24.886168
784.748047	1303.532227	2603.425537	1626.189697	24.821842
785.062866	1306.619995	2590.193115	1624.315063	24.750835
785.377686	1305.958374	2579.276123	1621.999390	24.820278
785.692444	1306.619995	2568.689697	1623.874023	25.137600
786.007141	1305.517334	2564.830078	1626.189941	25.464096
786.321716	1308.825439	2558.765137	1629.718506	25.672684
786.636353	1311.141113	2562.073242	1628.836548	25.396696
786.950928	1309.487061	2567.256104	1632.034424	25.644403
787.265442	1308.715088	2574.313721	1632.475464	25.581600
787.579834	1304.414551	2570.674561	1631.483032	25.829489
787.894226	1308.163696	2576.850098	1630.821411	25.432425
788.208618	1304.193970	2578.834961	1629.939209	25.555841
788.522949	1305.517212	2574.424072	1622.551147	24.984808
788.837219	1302.870605	2574.424072	1621.338013	25.045538
789.151367	1303.752808	2579.937500	1623.543579	25.058346
789.465515	1301.657593	2579.937744	1622.220093	25.077641
789.779602	1299.893188	2571.005615	1621.448120	25.297127
790.093689	1303.973267	2559.427002	1614.170166	24.707951
790.407776	1300.554688	2555.016113	1613.839478	24.973648
790.721741	1299.672607	2549.943848	1615.272827	25.242540
791.035645	1298.018555	2541.562988	1615.383179	25.520971
791.349548	1296.695190	2534.615967	1614.390869	25.663652
791.663391	1293.938477	2536.270020	1615.934570	25.918694
791.977173	1296.805664	2532.630859	1614.831787	25.733908
792.290894	1296.254150	2521.714111	1611.633911	25.735624
792.604614	1298.790771	2510.466064	1606.451294	25.391335
792.918274	1299.231812	2501.754639	1599.283447	24.951845
793.231812	1298.680542	2485.764893	1590.020630	24.542492
793.545410	1298.459839	2473.083496	1582.852905	24.211420
793.858948	1300.113892	2456.983398	1580.426880	24.230303
794.172363	1304.524780	2451.690186	1575.133789	23.589363
794.485840	1302.209106	2442.427490	1574.582397	23.887817
794.799194	1308.494629	2439.449951	1570.281616	23.147421
795.112488	1307.171265	2438.126953	1569.619995	23.205925
795.425781	1309.156128	2435.370117	1569.178711	23.088203
795.738953	1305.958374	2428.533203	1568.848022	23.418451
796.052185	1307.061035	2428.753906	1569.068604	23.358227
796.365234	1307.171265	2428.754150	1566.311768	23.104891
796.678284	1305.627441	2429.966797	1575.133545	23.970175
796.991333	1308.825317	2427.540771	1577.780151	24.041397
797.304382	1309.927979	2429.305176	1575.685059	23.741512
797.617310	1312.023193	2428.974121	1576.236450	23.654867
797.930115	1312.574463	2422.468262	1575.574829	23.695993
798.242981	1314.890259	2417.726318	1572.266724	23.337690
798.555786	1313.236084	2413.425781	1569.730225	23.313629
798.868530	1317.205933	2412.764160	1564.437256	22.566698
799.181213	1313.346436	2411.110352	1562.011353	22.651949
799.493896	1313.125854	2406.479004	1560.026367	22.581955
799.806519	1316.985474	2406.037842	1562.672852	22.559740
800.119080	1318.198608	2402.068115	1562.011353	22.494659
800.431580	1315.000610	2392.033203	1559.254517	22.678413
800.744080	1313.897949	2382.329346	1558.372314	22.881615
801.056458	1315.000732	2373.948486	1557.269531	22.878258
801.368835	1312.133667	2360.054199	1555.836060	23.255808
801.681152	1314.890381	2348.144531	1558.923584	23.617926
801.993408	1316.765015	2338.440430	1554.512817	23.270386
802.305664	1319.962891	2329.397949	1545.911499	22.383669
802.617798	1320.845093	2318.812012	1544.477905	22.408840
802.929993	1320.403809	2310.431396	1544.698486	22.655397
803.242065	1321.396240	2301.058105	1537.751343	22.084671
803.554016	1318.418945	2295.985596	1535.325317	22.188396
803.865967	1318.639404	2289.479492	1539.074585	22.705612
804.177979	1316.103271	2288.045898	1532.568604	22.271410
804.489807	1314.890381	2288.045654	1529.922119	22.096344
804.801697	1311.251343	2286.281494	1529.260376	22.359209
805.113464	1310.369263	2280.547363	1528.378052	22.471006
805.425232	1306.730225	2282.311523	1533.230103	23.216915
805.736938	1305.627563	2277.900879	1528.378052	22.910275
806.048584	1300.554932	2273.269287	1531.906860	23.784159
806.360168	1297.467285	2267.535400	1531.134888	24.087751
806.671753	1296.915771	2257.280029	1531.686157	24.445972
806.983276	1298.790527	2257.831299	1528.047119	23.904781
807.294739	1300.223999	2252.979248	1528.598389	23.969891
807.606140	1301.437012	2248.568359	1523.305298	23.425293
807.917542	1301.326782	2247.906738	1520.879272	23.194288
808.228760	1301.216431	2242.393311	1512.498657	22.448727
808.540100	1300.223999	2231.917236	1510.182983	22.535206
808.851318	1297.026123	2225.080322	1511.837036	23.146376
809.162476	1297.356934	2217.361328	1508.418579	22.941374
809.473633	1297.246704	2212.840088	1506.984985	22.907360
809.784668	1291.071411	2206.113525	1502.463867	23.101938
810.095703	1295.813110	2194.975830	1498.935303	22.590149
810.406738	1298.570068	2186.594971	1489.231201	21.470245
810.717590	1302.870605	2174.465332	1491.105835	21.596645
811.028503	1303.311890	2163.548096	1488.900513	21.574146
811.339294	1303.201416	2153.733887	1486.915527	21.599894
811.650085	1302.209106	2148.661377	1482.835449	21.339224
811.960876	1299.231812	2137.082764	1479.637573	21.531963
812.271545	1301.988525	2129.143311	1481.953369	21.757093
812.582153	1309.045898	2126.496582	1476.219116	20.450558
812.892761	1307.281616	2116.902832	1469.382202	20.021780
813.203308	1302.980957	2115.579590	1464.309692	19.853434
813.513855	1303.973511	2111.058594	1457.252319	18.991653
813.824280	1303.311768	2107.530029	1456.811279	19.086798
814.134705	1301.988525	2105.765869	1456.039307	19.165854
814.445068	1301.437012	2096.943604	1458.355103	19.725555
814.755371	1301.437012	2098.156738	1459.568115	19.847771
815.065613	1299.562378	2102.016113	1461.773438	20.214382
815.375854	1302.980835	2101.354492	1461.442749	19.848089
815.686035	1302.208984	2104.111328	1459.126953	19.568214
815.996155	1303.311646	2104.442139	1459.347412	19.476948
816.306152	1308.053467	2105.544922	1463.868652	19.538164
816.616211	1306.840454	2114.036133	1463.868652	19.453548
816.926208	1303.091187	2117.675049	1471.477417	20.671442
817.236145	1303.752930	2126.166016	1473.021240	20.581909
817.546021	1304.524780	2139.619141	1474.565063	20.361805
817.855774	1305.186401	2151.638916	1482.835571	20.987494
818.165588	1305.958252	2168.951660	1492.760132	21.645805
818.475281	1309.928101	2192.218750	1498.053223	21.322353
818.784973	1305.406860	2222.102783	1504.890015	21.761105
819.094604	1299.231689	2250.112061	1515.917358	22.787901
819.404175	1298.790405	2295.434082	1532.899292	23.489727
819.713684	1298.680298	2358.620117	1556.718140	24.344574
820.023254	1297.577515	2484.661865	1609.649048	26.288910
820.332642	1295.923340	2704.766113	1695.330688	28.350031
820.642090	1295.923584	2994.231445	1804.500732	29.946110
820.951416	1296.144043	3298.804688	1902.643188	30.284668
821.260681	1292.725586	3552.982910	1991.743530	30.926476
821.569946	1293.497559	3751.914551	2058.789307	31.129452
821.879150	1294.159180	3915.779785	2106.647461	30.991833
822.188293	1295.592773	4045.460449	2153.402832	31.194593
822.497437	1298.018799	4152.204102	2190.123779	31.256029
822.806458	1298.018799	4247.811035	2216.258545	31.128963
823.115479	1298.790649	4328.861328	2239.856689	31.057560
823.424438	1300.334473	4405.721191	2258.051514	30.840508
823.733337	1295.813232	4468.245605	2274.702881	30.856123
824.042236	1296.144043	4520.073730	2295.654541	31.002863
824.351013	1295.372192	4567.932129	2305.137939	30.855530
824.659790	1297.467407	4607.079102	2319.032227	30.866606
824.968445	1297.908447	4665.522949	2342.079346	31.006248
825.277100	1301.106445	4735.656250	2370.529785	31.137220
825.585693	1304.635010	4822.220703	2399.090332	31.113821
825.894287	1309.376709	4879.562012	2419.380371	31.090925
826.202820	1314.890381	4901.395996	2419.380615	30.795721
826.511292	1313.787720	4834.019531	2391.812256	30.623680
826.819702	1316.213745	4662.435059	2318.701904	29.958813
827.128113	1320.073242	4409.911133	2217.912842	29.057821
827.436401	1319.962769	4141.618164	2127.709717	28.626705
827.744751	1321.506592	3911.148438	2051.180420	28.176632
828.052917	1322.057983	3731.293945	1987.773804	27.631824
828.361145	1319.521729	3583.308105	1944.546631	27.609713
828.669312	1320.183350	3465.977295	1905.289795	27.267597
828.977356	1315.993164	3366.732178	1870.112671	27.020479
829.285400	1312.464233	3275.867920	1843.426758	27.042963
829.593384	1310.920532	3197.353516	1821.151611	27.047400
829.901306	1307.833008	3122.257813	1800.530640	27.154480
830.209167	1312.133667	3057.858887	1780.571411	26.833418
830.517029	1312.795288	2998.532471	1760.391357	26.551949
830.824829	1314.669922	2946.704346	1745.284058	26.385113
831.132568	1311.802856	2898.073975	1729.404907	26.326019
831.440247	1308.935791	2841.724609	1705.806763	25.892084
831.747925	1308.384399	2783.059814	1683.200684	25.416866
832.055481	1305.848022	2716.786133	1660.705200	25.150442
832.363037	1306.178833	2668.706787	1649.898438	25.226610
832.670532	1304.635010	2628.898438	1640.304932	25.347670
832.977966	1306.178833	2611.034180	1631.593140	24.938726
833.285400	1308.825317	2591.847168	1629.939209	25.027937
833.592712	1306.840454	2572.659668	1630.380249	25.559715
833.900085	1307.391724	2552.700195	1621.779053	25.245739
834.207275	1302.760254	2539.798096	1613.949585	25.156008
834.514526	1301.767822	2527.668213	1608.546265	25.024744
834.821716	1302.760376	2517.964111	1603.363281	24.736832
835.128784	1303.091187	2508.921631	1600.496338	24.663927
835.435852	1306.399292	2503.297852	1594.762085	24.092501
835.742798	1308.163696	2494.696533	1590.902588	23.828999
836.049805	1307.722534	2485.323730	1585.388916	23.578983
836.356750	1309.597168	2474.847656	1580.095825	23.213778
836.663574	1306.950562	2463.930664	1576.677612	23.313025
836.970398	1307.060913	2452.021484	1571.715210	23.114708
837.277161	1304.524658	2437.244629	1563.555054	22.868000
837.583923	1305.075928	2424.122314	1552.197021	22.083185
837.890564	1308.053345	2396.774658	1543.595581	21.634760
838.197205	1308.604858	2354.650391	1531.465576	21.305069
838.503784	1311.692505	2308.005371	1512.829468	20.188133
838.810303	1309.376709	2257.059326	1489.451782	19.001623
839.116699	1306.509766	2211.626953	1477.321777	18.871811
839.423096	1309.046021	2160.791260	1464.971313	18.306564
839.729492	1308.715210	2120.541992	1446.114624	16.924721
840.035828	1304.745361	2089.996582	1433.102539	16.346003
840.342102	1302.760620	2067.500732	1427.368286	16.294119
840.648315	1308.494751	2039.601807	1418.656860	15.067849
840.954529	1311.692505	2021.517090	1413.143188	14.292359
841.260620	1313.015747	2003.432251	1411.158325	14.214981
841.566711	1310.258911	1989.207275	1407.078247	14.260191
841.872803	1309.707397	1968.365845	1405.424194	14.532084
842.178772	1312.795044	1954.250977	1403.108521	14.079452
842.484680	1310.920532	1935.394165	1398.587280	14.038503
842.790588	1312.574585	1921.830688	1398.366821	14.081473
843.096436	1313.567017	1911.354858	1394.507202	13.539951
843.402222	1314.118286	1899.996826	1389.655151	12.892922
843.707947	1315.551880	1889.300415	1390.096436	12.992548
844.013611	1315.993042	1878.162720	1389.545044	13.083594
844.319275	1313.125977	1861.070679	1385.464722	13.201833
844.624817	1314.118530	1844.529785	1380.943604	12.598728
844.930359	1311.913086	1820.380005	1373.224487	12.058090
845.235901	1311.030884	1800.530884	1364.733643	10.970942
845.541321	1315.993164	1778.035400	1354.478271	8.329349
845.846680	1311.913086	1765.354004	1349.185181	8.219835
846.152039	1311.472046	1751.459839	1348.523560	8.421032
846.457275	1316.323975	1736.793335	1344.333130	6.661402
846.762512	1318.308838	1724.553223	1336.724487	4.533145
847.067749	1316.654785	1716.392822	1338.047729	5.351741
847.372925	1315.110840	1705.365479	1334.960205	5.086260
847.677979	1313.125977	1699.410889	1329.556885	4.253572
847.983032	1314.669922	1687.391235	1323.822510	2.455612
848.288025	1310.369263	1681.767456	1318.860352	2.286249
848.592957	1309.045898	1679.782349	1314.890381	1.576452
848.897888	1312.905518	1675.812744	1316.875244	1.093868
849.202759	1312.133667	1675.151001	1312.905396	0.212587
849.507507	1308.715210	1670.739990	1313.677368	1.370668
849.812317	1308.825439	1668.093506	1314.669800	1.626741
850.117004	1308.163818	1667.211182	1309.045898	0.245672
850.421631	1305.958374	1663.682617	1306.840454	0.246581
850.726257	1304.745361	1661.146240	1304.524780	-0.061891
851.030823	1304.635010	1660.154053	1295.813354	-2.481345
851.335327	1303.421875	1660.264282	1297.687988	-1.606840
851.639771	1301.326782	1656.404785	1295.041382	-1.770146
851.944153	1296.805664	1654.419800	1294.159180	-0.740039
852.248535	1297.136353	1657.507446	1296.033813	-0.305945
852.552856	1295.041260	1663.792725	1294.269531	-0.209281
852.857056	1291.733032	1663.131104	1296.805664	1.365821
853.161255	1286.770874	1662.579834	1299.672607	3.433056
853.465393	1284.124268	1660.594727	1298.018555	3.690671
853.769531	1279.382568	1652.765381	1300.995850	5.788505
854.073547	1280.044189	1649.788086	1300.113770	5.427968
854.377563	1280.375000	1644.715576	1300.334351	5.478212
854.681580	1280.485474	1645.156616	1303.421997	6.289646
854.985474	1280.926392	1640.194336	1301.988281	5.862446
855.289307	1279.492920	1640.525269	1295.482300	4.428794
855.593140	1276.736084	1639.312134	1294.269287	4.835731
855.896851	1277.066895	1640.525269	1292.835693	4.338543
856.200623	1276.736084	1638.981445	1288.866089	3.348560
856.504272	1275.633423	1635.783691	1293.497437	4.960155
856.807922	1278.169678	1635.452759	1293.718140	4.351861
857.111389	1280.044312	1639.312256	1295.813232	4.389181
857.414978	1278.390259	1637.768555	1301.878296	6.535742
857.718445	1279.382568	1635.121826	1299.672852	5.703695
858.021790	1284.565308	1632.585693	1299.231689	4.214231
858.325195	1287.322144	1635.452881	1299.011108	3.357636
858.628479	1291.071655	1630.380371	1300.224243	2.697422
858.931763	1289.637817	1624.315308	1297.136475	2.240562
859.234985	1288.866089	1626.410522	1296.254395	2.188839
859.538147	1291.071533	1623.763916	1294.931152	1.160116
859.841248	1294.710571	1626.410522	1290.630615	-1.230014
860.144287	1297.687866	1629.828857	1287.322144	-3.120880
860.447266	1298.459717	1628.615723	1289.637939	-2.672003
860.750305	1296.915894	1632.585571	1287.211914	-2.890931
861.053223	1299.121338	1634.680786	1284.675659	-4.304954
861.356018	1295.592651	1635.342407	1289.197021	-1.882453
861.658813	1294.489746	1634.460205	1295.923584	0.421754
861.961609	1299.672607	1630.049316	1300.554932	0.267066
862.264343	1299.562256	1629.056885	1302.319336	0.836760
862.567017	1301.216309	1630.821289	1309.486938	2.509255
862.869629	1302.539673	1627.843994	1308.163696	1.728850
863.172180	1302.429443	1623.322754	1306.619995	1.305902
863.474670	1302.980713	1619.463135	1303.642334	0.209055
863.777161	1304.083496	1617.037231	1300.334229	-1.198026
864.079590	1303.973267	1616.044800	1303.311523	-0.212049
864.381958	1302.760254	1622.330322	1304.965576	0.690090
864.684265	1300.665161	1622.991943	1306.619873	1.847415
864.986511	1297.246704	1621.889160	1304.083618	2.105983
865.288757	1299.341797	1621.338013	1309.045898	3.013731
865.590942	1301.988281	1621.117432	1305.076050	0.967561
865.893066	1303.642578	1622.661133	1303.973389	0.103696
866.195068	1301.988403	1619.352905	1304.635010	0.833933
866.497131	1300.223999	1619.353027	1302.980957	0.863901
866.799133	1304.193848	1623.874023	1302.760376	-0.448408
867.100952	1304.965698	1619.794067	1302.539917	-0.770509
867.402832	1306.619751	1616.816650	1304.855469	-0.568762
867.704651	1309.597168	1615.272827	1303.311768	-2.056232
868.006409	1309.045898	1617.808960	1299.672729	-3.035716
868.308105	1307.612305	1620.345459	1292.394775	-4.865979
868.609802	1310.810303	1620.896973	1287.983765	-7.361341
868.911438	1310.148682	1618.360474	1279.713501	-9.874762
869.213013	1310.479370	1617.478394	1282.580566	-9.087587
869.514465	1310.258911	1621.117432	1285.888794	-7.839617
869.815979	1312.133545	1620.345459	1285.337280	-8.694104
870.117371	1311.802734	1622.771362	1286.991455	-7.978708
870.418701	1315.000610	1624.425537	1287.322144	-8.945131
870.720093	1317.536987	1622.440674	1287.211914	-9.945787
871.021301	1319.080811	1621.558350	1287.873657	-10.317181
871.322571	1320.955322	1622.550781	1285.778564	-11.663557
871.623718	1319.301392	1625.638550	1283.352417	-11.735101
871.924805	1318.088379	1625.417969	1282.911255	-11.446058
872.225891	1318.970581	1625.528442	1283.021606	-11.726652
872.526917	1321.396484	1629.277588	1285.226929	-11.747897
872.827881	1323.491699	1626.631104	1286.770874	-12.113511
873.128784	1318.970459	1619.242920	1285.998901	-10.980547
873.429626	1317.867798	1620.345581	1286.881104	-10.244287
873.730408	1317.757568	1618.691406	1287.652954	-10.003732
874.031189	1314.338989	1621.338013	1285.668091	-9.339085
874.331848	1314.780151	1621.227661	1288.535278	-8.564231
874.632568	1311.692627	1620.786499	1292.394775	-6.243363
874.933167	1311.251343	1620.896973	1292.946167	-5.911653
875.233704	1309.156250	1623.102295	1297.687988	-3.652940
875.534241	1308.494629	1626.630981	1295.702881	-4.020838
875.834717	1307.171509	1627.513184	1299.341919	-2.444137
876.135071	1303.752930	1634.570679	1298.680298	-1.533361
876.435425	1302.539917	1634.019165	1295.482300	-2.129128
876.735779	1304.635132	1635.893799	1297.136475	-2.263686
877.036011	1298.901001	1636.004150	1299.562378	0.196194
877.336182	1297.246948	1638.650635	1298.680298	0.419840
877.636353	1294.931152	1645.928589	1300.775391	1.665037
877.936462	1294.931030	1651.001099	1303.752808	2.477540
878.236511	1297.908447	1661.366821	1309.486938	3.185644
878.536560	1297.798218	1679.782349	1315.331421	4.590034
878.836487	1297.246826	1703.049805	1324.925171	6.820636
879.136414	1294.379639	1762.486816	1344.002197	10.600683
879.436279	1291.843506	1852.138428	1376.642944	15.134787
879.736084	1293.276855	1963.513550	1420.641724	19.002968
880.035828	1290.961182	2086.908691	1462.214478	21.515652
880.335510	1293.938477	2202.694824	1502.794678	22.982639
880.635193	1293.276855	2303.594238	1537.751221	24.197779
880.934753	1297.797852	2393.576904	1568.296631	24.685522
881.234314	1296.474854	2473.193359	1596.416260	25.489649
881.533752	1298.569946	2539.467529	1618.029785	25.744255
881.833252	1297.798096	2600.889404	1635.562866	25.920269
882.132629	1298.570068	2658.892822	1650.008545	25.834934
882.431946	1298.680298	2704.766113	1665.226318	26.068539
882.731323	1299.893433	2746.559326	1677.025269	26.069035
883.030579	1298.459839	2780.192627	1685.626465	26.129314
883.329712	1298.018677	2813.053955	1689.817139	25.860682
883.628845	1298.790527	2833.675049	1694.999756	25.813618
883.927979	1298.900879	2847.128174	1704.152588	26.175207
884.226990	1299.452148	2858.045166	1708.122437	26.220463
884.526001	1296.144043	2861.684082	1708.453369	26.336555
884.824951	1296.695435	2855.398682	1708.894287	26.444986
885.123840	1295.702881	2838.306396	1701.616455	26.313540
885.422729	1297.687744	2793.645996	1685.185791	25.902998
885.721497	1300.223999	2709.948975	1650.339478	24.835730
886.020203	1301.216553	2605.962158	1607.223267	23.453362
886.318909	1302.760376	2484.331299	1567.524902	22.407841
886.617554	1302.980835	2367.773193	1528.378052	21.168184
886.916138	1302.980957	2268.858643	1493.090820	19.682602
887.214661	1300.554932	2181.522705	1460.009155	18.099894
887.513184	1301.106323	2099.369629	1434.425903	16.701204
887.811523	1298.018677	2028.905518	1414.135742	15.887147
888.109924	1303.752808	1794.686401	1359.330200	11.320756
888.408264	1292.174194	1871.105347	1354.698730	10.799995
888.706543	1294.489868	1690.478760	1269.016968	-6.432731
889.004761	1331.541504	1743.740479	1306.068604	-6.179759
889.302979	1313.015747	1655.742920	1366.277344	15.540524
889.601135	1329.225830	1637.217163	1317.647217	-3.759396
889.899170	1282.911255	1678.900146	1340.804443	14.619903
890.197205	1313.015747	1667.321533	1259.754028	-15.032698
890.495178	1299.121338	1597.849854	1319.962891	6.976754
890.793091	1271.332642	1570.061157	1343.120117	24.031008
>>>>>End Processed Spectral Data<<<<<
