Jaz Data File
++++++++++++++++++++++++++++++++++++
Date: Thu Sep 26 04:30:58 2019
User: jaz
Dark Spectrum Present: Yes
Reference Spectrum Present: Yes
Processed Spectrum Present: Yes
Spectrometers: JAZA3541
Integration Time (usec): 100000 (JAZA3541)
Spectra Averaged: 1 (JAZA3541)
Boxcar Smoothing: 10 (JAZA3541)
Correct for Electrical Dark: No (JAZA3541)
Strobe/Lamp Enabled: Yes (JAZA3541)
Correct for Detector Non-linearity: No (JAZA3541)
Correct for Stray Light: No (JAZA3541)
Number of Pixels in Processed Spectrum: 2048
>>>>>Begin Processed Spectral Data<<<<<
W	D	R	S	P
190.543274	0.000000	0.000000	0.000000	0.000000
190.921555	0.000000	0.000000	0.000000	0.000000
191.299805	1296.805664	1336.172974	1160.177856	-347.059052
191.678024	1229.649658	1322.278564	1174.072266	-60.000053
192.056229	1345.435913	1313.015747	1225.018188	371.428467
192.434387	1331.541504	1278.279907	1199.545166	247.826477
192.812531	1303.752808	1324.594360	1187.966553	-555.554810
193.190659	1310.699951	1296.805664	1190.282349	866.669861
193.568741	1319.962891	1359.330200	1141.652100	-452.941254
193.946793	0.000000	0.000000	0.000000	0.000000
194.324829	1207.815674	1211.785522	1084.861694	-3097.195557
194.702835	1271.994385	1273.317627	1140.218506	-9958.560547
195.080811	1337.606445	1335.070313	1198.111694	5500.293457
195.458755	1337.827148	1332.203125	1196.788452	2507.790039
195.836685	1338.268188	1331.541626	1200.207031	2052.477051
196.214569	1339.811890	1336.172974	1201.750732	3794.018799
196.592422	1341.907104	1340.032471	1201.530151	7488.233398
196.970261	1342.679077	1342.127686	1206.933594	24618.707031
197.348068	1343.781860	1343.120117	1206.823242	20696.642578
197.725861	1344.222900	1342.127563	1211.454712	6336.364746
198.103622	1343.561279	1338.157837	1212.888306	2418.328369
198.481323	1340.253052	1337.496216	1209.690430	4735.958984
198.859039	1337.937378	1335.290771	1210.462280	4816.548828
199.236694	1335.070313	1335.621460	1208.587646	-22948.970703
199.614334	1333.416138	1335.511230	1211.895752	-5800.238770
199.991959	1329.115479	1337.937134	1214.762817	-1296.272217
200.369553	1324.373657	1337.826904	1214.432129	-817.211853
200.747101	1322.499023	1341.355835	1214.321899	-573.676636
201.124619	1320.514038	1341.576294	1215.755371	-497.376282
201.502136	1316.323608	1346.538452	1214.101196	-338.318512
201.879623	1313.677246	1349.736450	1212.777954	-279.815643
202.257065	1311.030640	1351.500854	1217.519775	-231.060959
202.634476	1309.927979	1352.934570	1222.592163	-203.075409
203.011871	1305.186279	1354.809082	1223.584717	-164.443680
203.389221	1303.091064	1361.866455	1226.231323	-130.768570
203.766571	1304.745117	1367.931519	1227.554565	-122.163231
204.143875	1300.334229	1365.064331	1227.554565	-112.435577
204.521164	1296.254272	1365.284912	1230.090820	-95.846497
204.898392	1297.798096	1363.300049	1227.113403	-107.912346
205.275620	1298.459717	1368.703369	1228.988037	-98.901009
205.652817	1293.718018	1368.482910	1228.326294	-87.463142
206.029984	1293.607666	1372.673218	1228.216064	-82.705551
206.407135	1291.953613	1374.988892	1227.444214	-77.689148
206.784225	1292.394775	1374.437378	1227.113403	-79.570091
207.161301	1293.607910	1372.893555	1226.782593	-84.284256
207.538376	1298.570190	1373.555176	1226.782593	-95.735962
207.915405	1302.209229	1370.798462	1221.489624	-117.685532
208.292404	1303.422119	1370.798584	1220.056030	-123.731766
208.669373	1305.406860	1366.718506	1218.071289	-142.445328
209.046310	1302.319336	1363.961670	1220.938110	-132.021652
209.423218	1303.863159	1361.645874	1224.467041	-137.404617
209.800095	1305.737793	1357.124756	1225.790161	-155.579605
210.176956	1308.715210	1353.265137	1226.120972	-185.397018
210.553787	1308.163818	1355.911743	1226.231323	-171.593842
210.930603	1309.597412	1356.242554	1226.120850	-178.960892
211.307358	1315.221313	1353.485718	1227.223633	-229.972687
211.684113	1317.316406	1349.846680	1224.577148	-285.085999
212.060837	1316.985596	1348.413086	1222.481812	-300.704193
212.437531	1316.765015	1350.839233	1219.945557	-284.142853
212.814178	1314.008179	1354.037109	1215.975708	-244.904053
213.190826	1312.574585	1351.280273	1215.865479	-249.857605
213.567413	1313.125977	1352.383057	1215.865479	-247.752762
213.943985	1310.258789	1357.345337	1213.770386	-204.917130
214.320541	1309.266479	1357.124756	1212.226563	-202.765167
214.697052	1307.612305	1361.315186	1208.697998	-184.188080
215.073563	1309.266357	1363.300049	1205.830688	-191.428101
215.449997	1303.863159	1360.874023	1203.404785	-176.209183
215.826431	1301.326904	1362.086914	1210.131470	-150.091217
216.202850	1300.334351	1364.954102	1208.036133	-142.832825
216.579224	1298.459717	1369.695923	1211.344360	-122.290840
216.955582	1300.885742	1374.989014	1205.830811	-128.273590
217.331894	1300.554932	1374.217041	1201.860962	-133.982010
217.708191	1300.003418	1376.863647	1203.845947	-125.106926
218.084442	1300.113770	1383.480103	1201.750732	-117.988922
218.460678	1296.915771	1384.141602	1201.199463	-109.733902
218.836899	1295.041260	1385.685303	1199.435059	-105.474335
219.213074	1292.615234	1387.339478	1200.978760	-96.740257
219.589233	1294.269287	1392.191650	1201.419922	-94.819366
219.965347	1296.805542	1398.697510	1202.412354	-92.640457
220.341431	1295.592529	1399.359131	1202.963623	-89.266586
220.717499	1296.254150	1400.241455	1208.587524	-84.305122
221.093552	1295.041260	1402.336548	1205.720459	-83.247643
221.469543	1299.011108	1407.078247	1204.617798	-87.346916
221.845535	1302.980835	1407.409058	1207.705444	-91.235291
222.221466	1305.296631	1411.709595	1210.462280	-89.119171
222.597397	1305.186279	1417.884766	1212.888062	-81.898369
222.973297	1302.760376	1426.706543	1216.306641	-69.751038
223.349167	1300.554932	1437.403076	1216.858032	-61.160419
223.725006	1297.467285	1446.996826	1215.865479	-54.572365
224.100800	1295.041260	1454.385010	1219.614746	-47.335720
224.476578	1295.372070	1465.081543	1221.599609	-43.469856
224.852325	1297.577515	1475.778076	1225.569458	-40.408436
225.228058	1298.680298	1495.847778	1228.546753	-35.570545
225.603760	1297.577637	1523.195313	1230.311279	-29.814312
225.979416	1295.261963	1552.086792	1235.383789	-23.314791
226.355057	1295.372192	1590.351318	1238.361084	-19.327168
226.730652	1296.805664	1642.069214	1246.411133	-14.595961
227.106232	1296.915894	1691.912231	1251.483521	-11.501973
227.481796	1294.159180	1736.903687	1261.187500	-7.447112
227.857315	1292.946167	1778.145630	1270.781250	-4.568207
228.232788	1296.033813	1815.638184	1277.618164	-3.544168
228.608246	1296.695435	1848.058350	1281.918701	-2.680037
228.983704	1297.026245	1883.345459	1293.387085	-0.620679
229.359100	1297.577637	1916.206665	1299.672607	0.338647
229.734482	1293.166748	1945.870117	1302.870483	1.486699
230.109833	1290.189453	1973.768921	1306.289063	2.355192
230.485153	1290.189331	1989.979126	1312.133545	3.135829
230.860443	1289.527710	2012.585205	1320.073242	4.224495
231.235703	1293.166748	2031.331421	1325.366211	4.362098
231.610931	1293.607788	2055.481445	1332.864746	5.152686
231.986145	1293.056396	2079.300049	1337.716919	5.680240
232.361313	1290.189209	2098.708252	1344.774292	6.751243
232.736465	1287.983765	2121.313965	1349.405640	7.370653
233.111572	1285.888550	2134.656982	1357.124756	8.392891
233.486664	1288.865845	2141.052734	1362.969116	8.695660
233.861725	1290.409668	2141.604248	1366.608032	8.951933
234.236755	1292.284302	2138.957520	1370.026611	9.182092
234.611771	1296.474731	2120.873047	1372.562866	9.229535
234.986740	1298.900635	2101.023926	1373.665649	9.320889
235.361679	1299.782959	2083.710938	1378.407349	10.029543
235.736588	1298.570068	2073.235107	1374.657959	9.822038
236.111496	1297.908447	2069.375488	1382.377197	10.949107
236.486343	1298.459717	2071.139893	1387.449707	11.517054
236.861160	1301.106323	2071.250000	1393.404297	11.984513
237.235962	1300.334351	2079.961426	1405.865112	13.536057
237.610733	1302.760376	2089.996338	1417.002563	14.511810
237.985474	1301.437134	2106.978271	1429.683960	15.920581
238.360199	1300.665283	2140.501221	1444.129761	17.082441
238.734879	1301.767944	2177.662842	1459.567993	18.015865
239.109543	1300.334473	2227.616455	1489.562012	20.406689
239.484177	1304.635132	2281.650146	1520.438477	22.088028
239.858749	1310.810303	2350.680908	1558.813110	23.849392
240.233322	1311.361694	2434.047119	1598.952393	25.616322
240.607864	1313.126099	2511.899414	1645.818237	27.752714
240.982391	1314.559570	2592.618896	1688.273193	29.240709
241.356857	1316.213745	2651.063232	1721.575562	30.367605
241.731308	1315.000610	2704.435059	1757.524414	31.849203
242.105728	1317.977905	2744.684814	1786.085205	32.810333
242.480118	1312.354126	2785.926758	1812.881470	33.966927
242.854492	1310.479492	2835.880127	1845.522095	35.075546
243.228836	1309.045898	2893.442383	1874.523804	35.690430
243.603134	1312.905518	2957.290283	1917.088867	36.742214
243.977402	1312.023193	3046.721436	1968.586304	37.848839
244.351654	1310.920532	3168.241699	2031.882813	38.817318
244.725861	1310.810303	3315.235107	2105.765381	39.660011
245.100067	1311.912964	3466.970215	2184.279297	40.479961
245.474213	1311.361694	3603.377197	2265.550293	41.630981
245.848343	1316.985474	3710.341553	2329.177734	42.291756
246.222443	1318.198486	3794.700195	2385.416748	43.093784
246.596512	1318.419067	3855.019287	2429.084473	43.785595
246.970566	1321.286133	3892.181641	2450.146484	43.909225
247.344574	1320.845093	3904.862793	2461.945801	44.159943
247.718567	1317.206055	3891.740234	2467.238770	44.669544
248.092529	1318.749756	3859.430420	2462.166504	45.004349
248.466431	1315.441650	3833.075195	2449.815674	45.057156
248.840332	1313.236206	3807.051025	2440.222168	45.191242
249.214203	1311.030640	3809.476563	2443.419922	45.323750
249.588043	1313.787598	3825.797363	2450.808105	45.263378
249.961838	1310.038330	3853.696045	2469.664551	45.588924
250.335617	1313.677124	3886.888428	2486.536377	45.579590
250.709381	1313.456665	3901.664795	2500.430908	45.860851
251.083084	1318.198608	3899.569824	2502.305664	45.871246
251.456787	1314.780029	3882.367188	2496.571533	46.027317
251.830460	1316.434204	3829.656738	2467.900635	45.816330
252.204071	1313.456787	3746.069824	2433.716064	46.051685
252.577667	1310.038452	3638.995117	2384.975830	46.155323
252.951248	1310.369263	3513.615234	2323.002686	45.960976
253.324799	1308.604858	3406.099365	2261.470703	45.428761
253.698303	1305.737671	3326.152100	2217.141113	45.109726
254.071793	1305.296631	3267.817627	2178.986572	44.518757
254.445236	1304.083618	3233.853760	2155.498535	44.120018
254.818665	1300.113770	3219.959473	2139.729492	43.733501
255.192062	1300.003418	3219.077393	2136.972656	43.613182
255.565430	1300.444458	3243.888672	2136.972656	43.043591
255.938782	1301.878052	3283.365967	2147.227783	42.662373
256.312103	1304.745117	3340.266846	2169.723633	42.494194
256.685364	1306.730225	3419.442383	2202.584717	42.403053
257.058594	1304.965820	3518.357178	2243.385498	42.397369
257.431793	1302.098633	3646.714600	2296.978027	42.432510
257.804993	1302.760254	3790.178955	2346.710938	41.969238
258.178162	1299.672729	3928.240234	2404.714111	42.039684
258.551270	1298.128906	4052.517578	2452.683105	41.916893
258.924377	1294.379639	4145.587402	2496.350830	42.156563
259.297485	1293.938599	4222.999023	2525.462891	42.045029
259.670502	1293.056396	4286.625977	2552.920654	42.085686
260.043518	1295.151489	4346.063477	2570.454102	41.800701
260.416473	1298.569946	4394.473145	2582.583984	41.474617
260.789459	1297.026123	4449.830078	2601.661377	41.380157
261.162354	1297.246704	4497.467773	2621.399902	41.376926
261.535278	1298.349365	4541.796875	2636.507080	41.257263
261.908142	1298.790527	4576.092285	2649.298828	41.207932
262.280975	1301.216553	4595.279297	2653.048096	41.038425
262.653717	1302.870605	4609.834961	2657.348633	40.958351
263.026520	1300.113892	4627.809570	2657.679443	40.795963
263.399261	1297.357056	4643.688477	2661.318604	40.759903
263.771973	1296.915894	4654.495605	2662.200928	40.662773
264.144653	1298.239258	4653.502930	2659.444092	40.569237
264.517334	1301.106323	4633.103027	2648.306641	40.432224
264.889954	1302.208862	4586.678223	2622.833740	40.208168
265.262543	1305.627563	4506.179199	2581.371094	39.860111
265.635071	1308.053589	4405.610840	2534.174561	39.583481
266.007599	1311.802856	4310.224609	2482.566895	39.046009
266.380127	1312.133545	4240.201660	2436.583252	38.402443
266.752594	1315.882935	4205.575684	2408.794434	37.821026
267.125031	1315.000732	4197.084473	2395.341309	37.484703
267.497437	1313.236328	4212.963867	2392.584717	37.222408
267.869843	1316.544556	4239.098633	2394.239014	36.875088
268.242218	1313.567261	4277.473633	2407.581787	36.911240
268.614532	1311.913208	4335.697754	2430.408203	36.989902
268.986816	1312.354126	4430.973633	2453.013672	36.575783
269.359100	1311.471924	4539.150879	2489.734375	36.504944
269.731354	1310.038452	4652.510742	2525.462646	36.363029
270.103516	1311.030762	4749.219727	2562.293701	36.393082
270.475708	1311.361572	4830.049805	2592.177734	36.400387
270.847839	1314.890381	4902.499023	2614.011475	36.211338
271.219971	1318.419067	4961.053711	2631.544922	36.048794
271.592041	1320.403809	5006.596191	2641.689941	35.844200
271.964081	1321.065552	5036.369629	2645.108154	35.637527
272.336151	1316.434204	5064.048340	2646.762695	35.498009
272.708130	1316.654785	5090.182129	2646.321533	35.236706
273.080109	1313.015869	5107.385254	2640.477051	34.985027
273.452026	1311.582275	5141.238770	2647.975586	34.895905
273.823914	1310.369263	5176.085449	2658.010498	34.861359
274.195770	1310.369263	5215.893555	2673.338135	34.898487
274.567627	1309.376831	5261.987793	2682.049561	34.728252
274.939423	1310.700073	5304.332031	2691.092041	34.564827
275.311249	1312.243896	5345.464355	2700.354980	34.416939
275.682983	1310.479492	5376.120117	2712.595215	34.486958
276.054688	1309.707520	5401.151855	2717.998779	34.420395
276.426422	1307.943115	5403.577148	2709.948730	34.231712
276.798065	1312.243896	5370.495117	2695.833984	34.093258
277.169708	1313.236206	5325.172852	2671.022949	33.843674
277.541321	1317.757446	5277.536133	2651.173828	33.674011
277.912903	1316.985352	5267.832031	2636.617676	33.401253
278.284424	1316.764893	5279.741211	2639.594971	33.379711
278.655945	1315.882813	5301.685547	2649.960938	33.470753
279.027435	1312.574707	5332.010254	2660.877930	33.544590
279.398865	1310.920532	5391.226563	2683.152832	33.630623
279.770294	1307.502075	5467.424805	2708.515625	33.678837
280.141663	1310.810303	5539.763672	2737.516846	33.736637
280.513031	1313.015869	5615.631348	2771.040039	33.886929
280.884369	1315.993164	5680.912598	2800.041748	33.999451
281.255676	1314.559570	5725.462402	2819.229248	34.112511
281.626953	1313.787720	5763.727051	2835.218506	34.189922
281.998199	1316.654907	5805.189453	2851.428955	34.193211
282.369385	1313.346680	5856.245605	2871.387939	34.296192
282.740540	1313.236328	5915.572754	2893.222168	34.330082
283.111694	1311.802856	5983.280273	2915.386963	34.327129
283.482819	1310.479492	6070.064941	2946.262939	34.368191
283.853912	1314.559570	6165.339844	2975.926514	34.249477
284.224945	1315.441772	6257.858398	3016.947998	34.426605
284.595978	1313.346436	6348.502930	3063.923828	34.767090
284.966980	1311.030762	6425.914551	3106.599365	35.104778
285.337952	1309.817749	6500.238281	3141.224609	35.284363
285.708893	1306.730103	6535.746094	3171.770508	35.667137
286.079803	1305.406860	6558.352051	3192.942627	35.932903
286.450684	1304.745239	6574.893066	3212.350830	36.196434
286.821533	1307.391846	6588.677246	3233.633545	36.472973
287.192322	1306.399414	6596.506836	3255.467285	36.843636
287.563110	1307.391968	6602.571289	3280.058350	37.254005
287.933868	1303.642700	6627.272461	3313.691650	37.757114
288.304596	1299.672852	6668.735352	3353.168945	38.246826
288.675262	1300.885742	6725.304199	3400.586426	38.708309
289.045929	1301.326782	6777.683594	3450.098633	39.237251
289.416565	1300.113770	6826.645020	3491.230225	39.647228
289.787170	1296.805664	6843.957520	3523.650391	40.143929
290.157745	1293.718018	6845.170898	3556.621338	40.762360
290.528259	1293.497437	6840.870605	3592.018555	41.434406
290.898773	1294.820801	6830.614746	3624.107910	42.076839
291.269226	1294.269287	6813.852539	3653.550537	42.743832
291.639679	1290.630371	6797.202148	3689.389404	43.561749
292.010101	1294.820801	6810.876465	3730.521240	44.156559
292.380463	1293.828369	6840.539551	3776.063965	44.751488
292.750824	1298.680298	6882.332031	3818.408447	45.126884
293.121155	1300.775391	6928.756836	3870.788330	45.664913
293.491455	1307.502197	6990.068359	3925.814453	46.076229
293.861725	1310.920532	7072.000977	3986.685303	46.445534
294.231964	1313.125977	7184.479004	4052.297363	46.653152
294.602142	1314.669678	7298.721680	4130.260254	47.051575
294.972321	1314.669800	7398.077148	4199.621582	47.423286
295.342468	1316.213623	7496.991699	4257.404297	47.586090
295.712555	1317.095825	7559.295410	4301.624023	47.812126
296.082672	1318.419067	7583.776855	4325.994141	48.003246
296.452728	1315.882813	7585.761719	4347.055664	48.344997
296.822693	1319.080688	7589.400879	4353.341309	48.390842
297.192657	1321.065552	7589.180664	4362.604492	48.523983
297.562622	1322.388916	7606.824219	4378.152832	48.624317
297.932556	1326.027954	7627.886230	4389.621094	48.614124
298.302460	1328.233398	7634.833496	4401.640137	48.733181
298.672333	1327.792358	7640.347656	4405.279297	48.751839
299.042145	1329.005127	7636.597656	4402.853516	48.732513
299.411957	1330.218140	7623.033691	4399.655273	48.776848
299.781677	1326.027954	7584.768555	4385.430664	48.882084
300.151428	1326.579224	7523.125977	4355.105469	48.874420
300.521149	1326.248291	7458.727051	4328.860352	48.962456
300.890839	1322.829956	7386.829590	4297.764160	49.058945
301.260468	1317.095825	7310.961914	4261.263672	49.119682
301.630096	1318.418945	7223.515625	4215.500488	49.060696
301.999695	1319.080688	7102.436523	4160.805176	49.136257
302.369232	1316.323975	6976.063965	4097.619141	49.141747
302.738739	1314.449219	6859.727051	4029.139893	48.954998
303.108246	1310.699951	6722.106445	3965.843750	49.065689
303.477692	1311.251343	6610.841309	3906.737061	48.975220
303.847137	1311.361816	6522.182129	3860.533203	48.920731
304.216553	1311.361572	6456.680176	3813.446777	48.628384
304.585876	1310.369141	6397.794434	3789.517578	48.730907
304.955231	1309.597046	6350.267090	3768.455811	48.780399
305.324493	1306.619751	6311.010254	3749.599365	48.816723
305.693787	1306.178711	6280.244629	3731.624512	48.761833
306.063049	1306.509521	6274.399414	3719.494385	48.571629
306.432251	1307.391846	6272.414551	3717.950439	48.550808
306.801422	1305.627319	6267.783691	3715.855713	48.572201
307.170593	1304.524658	6268.334961	3714.201172	48.544891
307.539673	1303.642456	6275.171875	3707.915527	48.360832
307.908783	1304.304077	6290.831055	3708.357178	48.210976
308.277832	1302.650146	6307.150879	3713.649902	48.176628
308.646851	1300.444702	6338.357910	3715.414551	47.935913
309.015839	1303.973389	6378.717773	3722.691895	47.661880
309.384796	1298.239258	6410.586914	3734.822266	47.660744
309.753723	1295.151733	6446.205566	3747.062500	47.600178
310.122620	1294.600220	6472.339844	3751.804199	47.457081
310.491486	1296.144165	6484.690430	3762.501221	47.534641
310.860352	1299.342041	6501.231445	3766.691162	47.431786
311.229126	1299.452148	6515.456055	3768.124512	47.328804
311.597931	1298.680298	6523.726074	3766.360107	47.227905
311.966675	1300.224121	6544.016602	3777.166748	47.235710
312.335388	1300.665161	6579.523926	3780.254395	46.972073
312.704071	1298.680298	6617.236816	3789.406982	46.830875
313.072723	1301.326904	6632.564941	3790.730225	46.694656
313.441345	1301.988525	6630.139160	3791.061035	46.715508
313.809875	1302.650146	6611.061523	3778.931152	46.648251
314.178436	1298.459839	6573.018066	3759.302734	46.654957
314.546967	1304.193970	6535.194824	3731.625000	46.404716
314.915466	1304.635132	6494.283691	3704.056641	46.234756
315.283936	1308.604858	6440.911621	3672.076904	46.050877
315.652374	1309.266602	6398.125977	3649.471436	45.986824
316.020752	1307.943237	6345.084961	3615.728027	45.815361
316.389130	1313.236328	6299.542480	3595.107422	45.762756
316.757416	1313.346680	6259.072266	3575.037598	45.730213
317.125732	1312.574585	6233.378418	3552.872314	45.527073
317.494019	1313.126099	6201.399414	3534.567383	45.444294
317.862274	1315.441895	6169.530762	3515.269775	45.319069
318.230469	1314.338989	6137.441406	3497.074463	45.255836
318.598663	1315.441772	6109.211914	3479.320801	45.139397
318.966797	1315.221069	6076.571289	3467.190430	45.196617
319.334930	1314.449341	6049.113281	3449.547363	45.095028
319.703003	1310.148682	6018.347656	3423.963867	44.896469
320.071045	1307.612305	5975.341309	3403.563965	44.903027
320.439056	1306.178711	5939.722656	3384.596680	44.855904
320.807037	1306.399292	5937.627441	3375.002930	44.666416
321.175049	1305.296631	5958.910156	3372.136230	44.413651
321.542969	1301.878052	5990.778809	3385.259033	44.432178
321.910828	1306.178711	6035.219238	3407.423340	44.432789
322.278717	1304.965820	6093.112305	3434.219482	44.469269
322.646515	1308.053345	6142.183594	3448.224365	44.272099
323.014313	1307.501953	6192.908691	3465.646973	44.175339
323.382111	1304.855469	6229.739746	3478.989990	44.145901
323.749817	1304.745117	6278.259766	3498.397705	44.106689
324.117523	1303.752808	6305.828125	3505.786133	44.022392
324.485199	1301.326782	6320.052734	3511.740723	44.043331
324.852814	1304.193970	6319.501465	3515.159180	44.084343
325.220428	1306.399292	6317.957520	3508.652832	43.943489
325.588013	1305.075928	6324.794434	3504.021484	43.806152
325.955536	1308.384155	6334.498535	3499.059082	43.585854
326.323059	1308.825317	6352.804199	3502.587891	43.492702
326.690552	1309.597168	6376.622070	3500.934082	43.247013
327.058014	1311.030640	6396.030273	3510.969238	43.263298
327.425415	1314.338989	6409.152344	3524.312012	43.376919
327.792816	1317.977905	6423.708984	3524.091553	43.208580
328.160187	1320.955322	6430.545410	3521.444824	43.065872
328.527496	1321.837646	6416.541504	3518.467529	43.115948
328.894775	1322.940430	6410.255859	3516.923828	43.126545
329.262054	1325.697144	6391.839844	3494.318115	42.806160
329.629303	1323.712280	6378.275879	3472.814697	42.518063
329.996490	1321.837646	6364.161621	3456.384277	42.332592
330.363647	1317.977905	6370.558105	3460.243652	42.399441
330.730774	1316.985718	6381.474609	3470.058105	42.513123
331.097839	1316.544434	6412.020020	3471.270752	42.287048
331.464935	1316.103394	6438.044434	3480.754150	42.262318
331.831970	1312.353882	6459.437500	3484.944092	42.210125
332.198975	1311.802490	6487.336426	3487.039551	42.029228
332.565948	1311.582153	6516.007324	3493.325195	41.920925
332.932892	1304.965698	6553.610352	3508.763672	41.987942
333.299744	1305.406860	6581.950195	3523.871338	42.043896
333.666656	1301.878174	6619.553711	3540.852783	42.104385
334.033478	1300.444702	6650.540039	3553.975098	42.121311
334.400299	1300.665283	6674.027344	3566.215820	42.162624
334.767090	1298.570068	6710.527344	3578.125000	42.120712
335.133850	1299.562622	6735.669434	3579.448242	41.939678
335.500549	1296.805786	6758.166016	3592.570801	42.036507
335.867218	1291.622803	6781.985352	3601.062012	42.063511
336.233917	1292.725586	6818.154785	3608.450439	41.910316
336.600525	1292.505005	6834.694824	3611.868652	41.849228
336.967102	1293.938599	6855.757324	3616.720215	41.762989
337.333649	1296.915894	6867.004395	3616.830322	41.649509
337.700195	1294.269287	6866.563965	3616.830811	41.680519
338.066681	1296.254150	6856.970215	3602.274658	41.469849
338.433136	1295.813110	6847.266602	3585.072266	41.237114
338.799591	1296.254272	6825.983398	3580.440430	41.307377
339.165985	1296.584961	6811.758789	3572.831543	41.272434
339.532318	1300.775391	6816.390625	3570.956787	41.159168
339.898651	1300.995972	6828.851074	3577.904053	41.189724
340.264954	1300.444580	6846.163574	3580.881592	41.120674
340.631226	1305.627319	6861.712891	3583.748535	41.002270
340.997467	1305.406860	6901.410645	3594.335205	40.902905
341.363678	1306.840454	6942.652344	3604.369873	40.766605
341.729828	1308.274048	6995.914551	3620.469971	40.652988
342.095947	1305.627563	7056.674316	3639.105957	40.574848
342.462067	1306.178833	7114.677734	3660.939697	40.539917
342.828156	1305.076050	7183.377441	3686.081787	40.504997
343.194183	1304.414551	7254.171875	3709.569824	40.424427
343.560211	1309.597290	7313.718750	3734.160645	40.381653
343.926178	1311.582275	7371.282227	3760.626221	40.415264
344.292114	1310.259155	7404.143066	3774.409912	40.436459
344.658020	1307.502197	7440.643066	3796.023438	40.574989
345.023926	1307.943237	7478.025391	3811.020752	40.567982
345.389771	1309.817871	7515.187500	3823.040283	40.500771
345.755585	1307.061157	7535.036621	3841.786865	40.699028
346.121368	1309.376953	7556.099121	3856.232422	40.771069
346.487122	1309.707642	7582.233398	3868.031982	40.786190
346.852844	1309.597412	7608.037109	3876.192383	40.749695
347.218536	1308.163818	7628.216309	3885.124268	40.774349
347.584167	1309.487061	7650.822266	3890.416992	40.700104
347.949768	1309.487061	7669.127930	3901.885742	40.763290
348.315369	1310.259033	7693.718750	3916.662109	40.830570
348.680939	1312.684937	7708.384766	3917.985596	40.735195
349.046448	1312.464478	7717.426270	3924.160645	40.776142
349.411957	1310.810303	7721.727051	3925.924805	40.791584
349.777435	1313.677490	7716.654785	3923.277832	40.756042
350.142792	1315.772705	7705.848145	3921.402832	40.776203
350.508209	1317.757568	7707.170898	3924.049561	40.790791
350.873566	1320.734985	7710.369629	3918.646240	40.658211
351.238892	1324.153320	7723.822754	3921.072510	40.578957
351.604187	1317.647217	7751.722656	3925.483154	40.531635
351.969482	1319.521973	7817.224609	3945.884033	40.419857
352.334717	1317.647339	7876.330566	3971.688232	40.466064
352.699890	1318.308838	7959.255371	4009.070313	40.517742
353.065063	1317.647217	8043.062500	4046.011475	40.567970
353.430237	1317.095825	8157.305176	4084.827393	40.462669
353.795319	1313.456787	8287.425781	4131.693359	40.410801
354.160370	1313.897827	8413.466797	4176.463867	40.320278
354.525421	1315.441650	8548.000977	4229.284668	40.287853
354.890442	1315.993164	8704.146484	4288.832031	40.237915
355.255402	1310.589600	8870.106445	4365.802246	40.415451
355.620331	1311.912964	9055.035156	4436.817871	40.357166
355.985260	1311.913086	9232.242188	4506.178711	40.329960
356.350098	1310.699951	9388.499023	4573.555664	40.392883
356.714935	1313.015869	9533.837891	4629.132813	40.338020
357.079742	1313.456909	9660.432617	4682.945801	40.367779
357.444519	1311.361694	9805.770508	4743.926270	40.409691
357.809296	1311.030762	9967.540039	4810.420898	40.424953
358.173981	1309.266479	10156.877930	4881.326660	40.373158
358.538605	1307.171265	10367.388672	4973.073242	40.461521
358.903259	1303.091187	10606.127930	5064.268555	40.429562
359.267914	1305.958008	10871.113281	5169.357910	40.390350
359.632477	1302.208740	11147.125000	5276.983398	40.373882
359.997009	1303.091064	11412.661133	5369.612793	40.224476
360.361542	1299.893188	11615.783203	5440.628418	40.139393
360.726013	1303.201416	11769.945313	5497.639160	40.073948
361.090485	1304.304321	11863.676758	5536.014160	40.075394
361.454895	1310.259033	11911.866211	5555.091309	40.039513
361.819244	1311.251343	11933.588867	5564.575195	40.041313
362.183594	1308.935791	11933.038086	5561.928711	40.031551
362.547913	1305.958374	11891.907227	5544.725586	40.041447
362.912201	1310.148682	11832.580078	5512.636719	39.938377
363.276489	1311.692383	11753.514648	5469.520508	39.818989
363.640686	1309.045898	11666.289063	5424.639160	39.736378
364.004883	1308.053467	11603.984375	5392.329590	39.668839
364.369049	1307.502075	11540.247070	5365.202637	39.654079
364.733154	1305.627319	11501.651367	5336.752441	39.536243
365.097198	1305.296631	11440.780273	5302.457031	39.437294
365.461273	1304.855469	11349.916992	5261.104980	39.385021
365.825287	1303.863037	11219.022461	5206.189453	39.357174
366.189270	1305.517212	11049.423828	5140.687500	39.359680
366.553223	1306.509644	10853.798828	5056.990723	39.283203
366.917114	1304.083740	10603.810547	4958.517090	39.296139
367.281006	1309.156250	10322.946289	4850.339844	39.286289
367.644867	1308.715088	10066.894531	4749.661133	39.288368
368.008698	1311.251465	9856.163086	4668.059570	39.284290
368.372498	1305.958374	9704.648438	4606.086426	39.293362
368.736237	1305.075928	9600.442383	4553.707031	39.161999
369.099976	1302.429565	9538.358398	4524.705566	39.124622
369.463654	1301.988525	9494.360352	4498.459961	39.017654
369.827332	1302.208862	9463.153320	4478.941406	38.926041
370.190948	1304.193848	9440.435547	4473.428223	38.952068
370.554535	1302.650146	9416.837891	4456.887207	38.873112
370.918091	1301.106445	9393.791016	4457.328613	39.000931
371.281647	1303.091309	9380.999023	4458.320801	39.059986
371.645111	1305.848267	9366.443359	4459.644531	39.126099
372.008575	1305.186523	9363.686523	4459.975586	39.148590
372.371979	1305.406982	9347.367188	4464.055664	39.277100
372.735382	1308.604858	9362.143555	4469.238281	39.245274
373.098724	1308.384155	9392.909180	4478.391602	39.210804
373.462067	1307.501953	9422.242188	4501.988770	39.366470
373.825348	1305.847900	9491.492188	4523.381836	39.307034
374.188599	1304.855347	9567.139648	4562.417969	39.426899
374.551819	1305.517090	9684.690430	4600.683105	39.325668
374.915009	1303.091187	9826.390625	4652.511230	39.297222
375.278168	1303.532227	9977.463867	4709.521484	39.266960
375.641266	1299.672729	10109.459961	4768.958496	39.379902
376.004395	1302.319214	10216.204102	4799.394043	39.231770
376.367462	1305.296631	10289.535156	4833.357422	39.269447
376.730469	1302.980957	10335.959961	4852.214355	39.291950
377.093475	1300.995972	10366.173828	4874.378906	39.418785
377.456421	1299.672852	10399.367188	4887.501465	39.428013
377.819336	1303.201538	10434.763672	4890.809570	39.287994
378.182281	1304.304199	10477.661133	4911.320313	39.320568
378.545135	1306.619873	10523.974609	4922.678223	39.230980
378.907928	1304.965820	10570.621094	4932.823730	39.153820
379.270752	1303.752808	10610.319336	4936.903809	39.038574
379.633484	1304.304077	10644.283203	4949.364746	39.026428
379.996246	1308.604858	10675.931641	4957.083496	38.948982
380.358948	1305.737671	10694.016602	4961.494629	38.939583
380.721558	1306.509521	10717.394531	4968.772461	38.915180
381.084198	1307.281494	10758.856445	4971.970703	38.773315
381.446747	1309.156006	10778.814453	4977.264160	38.735382
381.809326	1310.589722	10797.670898	4973.293945	38.607281
382.171875	1312.574707	10791.716797	4974.617188	38.632633
382.534363	1312.354126	10755.877930	4966.566895	38.695438
382.896790	1311.361572	10704.710938	4951.569824	38.753036
383.259247	1315.441772	10669.204102	4929.625488	38.638821
383.621613	1316.544556	10660.161133	4935.690430	38.733891
383.983948	1316.765015	10687.950195	4944.842773	38.715248
384.346283	1317.647217	10738.124023	4966.235840	38.730404
384.708588	1315.772705	10823.144531	4994.245605	38.690742
385.070831	1320.073242	10899.012695	5029.753906	38.727467
385.433075	1315.662354	10992.963867	5071.436523	38.810139
385.795258	1316.765015	11075.448242	5101.320801	38.781414
386.157440	1312.133667	11151.536133	5132.196777	38.824135
386.519531	1312.795288	11244.496094	5161.419434	38.750904
386.881622	1310.810303	11316.504883	5189.207520	38.761898
387.243683	1310.700073	11391.710938	5214.239746	38.721706
387.605713	1307.391724	11473.091797	5243.461914	38.719128
387.967682	1309.817749	11555.907227	5279.520996	38.743591
388.329651	1307.832886	11652.283203	5310.507324	38.693932
388.691559	1308.053345	11748.441406	5351.749023	38.731281
389.053467	1303.752686	11868.749023	5396.519531	38.738934
389.415314	1301.326782	11987.513672	5447.135254	38.795959
389.777130	1303.752808	12107.820313	5496.868164	38.810524
390.138885	1299.782959	12230.442383	5539.543457	38.787785
390.500641	1300.665039	12323.181641	5566.670410	38.702644
390.862366	1296.584961	12410.408203	5605.816895	38.773624
391.224060	1296.364502	12484.620117	5639.450195	38.818256
391.585693	1297.246704	12571.514648	5671.980957	38.802826
391.947296	1298.569946	12659.623047	5705.173340	38.786930
392.308868	1304.524658	12724.023438	5735.167480	38.798923
392.670441	1304.304077	12789.525391	5753.692871	38.740120
393.031952	1307.171265	12819.077148	5764.720215	38.721207
393.393433	1306.399414	12846.205078	5766.043457	38.645748
393.754883	1308.494507	12861.644531	5770.785156	38.624016
394.116302	1307.502075	12850.395508	5778.394043	38.732853
394.477692	1311.141113	12853.373047	5779.386230	38.712139
394.839020	1310.589722	12852.491211	5783.686523	38.755283
395.200348	1310.589722	12851.718750	5781.040527	38.734951
395.561646	1308.825317	12834.958008	5778.172852	38.775780
395.922882	1312.574585	12799.230469	5763.286621	38.746803
396.284088	1313.787476	12739.682617	5739.357910	38.732811
396.645264	1316.103271	12662.161133	5708.040039	38.708920
397.006409	1316.985474	12567.545898	5670.988281	38.700321
397.367523	1312.905396	12464.992188	5623.901855	38.656410
397.728577	1317.426514	12368.834961	5578.249023	38.554565
398.089600	1319.080688	12297.267578	5553.217285	38.568634
398.450592	1319.631958	12241.248047	5519.363281	38.453388
398.811584	1319.631958	12182.804688	5489.920898	38.389236
399.172546	1317.536865	12098.225586	5450.994629	38.341316
399.533447	1316.323853	12017.835938	5416.920410	38.317921
399.894318	1310.479492	11962.148438	5384.169434	38.244617
400.255127	1308.935791	11911.533203	5371.046875	38.312412
400.615936	1307.502197	11882.752930	5357.924805	38.300961
400.976685	1307.171387	11886.833008	5362.446289	38.330856
401.337433	1305.517212	11916.826172	5377.663086	38.375530
401.698151	1304.745483	11971.852539	5402.805664	38.417725
402.058807	1301.657715	12056.542969	5438.864746	38.468166
402.419434	1299.672729	12151.487305	5471.946289	38.447704
402.780060	1297.467285	12260.105469	5520.466309	38.521740
403.140594	1296.364624	12359.020508	5560.054199	38.541283
403.501129	1292.394775	12453.856445	5607.361328	38.659512
403.861633	1291.181763	12540.641602	5645.074219	38.703125
404.222076	1289.196777	12626.102539	5673.855469	38.675972
404.582550	1287.983765	12698.000000	5700.321289	38.670734
404.942932	1289.307007	12768.574219	5729.322754	38.678562
405.303284	1293.607666	12843.891602	5756.560059	38.639328
405.663605	1292.174316	12899.579102	5775.196289	38.622089
406.023895	1293.056396	12936.077148	5796.588379	38.680103
406.384125	1290.409912	12989.669922	5816.658691	38.688335
406.744354	1290.850952	13056.826172	5854.481934	38.786674
407.104553	1291.291992	13123.429688	5879.624023	38.778557
407.464691	1296.364624	13183.198242	5908.846191	38.803280
407.824829	1296.916016	13253.110352	5936.635254	38.805988
408.184906	1296.805664	13333.279297	5973.135254	38.851326
408.544922	1298.129028	13397.016602	5995.851563	38.827724
408.904938	1299.562500	13444.985352	6005.996582	38.750683
409.264923	1300.224121	13466.709961	6001.585449	38.641899
409.624847	1298.239258	13452.485352	5991.771484	38.616398
409.984802	1301.437256	13428.113281	5982.949219	38.605072
410.344666	1303.091187	13393.708008	5958.469238	38.504055
410.704529	1305.076050	13355.223633	5937.186523	38.440281
411.064331	1307.612305	13323.023438	5918.660645	38.376118
411.424133	1306.399414	13317.508789	5909.397461	38.322838
411.783875	1306.509644	13312.107422	5912.264648	38.363396
412.143555	1310.369263	13321.479492	5915.352539	38.339363
412.503235	1308.274048	13338.792969	5929.136719	38.409508
412.862885	1304.635010	13348.716797	5944.023438	38.520069
413.222473	1305.406860	13404.625000	5967.621582	38.533192
413.582062	1303.642578	13483.800781	5990.779297	38.481739
413.941559	1302.870605	13553.383789	6021.545898	38.518185
414.301086	1304.855591	13638.513672	6034.226563	38.345242
414.660522	1306.399414	13709.198242	6061.904785	38.342194
415.019958	1303.863037	13795.209961	6095.648926	38.360844
415.379364	1302.429688	13906.364258	6131.377441	38.313019
415.738708	1300.555054	14027.223633	6169.310547	38.256321
416.098053	1300.996216	14169.366211	6232.717773	38.324368
416.457336	1300.996094	14353.409180	6299.763184	38.297646
416.816559	1302.870728	14553.443359	6375.741211	38.284161
417.175812	1306.840454	14794.830078	6467.267090	38.259422
417.535004	1302.319336	15084.958008	6569.930664	38.219177
417.894135	1306.289063	15413.351563	6698.398926	38.222767
418.253265	1303.091187	15806.914063	6846.714355	38.221806
418.612335	1300.775513	16211.945313	7004.625000	38.252193
418.971405	1302.870728	16630.541016	7169.151855	38.272491
419.330414	1304.304077	17066.005859	7336.766602	38.272911
419.689423	1303.642334	17500.701172	7505.704102	38.291283
420.048370	1306.178711	17901.873047	7658.320801	38.275841
420.407257	1306.619751	18312.748047	7811.158691	38.248203
420.766144	1307.281372	18696.716797	7961.791504	38.267548
421.125000	1310.479370	19089.509766	8111.541016	38.253273
421.483795	1311.692383	19479.652344	8257.211914	38.229492
421.842560	1309.817749	19892.181641	8427.363281	38.302692
422.201324	1305.627563	20295.669922	8579.428711	38.303238
422.560028	1306.730225	20666.406250	8718.041016	38.282204
422.918671	1310.259033	21005.935547	8852.242188	38.292583
423.277283	1307.281494	21295.291016	8965.493164	38.314030
423.635925	1306.950806	21519.697266	9050.512695	38.310291
423.994476	1306.178833	21684.664063	9120.645508	38.346653
424.353027	1301.437134	21815.447266	9179.971680	38.405628
424.711487	1299.562500	21918.664063	9214.266602	38.385300
425.069946	1303.422119	21966.853516	9228.491211	38.353115
425.428375	1300.003662	21932.335938	9219.558594	38.384197
425.786743	1302.980957	21839.044922	9180.192383	38.357941
426.145081	1302.650146	21688.634766	9116.785156	38.330917
426.503418	1303.201538	21511.423828	9043.564453	38.303036
426.861725	1303.642578	21295.402344	8951.708008	38.256088
427.219971	1305.958252	21063.716797	8857.424805	38.220261
427.578186	1305.737671	20870.742188	8782.660156	38.215797
427.936371	1306.509521	20683.941406	8703.594727	38.173714
428.294495	1304.524658	20465.931641	8618.794922	38.171886
428.652618	1305.406982	20213.738281	8524.512695	38.179493
429.010712	1308.604858	19949.083984	8428.023438	38.193325
429.368744	1307.502197	19655.095703	8323.816406	38.241062
429.726746	1309.266479	19377.318359	8216.520508	38.229099
430.084717	1308.163818	19099.431641	8107.351074	38.216431
430.442688	1307.060913	18835.882813	7994.761719	38.152596
430.800568	1309.376709	18608.390625	7908.418945	38.146927
431.158417	1306.840454	18434.820313	7839.609375	38.140919
431.516235	1306.068604	18281.431641	7780.723145	38.141476
431.874023	1311.692505	18144.582031	7721.947754	38.081730
432.231812	1313.567261	18015.671875	7675.964355	38.093384
432.589508	1312.574707	17917.308594	7642.111816	38.118870
432.947205	1313.015869	17823.136719	7606.162109	38.116901
433.304840	1313.015747	17743.410156	7580.799805	38.147495
433.662476	1316.213623	17696.322266	7559.295898	38.113800
434.020050	1314.890381	17657.066406	7534.043945	38.055847
434.377594	1312.795166	17623.541016	7517.061035	38.037903
434.735138	1308.825195	17599.613281	7512.319824	38.079769
435.092621	1308.935669	17586.931641	7500.410645	38.035854
435.450043	1307.612305	17582.742188	7501.292969	38.056107
435.807465	1309.707520	17606.451172	7508.792480	38.038795
436.164856	1308.053345	17642.402344	7519.047852	38.024136
436.522156	1303.973267	17711.433594	7536.360352	37.985081
436.879486	1305.737671	17791.822266	7560.178711	37.937698
437.236755	1306.840454	17887.759766	7589.290039	37.889633
437.593994	1306.730225	17994.613281	7625.349609	37.863514
437.951172	1304.635010	18134.107422	7675.303711	37.854240
438.308380	1308.053467	18255.406250	7717.979004	37.822578
438.665497	1306.840454	18378.800781	7760.543945	37.802944
439.022583	1309.266602	18541.562500	7813.474609	37.744289
439.379608	1306.399414	18692.748047	7870.595215	37.754887
439.736633	1303.973389	18803.460938	7914.374023	37.774822
440.093628	1303.311646	18901.603516	7945.580566	37.743832
440.450562	1302.098633	18996.988281	7972.267090	37.695450
440.807495	1300.003540	19074.402344	8000.606934	37.698059
441.164368	1297.687866	19164.937500	8030.380859	37.681751
441.521210	1294.820679	19226.908203	8062.359375	37.739826
441.878021	1295.813232	19294.947266	8105.035156	37.830830
442.234833	1294.820801	19409.521484	8141.866211	37.798279
442.591522	1293.056274	19506.119141	8161.825195	37.713421
442.948242	1294.379517	19605.806641	8193.252930	37.675236
443.304901	1289.748169	19723.906250	8232.069336	37.660095
443.661530	1290.961060	19876.414063	8288.638672	37.651371
444.018127	1295.372070	20038.294922	8344.437500	37.609215
444.374664	1293.717773	20193.007813	8397.588867	37.588032
444.731201	1294.710327	20324.121094	8440.926758	37.553535
445.087738	1294.159058	20459.091797	8484.151367	37.516396
445.444183	1294.048950	20529.777344	8522.305664	37.577244
445.800598	1288.535278	20607.960938	8543.808594	37.554291
446.156982	1294.710449	20632.111328	8550.646484	37.522812
446.513336	1294.379639	20623.511719	8542.486328	37.498352
446.869598	1296.143921	20639.279297	8540.060547	37.449547
447.225891	1296.254272	20655.710938	8548.221680	37.459560
447.582153	1298.569946	20644.904297	8549.103516	37.477558
447.938354	1298.900757	20658.910156	8553.293945	37.471020
448.294495	1300.113892	20673.464844	8548.883789	37.416191
448.650665	1300.775269	20647.441406	8543.259766	37.435310
449.006775	1304.304199	20650.308594	8536.753906	37.384720
449.362823	1304.634888	20653.947266	8527.600586	37.329315
449.718842	1306.068604	20646.886719	8522.748047	37.313206
450.074860	1303.201416	20633.435547	8531.570313	37.394112
450.430817	1299.121338	20615.460938	8531.018555	37.439274
450.786713	1303.091187	20522.720703	8496.060547	37.425121
451.142578	1302.429443	20414.103516	8451.070313	37.404575
451.498444	1299.672852	20259.611328	8392.845703	37.411373
451.854248	1298.790649	20091.447266	8326.242188	37.394669
452.210022	1296.364624	19887.664063	8259.526367	37.453873
452.565765	1297.687866	19641.093750	8172.301270	37.477299
452.921478	1298.790527	19413.382813	8076.365234	37.415001
453.277191	1300.665039	19194.601563	7999.395020	37.435753
453.632813	1293.717896	19016.619141	7926.284180	37.423706
453.988434	1291.953491	18836.214844	7859.569824	37.434555
454.343964	1291.512451	18654.484375	7796.934570	37.467213
454.699524	1291.512451	18502.417969	7730.660156	37.413181
455.054993	1289.858398	18362.921875	7688.205566	37.476273
455.410400	1292.946045	18256.728516	7649.940430	37.473919
455.765839	1292.505005	18209.533203	7627.003906	37.444515
456.121216	1291.843384	18214.494141	7630.421875	37.456181
456.476593	1290.850952	18258.162109	7649.829590	37.477821
456.831909	1292.505005	18381.447266	7692.725586	37.452412
457.187195	1290.299438	18541.011719	7749.736816	37.444466
457.542450	1292.725586	18748.433594	7817.223145	37.377445
457.897644	1294.049072	18936.558594	7886.474609	37.366711
458.252808	1294.710571	19188.201172	7980.868164	37.366425
458.607971	1291.733398	19381.619141	8052.324219	37.372211
458.963013	1290.079224	19505.677734	8095.661621	37.361290
459.318085	1288.755859	19596.982422	8127.531250	37.353565
459.673096	1285.116821	19666.013672	8149.583984	37.345661
460.028076	1286.440063	19745.630859	8182.775879	37.359901
460.383057	1284.786133	19806.941406	8207.808594	37.376980
460.737976	1287.983887	19834.839844	8218.395508	37.367043
461.092865	1292.725586	19855.791016	8227.105469	37.355789
461.447723	1296.916016	19856.453125	8236.920898	37.393200
461.802551	1298.239258	19856.453125	8223.027344	37.313869
462.157288	1297.467407	19858.546875	8224.681641	37.321182
462.512054	1300.224121	19875.419922	8215.087891	37.226330
462.866760	1298.349487	19855.460938	8206.486328	37.226357
463.221405	1300.224121	19807.162109	8190.275879	37.229561
463.576019	1303.091187	19712.216797	8144.623535	37.163811
463.930603	1302.539917	19614.736328	8101.176270	37.126274
464.285156	1299.121338	19475.904297	8041.187500	37.091637
464.639709	1298.128906	19264.953125	7963.886719	37.100368
464.994171	1297.908203	19023.126953	7867.618164	37.064198
465.348633	1296.584961	18747.886719	7763.190430	37.055149
465.703033	1295.923462	18464.816406	7653.138184	37.027519
466.057434	1298.790649	18214.716797	7558.745605	37.006283
466.411774	1299.562622	18037.949219	7490.156250	36.984409
466.766083	1301.106445	17885.222656	7432.924316	36.974037
467.120331	1305.737793	17779.470703	7384.403320	36.899139
467.474548	1301.106445	17689.046875	7339.302246	36.845360
467.828735	1303.752930	17619.908203	7310.079590	36.812145
468.182922	1304.083740	17569.181641	7282.953125	36.758888
468.537048	1303.752808	17523.308594	7261.670410	36.732925
468.891144	1301.878296	17492.320313	7234.102051	36.640282
469.245178	1301.878174	17462.218750	7233.881836	36.707172
469.599213	1302.539917	17443.248047	7218.553711	36.652752
469.953186	1298.680298	17429.464844	7215.245605	36.678722
470.307129	1296.805664	17448.871094	7211.606445	36.619469
470.661041	1296.364624	17470.375000	7223.295410	36.644779
471.014923	1294.159180	17540.398438	7253.400391	36.680744
471.368713	1291.402344	17554.513672	7257.480469	36.684727
471.722504	1291.733154	17527.056641	7253.069824	36.718315
472.076294	1294.159180	17506.875000	7234.874023	36.642319
472.429993	1294.820679	17450.636719	7218.443359	36.665573
472.783722	1298.680298	17445.673828	7208.298340	36.598877
473.137329	1298.900757	17468.169922	7204.329590	36.522545
473.490967	1297.136353	17501.912109	7213.923340	36.512615
473.844543	1299.893188	17586.824219	7240.278320	36.473324
474.198090	1304.304077	17671.072266	7275.675781	36.484730
474.551605	1302.319214	17800.201172	7321.770020	36.486202
474.905060	1308.384155	17940.027344	7376.354980	36.484493
475.258484	1308.935547	18086.910156	7430.057129	36.483078
475.611877	1306.178711	18251.660156	7490.155273	36.493366
475.965240	1308.273926	18447.281250	7560.397949	36.478916
476.318573	1309.266235	18634.302734	7638.251465	36.530861
476.671844	1309.597168	18851.650391	7706.510254	36.466160
477.025116	1311.912964	19080.025391	7789.436035	36.455887
477.378326	1311.582275	19312.589844	7864.531250	36.403236
477.731506	1315.882690	19547.250000	7956.057129	36.421703
478.084656	1316.323975	19827.232422	8050.781250	36.381020
478.437744	1317.867554	20118.792969	8143.079590	36.302532
478.790833	1320.844971	20460.417969	8263.276367	36.272659
479.143890	1321.506836	20876.585938	8403.213867	36.214157
479.496826	1319.191040	21361.125000	8589.794922	36.276958
479.849823	1318.308838	22011.734375	8824.123047	36.271492
480.202728	1315.441650	22825.765625	9110.169922	36.237152
480.555603	1315.110840	23823.623047	9472.195313	36.239998
480.908478	1315.441772	25161.562500	9953.424805	36.223850
481.261292	1316.985596	26807.597656	10588.154297	36.370918
481.614075	1312.574707	28644.851563	11341.315430	36.691929
481.966797	1312.464355	30482.433594	12150.495117	37.154758
482.319489	1309.045898	32214.595703	12868.590820	37.402813
482.672150	1305.296631	33764.917969	13478.729492	37.503311
483.024780	1306.730103	35107.265625	13973.744141	37.475777
483.377350	1302.870605	36224.988281	14380.318359	37.447464
483.729919	1298.018677	37244.351563	14754.363281	37.434544
484.082428	1299.011108	38192.691406	15099.076172	37.404957
484.434937	1295.702881	39178.636719	15458.673828	37.386150
484.787384	1295.151489	40234.167969	15848.267578	37.374126
485.139771	1292.725586	41388.390625	16276.125000	37.369125
485.492157	1292.835815	42569.632813	16707.179688	37.343845
485.844482	1293.387207	43648.093750	17116.953125	37.359642
486.196777	1294.710449	44636.695313	17475.558594	37.332966
486.549072	1296.033813	45404.960938	17762.380859	37.331100
486.901276	1296.695313	45975.839844	17956.679688	37.288055
487.253448	1298.239258	46288.355469	18072.908203	37.285229
487.605591	1302.208984	46303.132813	18080.076172	37.283386
487.957703	1299.672607	46083.031250	18017.330078	37.330067
488.309784	1299.562378	45554.933594	17827.880859	37.347599
488.661835	1296.033691	44797.800781	17510.626953	37.273415
489.013855	1298.349365	44004.054688	17114.527344	37.035278
489.365814	1299.231567	43266.445313	16696.261719	36.688236
489.717743	1303.532349	42634.578125	16372.501953	36.459202
490.069611	1305.186401	42050.355469	16108.400391	36.331215
490.421509	1304.965820	41502.742188	15894.250000	36.293758
490.773315	1302.981079	41014.894531	15703.919922	36.263523
491.125092	1306.619995	40491.542969	15508.295898	36.242706
491.476807	1304.524780	39882.945313	15289.294922	36.250240
491.828522	1307.612305	39140.375000	15019.898438	36.244476
492.180176	1309.707520	38236.800781	14690.514648	36.235744
492.531830	1309.156128	37205.195313	14295.297852	36.177090
492.883423	1306.178711	36045.132813	13864.242188	36.149803
493.234985	1304.745239	34956.851563	13463.952148	36.132084
493.586487	1304.965698	33935.281250	13086.267578	36.105385
493.937988	1305.296509	33071.078125	12764.935547	36.075420
494.289429	1307.391846	32372.283203	12506.895508	36.051968
494.640869	1306.950562	31790.261719	12295.173828	36.046688
494.992218	1303.752808	31337.705078	12136.050781	36.066841
495.343567	1308.053345	30892.642578	11950.350586	35.972435
495.694855	1309.266479	30385.390625	11758.916992	35.938938
496.046112	1310.589722	29761.578125	11527.455078	35.910404
496.397339	1310.479492	28948.871094	11237.659180	35.918083
496.748535	1314.008179	28032.728516	10905.077148	35.896439
497.099670	1311.030884	27087.691406	10558.491211	35.875324
497.450806	1309.817871	26246.529297	10237.487305	35.801311
497.801880	1306.840576	25569.789063	9971.399414	35.711071
498.152924	1311.582275	24976.521484	9754.713867	35.677807
498.503937	1313.897827	24514.037109	9576.623047	35.614983
498.854889	1314.449219	24176.052734	9441.870117	35.550529
499.205841	1312.243774	23892.431641	9336.007813	35.534534
499.556702	1311.140991	23686.552734	9248.671875	35.474346
499.907562	1307.943115	23485.634766	9177.215820	35.482830
500.258362	1310.148560	23315.595703	9123.071289	35.504494
500.609161	1309.707520	23158.457031	9044.667969	35.402302
500.959900	1308.494507	22990.400391	8985.451172	35.407204
501.310608	1307.171265	22819.037109	8923.477539	35.405140
501.661255	1307.171265	22611.285156	8844.633789	35.380314
502.011902	1309.266602	22391.291016	8754.981445	35.317837
502.362488	1311.913086	22170.857422	8669.742188	35.274216
502.713043	1309.487061	21960.457031	8607.876953	35.341629
503.063568	1309.817871	21776.964844	8540.390625	35.327702
503.414063	1310.369263	21571.416016	8478.085938	35.376835
503.764496	1309.487061	21409.425781	8422.729492	35.389370
504.114899	1307.722656	21250.632813	8368.697266	35.405937
504.465271	1306.950684	21128.449219	8320.838867	35.385258
504.815613	1310.699951	21029.423828	8291.726563	35.403030
505.165894	1314.559570	20931.613281	8272.980469	35.471283
505.516174	1314.890381	20892.464844	8262.835938	35.489307
505.866394	1313.125977	20881.437500	8269.453125	35.548939
506.216583	1311.802856	20873.714844	8269.232422	35.566204
506.566711	1311.802734	20907.458984	8274.414063	35.531403
506.916840	1310.810303	20949.033203	8292.167969	35.549843
507.266907	1311.251343	21002.847656	8316.208008	35.573330
507.616882	1312.464355	21083.457031	8332.417969	35.506329
507.966858	1310.589966	21133.298828	8353.147461	35.527725
508.316803	1311.251587	21188.214844	8375.863281	35.541706
508.666748	1311.030884	21251.291016	8386.118164	35.481419
509.016632	1309.707642	21313.376953	8406.959961	35.479752
509.366486	1309.046021	21402.917969	8432.213867	35.449455
509.716309	1306.840454	21490.474609	8460.664063	35.443684
510.066040	1308.715088	21588.066406	8480.182617	35.363400
510.415771	1308.935669	21689.849609	8510.176758	35.333260
510.765503	1303.863037	21797.253906	8540.722656	35.313137
511.115173	1302.870483	21897.271484	8566.195313	35.268444
511.464752	1302.650024	21996.625000	8597.402344	35.250610
511.814270	1304.965820	22078.666016	8632.248047	35.271919
512.163818	1302.980835	22163.134766	8656.177734	35.249962
512.513306	1300.444580	22225.990234	8676.687500	35.249947
512.862793	1297.797974	22280.796875	8693.008789	35.243824
513.212219	1294.931030	22320.494141	8693.449219	35.188206
513.561646	1295.482178	22372.982422	8708.776367	35.171600
513.911011	1294.710449	22402.203125	8725.758789	35.205738
514.260315	1298.128906	22437.380859	8733.257813	35.172146
514.609558	1299.893188	22506.414063	8741.638672	35.091778
514.958801	1300.665283	22600.585938	8768.986328	35.062672
515.308044	1304.193970	22745.705078	8820.814453	35.056393
515.657227	1303.311890	22949.488281	8877.825195	34.992386
516.006348	1307.171387	23197.712891	8955.236328	34.937759
516.355408	1308.935669	23468.322266	9052.717773	34.945831
516.704529	1306.950684	23702.210938	9140.054688	34.976616
517.053467	1310.810181	23927.384766	9207.429688	34.915188
517.402466	1309.817627	24100.404297	9266.536133	34.912304
517.751404	1310.589600	24227.660156	9315.716797	34.930847
518.100281	1315.882813	24354.253906	9349.020508	34.868515
518.449219	1316.764893	24445.224609	9376.588867	34.848080
518.798035	1314.228638	24541.933594	9407.684570	34.843975
519.146851	1311.471924	24637.761719	9422.239258	34.770931
519.495544	1311.582275	24703.267578	9445.618164	34.773193
519.844299	1311.582031	24792.478516	9467.562500	34.734535
520.192932	1310.589600	24892.824219	9496.564453	34.712463
520.541626	1311.912964	24987.878906	9524.242188	34.686352
520.890198	1313.236084	25089.660156	9556.882813	34.671516
521.238770	1315.993042	25211.404297	9581.033203	34.588398
521.587280	1313.897827	25350.234375	9620.070313	34.556736
521.935791	1315.000488	25468.556641	9657.451172	34.539223
522.284180	1312.905273	25587.652344	9698.252930	34.543503
522.632629	1310.810181	25735.308594	9743.905273	34.527199
522.981018	1313.346436	25881.085938	9799.592773	34.542233
523.329346	1309.376709	26049.583984	9871.048828	34.606308
523.677551	1312.795288	26239.253906	9931.148438	34.575123
524.025818	1310.810303	26502.146484	10015.065430	34.552574
524.374023	1305.848267	26813.333984	10121.809570	34.562248
524.722229	1304.304443	27208.441406	10257.776367	34.563869
525.070374	1302.760376	27733.115234	10429.250000	34.530331
525.418457	1301.878174	28432.574219	10674.938477	34.547810
525.766541	1303.532227	29419.845703	11019.209961	34.555305
526.114563	1305.406860	30673.535156	11446.846680	34.532127
526.462585	1304.414429	32059.880859	11967.664063	34.671070
526.810547	1302.319214	33429.792969	12482.968750	34.800896
527.158447	1303.311523	34649.191406	12944.679688	34.910965
527.506348	1306.509521	35670.535156	13308.358398	34.925617
527.854065	1305.406860	36507.835938	13590.876953	34.899494
528.201904	1305.296631	37179.289063	13829.617188	34.911980
528.549622	1304.965820	37700.105469	14010.684570	34.910480
528.897339	1304.965820	38087.820313	14138.710938	34.890564
529.245056	1305.848022	38392.945313	14235.199219	34.862129
529.592712	1304.965942	38621.097656	14320.440430	34.878948
529.940369	1302.209106	38808.785156	14391.564453	34.898830
530.287903	1298.239258	39002.093750	14460.595703	34.909843
530.635437	1300.003662	39242.042969	14526.098633	34.858681
530.982910	1296.254272	39534.929688	14632.952148	34.877510
531.330383	1298.349487	39778.742188	14718.301758	34.874779
531.677795	1296.364624	39893.535156	14764.397461	34.893833
532.025208	1296.805664	39896.734375	14764.287109	34.889912
532.372498	1296.144043	39700.453125	14700.659180	34.903675
532.719788	1294.379639	39259.023438	14552.562500	34.922447
533.067078	1295.261841	38522.738281	14286.364258	34.896542
533.414307	1297.577637	37499.183594	13930.517578	34.896076
533.761536	1299.782959	36364.812500	13500.892578	34.795662
534.108643	1298.790649	35301.566406	13085.385742	34.663624
534.455811	1298.349487	34402.292969	12726.669922	34.522533
534.802856	1298.459717	33658.390625	12458.926758	34.488537
535.149902	1300.996094	33076.042969	12264.626953	34.503902
535.496887	1300.665161	32572.203125	12087.639648	34.494545
535.843811	1298.790527	32153.277344	11948.254883	34.515125
536.190796	1300.113892	31807.683594	11837.210938	34.539284
536.537659	1300.885742	31473.228516	11733.665039	34.577293
536.884460	1301.216553	31187.402344	11620.525391	34.528690
537.231323	1303.973267	30885.589844	11505.289063	34.485321
537.578064	1306.950806	30573.738281	11388.070313	34.445595
537.924805	1308.274048	30209.177734	11265.998047	34.454712
538.271423	1307.502197	29892.691406	11130.473633	34.363850
538.618164	1308.935547	29722.433594	11054.716797	34.299828
538.964783	1312.795288	29751.984375	11064.530273	34.289780
539.311279	1312.354126	29938.345703	11134.554688	34.312172
539.657776	1313.787720	30217.447266	11233.799805	34.320953
540.004333	1312.023193	30474.714844	11320.584961	34.319744
540.350769	1311.030762	30722.937500	11400.753906	34.304893
540.697144	1310.920410	30910.619141	11465.373047	34.305935
541.043518	1307.501953	31016.039063	11491.066406	34.278244
541.389893	1307.832764	30991.449219	11484.670898	34.284359
541.736145	1312.243652	30870.919922	11455.668945	34.316238
542.082458	1311.030762	30728.115234	11395.018555	34.279362
542.428711	1313.677490	30558.958984	11328.303711	34.243561
542.774902	1311.030884	30414.613281	11267.323242	34.209850
543.121033	1314.559570	30309.851563	11220.677734	34.164574
543.467102	1315.772705	30228.580078	11183.406250	34.128937
543.813171	1314.449341	30173.115234	11152.529297	34.090557
544.159180	1314.118530	30124.265625	11142.604492	34.114670
544.505127	1316.103394	30064.390625	11120.108398	34.102917
544.851135	1315.882813	29946.505859	11072.139648	34.076298
545.197021	1314.228760	29733.347656	11007.299805	34.107571
545.542908	1312.574585	29327.765625	10873.539063	34.127789
545.888733	1313.125977	28734.279297	10673.834961	34.136818
546.234558	1312.574585	27955.421875	10401.460938	34.113796
546.580322	1314.449219	27086.472656	10082.333008	34.020935
546.926025	1314.449219	26190.398438	9752.066406	33.918774
547.271667	1315.331421	25366.664063	9459.844727	33.863045
547.617371	1312.464233	24569.062500	9199.379883	33.912594
547.962952	1309.376709	23836.634766	8946.415039	33.901321
548.308533	1316.875244	23176.984375	8727.745117	33.901340
548.654053	1318.749878	22597.058594	8520.652344	33.846218
548.999573	1316.985596	22105.242188	8332.196289	33.746029
549.344971	1317.426514	21676.394531	8184.100586	33.728004
549.690430	1313.456787	21303.451172	8049.347656	33.696312
550.035767	1313.897827	20995.458984	7943.044434	33.682018
550.381104	1314.338867	20720.439453	7847.769531	33.666889
550.726440	1308.715088	20440.898438	7753.044434	33.683186
551.071655	1308.053345	20193.007813	7671.002441	33.693218
551.416931	1305.737671	19905.525391	7562.383789	33.638268
551.762085	1305.958130	19601.064453	7452.772949	33.598141
552.107178	1303.752686	19293.402344	7343.823730	33.575256
552.452332	1302.539795	18985.742188	7228.147949	33.509815
552.797424	1304.304077	18713.041016	7136.511719	33.501614
553.142395	1299.011108	18451.914063	7054.468750	33.553841
553.487366	1300.113770	18255.408203	6984.996094	33.528656
553.832336	1301.106323	18065.296875	6924.566406	33.544476
554.177185	1299.782959	17916.652344	6882.552734	33.597000
554.522095	1301.326782	17807.810547	6838.002930	33.542431
554.866943	1304.745361	17704.042969	6794.334961	33.474545
555.211731	1306.068604	17624.757813	6769.633789	33.480419
555.556396	1300.885742	17547.566406	6735.779785	33.452335
555.901123	1302.760376	17476.771484	6709.535156	33.428783
556.245789	1303.201538	17389.656250	6695.420898	33.520245
556.590454	1305.406860	17291.294922	6660.575195	33.499352
556.934998	1303.642700	17206.494141	6627.603516	33.478027
557.279541	1307.722656	17093.353516	6583.273926	33.419960
557.624023	1306.620117	16953.750000	6536.627930	33.424709
557.968567	1311.361694	16822.525391	6489.982910	33.386414
558.312988	1313.567017	16687.994141	6446.866211	33.388557
558.657349	1316.213745	16581.359375	6416.872070	33.413754
559.001770	1315.000732	16496.228516	6389.634766	33.427032
559.346069	1317.757568	16420.470703	6363.168945	33.407318
559.690308	1318.970459	16366.767578	6344.532715	33.397331
560.034485	1318.529541	16310.417969	6321.596680	33.371830
560.378723	1321.727173	16279.982422	6301.526855	33.291317
560.722900	1318.970459	16237.306641	6280.575195	33.258430
561.067017	1315.662354	16214.701172	6267.231934	33.234154
561.411072	1315.110962	16186.361328	6252.455566	33.200603
561.755127	1317.206055	16158.242188	6241.869629	33.182747
562.099182	1316.213745	16149.860352	6241.429199	33.202999
562.443115	1316.103394	16154.382813	6241.649414	33.194859
562.787048	1318.198486	16166.845703	6246.392090	33.189510
563.130920	1317.536865	16204.117188	6263.704102	33.225677
563.474792	1314.559570	16275.242188	6274.731445	33.154716
563.818604	1309.817749	16366.658203	6308.033691	33.195648
564.162354	1314.890259	16455.423828	6334.829590	33.155632
564.506042	1312.133545	16567.021484	6370.447754	33.158649
564.849731	1311.582153	16664.722656	6398.457031	33.132473
565.193420	1309.376709	16735.189453	6418.085449	33.117924
565.537048	1304.304077	16789.001953	6435.949219	33.140102
565.880615	1304.965820	16818.666016	6442.345215	33.115112
566.224121	1303.201416	16827.597656	6452.160156	33.166885
566.567627	1303.642578	16828.146484	6458.555664	33.205009
566.911072	1306.509766	16823.736328	6459.326660	33.207073
567.254517	1305.848022	16856.265625	6471.677246	33.219872
567.597839	1307.612305	16881.408203	6470.244141	33.149475
567.941223	1305.847900	16914.271484	6479.176270	33.144463
568.284485	1305.186401	16938.753906	6493.291016	33.185673
568.627808	1306.289063	17000.615234	6512.589355	33.173138
568.970947	1304.855591	17070.197266	6532.989746	33.162201
569.314148	1310.589600	17146.837891	6558.903320	33.141144
569.657288	1314.449341	17232.078125	6575.995605	33.054836
570.000366	1315.772461	17313.900391	6605.879395	33.067036
570.343445	1316.213745	17378.958984	6621.428711	33.028072
570.686462	1319.301392	17399.359375	6637.968750	33.076172
571.029419	1319.521851	17410.937500	6632.014160	33.014446
571.372314	1314.559570	17389.546875	6630.471191	33.069462
571.715210	1314.780029	17336.173828	6615.914551	33.087852
572.058105	1315.441650	17284.566406	6603.785156	33.116051
572.400879	1318.308716	17266.921875	6596.286621	33.093647
572.743713	1316.985474	17250.712891	6587.022949	33.074730
573.086426	1315.882813	17256.779297	6598.711914	33.140099
573.429077	1315.993042	17280.599609	6602.902344	33.116440
573.771790	1313.456787	17288.978516	6607.644531	33.139374
574.114441	1308.825317	17280.158203	6603.122559	33.148750
574.457031	1309.376709	17246.634766	6596.727051	33.176037
574.799561	1306.399414	17192.378906	6590.110352	33.260216
575.142029	1312.684937	17144.080078	6566.843750	33.188221
575.484436	1316.103271	17057.294922	6542.583496	33.202572
575.826904	1311.471802	16940.076172	6506.854980	33.242783
576.169250	1314.890381	16794.847656	6459.327148	33.232887
576.511597	1309.266357	16627.013672	6399.448730	33.230621
576.853943	1303.863037	16422.126953	6337.366211	33.294186
577.196167	1302.980835	16207.315430	6257.528320	33.242325
577.538391	1300.885742	15981.145508	6184.417480	33.265976
577.880554	1295.923462	15774.605469	6105.903809	33.221123
578.222717	1297.798096	15546.340820	6038.967773	33.274769
578.564819	1298.459717	15335.276367	5971.150879	33.288826
578.906860	1297.798096	15149.357422	5904.876465	33.260357
579.248901	1294.489990	14957.482422	5838.933594	33.260967
579.590942	1292.505005	14756.014648	5776.959961	33.308216
579.932861	1296.474854	14573.073242	5711.458496	33.253876
580.274780	1295.813232	14376.127930	5630.849121	33.141682
580.616638	1297.577515	14177.304688	5554.650879	33.052509
580.958496	1300.665161	13971.095703	5487.825684	33.046711
581.300232	1301.988525	13802.267578	5429.491699	33.019287
581.641968	1302.760376	13638.404297	5369.833984	32.970097
581.983704	1300.885620	13495.599609	5318.447266	32.945107
582.325317	1296.915771	13360.736328	5271.691406	32.947903
582.666992	1296.474731	13243.408203	5219.533203	32.837368
583.008606	1298.018555	13132.584961	5179.834961	32.800663
583.350098	1295.482300	13037.419922	5148.407227	32.813366
583.691589	1294.710449	12956.919922	5120.066895	32.801304
584.033081	1295.813232	12896.602539	5094.704102	32.746830
584.374512	1293.276978	12835.179688	5072.429199	32.742889
584.715881	1293.607666	12787.429688	5046.956543	32.655357
585.057190	1291.512451	12741.335938	5029.863770	32.649860
585.398499	1289.086548	12694.800781	5012.661621	32.646576
585.739807	1291.071655	12657.087891	5000.311523	32.634476
586.081055	1291.622803	12628.416992	4985.975586	32.587280
586.422180	1291.622803	12602.281250	4981.675293	32.624561
586.763367	1289.637939	12593.017578	4980.902832	32.656292
587.104431	1289.196777	12593.017578	4984.321289	32.689167
587.445496	1290.189331	12597.098633	4992.040527	32.739727
587.786499	1287.211914	12592.797852	4998.876953	32.830364
588.127502	1283.021484	12621.468750	5001.302734	32.793568
588.468445	1284.234619	12627.754883	5000.861816	32.764320
588.809326	1284.124390	12634.040039	5011.006836	32.836212
589.150208	1287.322266	12639.332031	5008.911621	32.783527
589.491028	1290.740723	12626.099609	5008.029785	32.793747
589.831848	1290.299683	12624.998047	5018.064453	32.888081
590.172546	1291.291992	12613.971680	5016.410645	32.899620
590.513245	1289.307251	12605.810547	5015.418457	32.926350
590.853943	1289.307251	12610.994141	5012.771973	32.887897
591.194458	1290.189331	12623.235352	5005.604004	32.783901
591.535095	1288.645508	12624.227539	5011.337891	32.840771
591.875610	1289.527588	12644.406250	5020.160156	32.854885
592.216125	1291.622803	12648.376953	5027.327148	32.894119
592.556580	1291.071411	12667.343750	5028.540527	32.853199
592.897034	1287.763184	12700.867188	5032.730469	32.812874
593.237366	1287.652954	12718.510742	5041.001465	32.835232
593.577698	1288.535156	12771.110352	5052.249023	32.777611
593.918030	1289.307007	12819.409180	5066.805176	32.762051
594.258301	1292.284302	12873.332031	5082.133301	32.724579
594.598511	1292.063843	12952.838867	5107.826172	32.723057
594.938721	1294.379639	13037.417969	5134.732910	32.703236
595.278809	1299.231567	13118.026367	5159.654297	32.663422
595.618958	1298.790527	13172.391602	5183.032227	32.713257
595.958984	1299.011108	13228.298828	5185.348145	32.578114
596.299011	1302.098633	13252.007813	5196.264648	32.587410
596.638977	1299.011108	13278.141602	5202.770996	32.588005
596.978943	1297.908447	13289.832031	5191.854004	32.471401
597.318848	1300.665161	13285.533203	5185.788574	32.416908
597.658630	1300.113770	13271.526367	5184.796387	32.449661
597.998474	1298.128662	13238.885742	5175.423340	32.471096
598.338257	1297.356934	13184.189453	5166.491211	32.549751
598.677979	1298.680298	13151.439453	5154.030273	32.527027
599.017700	1297.026245	13096.192383	5136.827637	32.542988
599.357361	1300.444580	13052.415039	5120.066895	32.501972
599.696960	1305.737671	13013.156250	5106.393066	32.463650
600.036560	1307.171265	12965.298828	5097.681152	32.513882
600.376038	1303.973389	12926.591797	5087.315430	32.551548
600.715576	1303.422119	12884.029297	5070.774414	32.531559
601.055054	1302.870850	12840.801758	5059.747559	32.561096
601.394409	1301.878174	12806.395508	5051.808594	32.595287
601.733826	1303.752930	12760.414063	5035.928711	32.576469
602.073120	1301.878296	12756.113281	5033.392578	32.577595
602.412415	1297.577515	12743.873047	5027.437988	32.585743
602.751587	1296.915894	12771.220703	5032.951172	32.560013
603.090820	1298.459839	12801.544922	5053.682617	32.645351
603.429993	1293.166748	12848.080078	5074.083496	32.721291
603.769104	1292.063965	12883.807617	5097.129395	32.825649
604.108154	1293.828369	12909.392578	5116.096680	32.906437
604.447205	1296.144165	12946.553711	5132.196289	32.926331
604.786194	1298.349487	12976.877930	5136.828125	32.867828
605.125183	1302.319336	13007.534180	5142.341797	32.806084
605.464111	1300.665039	13028.486328	5156.787109	32.880123
605.802979	1299.562378	13050.870117	5160.977539	32.859451
606.141846	1300.113770	13074.911133	5172.225098	32.884739
606.480652	1297.908325	13114.829102	5181.268066	32.862705
606.819336	1295.702881	13167.648438	5207.071777	32.946320
607.158020	1295.261719	13228.960938	5225.487305	32.933842
607.496765	1300.003296	13292.807617	5245.777344	32.901176
607.835388	1301.216431	13331.182617	5256.473633	32.878376
608.173950	1305.076050	13348.386719	5254.268066	32.791580
608.512512	1303.201416	13325.559570	5245.005371	32.787277
608.851013	1301.216431	13280.789063	5227.141602	32.771832
609.189514	1304.965820	13184.080078	5194.941406	32.746346
609.527893	1305.186279	13073.698242	5159.985352	32.755196
609.866333	1304.414673	12945.449219	5109.590332	32.687611
610.204712	1303.091309	12806.505859	5057.982910	32.641541
610.542969	1304.304321	12678.920898	5010.675781	32.584587
610.881226	1305.627563	12564.238281	4961.494141	32.471741
611.219482	1303.532349	12470.395508	4928.412598	32.461044
611.557678	1301.547363	12383.722656	4898.528809	32.457359
611.895813	1299.011108	12310.279297	4864.895508	32.383957
612.233948	1298.018555	12237.611328	4845.597656	32.428802
612.571960	1302.098633	12167.256836	4819.794434	32.375927
612.910034	1306.619873	12098.998047	4805.789551	32.422600
613.247986	1306.730103	12027.210938	4779.986328	32.398327
613.585938	1308.935547	11942.411133	4753.189453	32.390671
613.923828	1305.737671	11822.654297	4711.286133	32.381622
614.261658	1308.715088	11693.414063	4659.898926	32.270397
614.599487	1306.730103	11548.295898	4612.922852	32.282104
614.937317	1307.943115	11424.239258	4568.041992	32.226212
615.275024	1307.612305	11309.556641	4532.313477	32.240742
615.612732	1306.399414	11213.178711	4495.703125	32.193146
615.950378	1305.627441	11119.227539	4466.260254	32.206661
616.288025	1302.429443	11032.443359	4435.384277	32.198875
616.625549	1303.421997	10971.901367	4415.424805	32.187099
616.963074	1304.414307	10919.523438	4402.854004	32.224697
617.300537	1305.517212	10871.445313	4393.921387	32.285465
617.638000	1305.296631	10823.035156	4380.137207	32.306419
617.975464	1309.266357	10790.614258	4371.646484	32.298996
618.312744	1310.369141	10753.563477	4359.406250	32.288197
618.650024	1309.486938	10720.259766	4345.071289	32.256485
618.987305	1308.274048	10683.428711	4336.139160	32.296700
619.324585	1305.958374	10658.507813	4319.928711	32.226189
619.661743	1302.429565	10644.723633	4311.989258	32.214352
619.998901	1299.783081	10616.824219	4299.858887	32.199875
620.336060	1298.018799	10589.255859	4288.060059	32.181305
620.673096	1295.151611	10567.752930	4276.591309	32.153217
621.010193	1298.459717	10548.125000	4273.283203	32.161419
621.347168	1296.254272	10527.833984	4269.975098	32.212479
621.684082	1297.908447	10493.208984	4257.955566	32.190868
622.020996	1297.356934	10457.591797	4249.905273	32.232235
622.357849	1298.128906	10433.993164	4237.113770	32.169750
622.694641	1299.562500	10412.929688	4227.961426	32.133007
623.031433	1303.863037	10391.095703	4223.550781	32.129559
623.368164	1305.296631	10386.905273	4221.675781	32.113026
623.704895	1306.619873	10376.759766	4223.219727	32.156063
624.041504	1307.832886	10383.927734	4225.424805	32.145893
624.378174	1305.737671	10402.343750	4228.181641	32.126747
624.714783	1311.692505	10445.901367	4238.657715	32.043995
625.051331	1308.715210	10478.101563	4245.384766	32.026890
625.387756	1309.156250	10514.711914	4253.104004	31.980120
625.724304	1309.486938	10534.119141	4265.454590	32.044289
626.060669	1310.589600	10552.314453	4277.583984	32.104336
626.397034	1310.369141	10560.364258	4280.893066	32.113789
626.733337	1310.369141	10564.333984	4279.018066	32.079750
627.069641	1307.502075	10570.950195	4276.812012	32.054047
627.405884	1309.486938	10560.474609	4277.473633	32.082920
627.742126	1308.935669	10550.439453	4273.503906	32.078854
628.078308	1308.053467	10538.639648	4266.115723	32.046310
628.414429	1304.524780	10513.057617	4260.712402	32.102695
628.750488	1304.414551	10493.319336	4258.286621	32.146076
629.086548	1301.767944	10460.126953	4253.435059	32.229210
629.422546	1299.121338	10419.546875	4247.479492	32.326981
629.758545	1297.798096	10365.293945	4234.577637	32.387989
630.094421	1294.710571	10318.648438	4209.766602	32.303593
630.430298	1293.497437	10264.283203	4189.696777	32.284786
630.766113	1293.276855	10200.986328	4163.782715	32.224964
631.101929	1292.615479	10124.567383	4140.515137	32.245415
631.437622	1293.166626	10043.185547	4111.292969	32.207092
631.773376	1288.865967	9950.115234	4084.166016	32.273636
632.109070	1292.725586	9856.714844	4055.384766	32.259022
632.444641	1292.946167	9763.423828	4025.721680	32.262352
632.780273	1293.387329	9687.446289	3998.814697	32.230263
633.115784	1294.489990	9618.195313	3971.246582	32.158234
633.451294	1297.246826	9549.165039	3950.956543	32.158703
633.786682	1299.121338	9481.458008	3929.894287	32.151852
634.122131	1302.650146	9403.604492	3906.296143	32.139992
634.457458	1301.106323	9351.556641	3880.271973	32.037533
634.792847	1303.311768	9290.575195	3862.408203	32.039715
635.128113	1303.201538	9227.279297	3838.257813	31.991814
635.463318	1304.414429	9176.002930	3823.922607	32.007622
635.798584	1300.775513	9127.813477	3804.183350	31.984100
636.133728	1301.657715	9074.221680	3779.261963	31.876280
636.468872	1304.965820	9012.358398	3760.294678	31.856802
636.803955	1305.737793	8963.067383	3743.974365	31.841866
637.139038	1303.201416	8913.554688	3726.331055	31.839909
637.473999	1305.406860	8849.266602	3707.915527	31.847208
637.808899	1305.958374	8783.101563	3689.279297	31.874752
638.143799	1307.391846	8715.173828	3668.548340	31.874001
638.478638	1309.156128	8654.302734	3652.338135	31.901094
638.813538	1309.156006	8589.573242	3623.005859	31.781832
639.148315	1305.516968	8517.233398	3601.943848	31.842999
639.483032	1306.509521	8454.048828	3580.330322	31.812639
639.817749	1303.421875	8386.782227	3551.769775	31.741261
640.152405	1302.098633	8323.044922	3531.590088	31.754856
640.487000	1301.547363	8252.250000	3510.638428	31.782270
640.821594	1301.326782	8187.410156	3491.230713	31.801878
641.156128	1299.121338	8138.338379	3472.814697	31.782782
641.490662	1297.687744	8078.791504	3463.000488	31.931568
641.825134	1298.569946	8018.140625	3445.687500	31.953197
642.159546	1298.459717	7977.560059	3431.792725	31.940424
642.493896	1302.760376	7925.291016	3408.856445	31.801985
642.828186	1301.216553	7883.938477	3391.102783	31.748056
643.162537	1299.562622	7849.974609	3378.311279	31.734623
643.496765	1293.718140	7814.246094	3363.313965	31.739697
643.830994	1292.505005	7780.061523	3349.750488	31.710638
644.165100	1293.387329	7751.059570	3346.111328	31.787369
644.499268	1292.615479	7734.409180	3343.906250	31.843472
644.833313	1291.071655	7720.955566	3339.274658	31.854435
645.167358	1288.535278	7705.075684	3334.532715	31.886301
645.501343	1287.652954	7682.139648	3321.520752	31.806583
645.835327	1287.873535	7662.069824	3322.623535	31.921671
646.169189	1289.638062	7648.727539	3318.322998	31.902130
646.503052	1289.417358	7636.818359	3313.470947	31.887911
646.836914	1293.387207	7626.342285	3317.220215	31.957167
647.170654	1295.041260	7611.676270	3314.353027	31.968159
647.504395	1296.584961	7607.376465	3310.162598	31.906895
647.838074	1296.695435	7601.641602	3305.200439	31.856020
648.171753	1299.562500	7598.995605	3301.009766	31.771864
648.505371	1300.665283	7600.097656	3295.496338	31.666838
648.838928	1301.988525	7603.184570	3293.952393	31.612471
649.172424	1304.635010	7610.131836	3289.982910	31.485985
649.505920	1302.870728	7606.382324	3291.305908	31.544880
649.839294	1308.274048	7598.001465	3293.952637	31.570185
650.172729	1310.920532	7596.127441	3297.481445	31.606930
650.506104	1314.890381	7600.207520	3297.260742	31.539701
650.839355	1317.536987	7584.989746	3297.260742	31.587376
651.172668	1318.308838	7565.913086	3292.298340	31.595942
651.505859	1316.875244	7542.977051	3286.012695	31.627134
651.839111	1319.080688	7527.979980	3278.514160	31.558468
652.172241	1321.175903	7515.959961	3266.274170	31.398968
652.505371	1319.521729	7502.616211	3267.266357	31.501129
652.838379	1320.845093	7475.930176	3252.710449	31.386494
653.171387	1319.632202	7461.924805	3247.417725	31.385441
653.504333	1318.088379	7438.988281	3244.991455	31.480715
653.837280	1318.970459	7418.918945	3233.522949	31.386374
654.170227	1319.080811	7399.731934	3229.663574	31.420692
654.503052	1315.662354	7379.772461	3229.332520	31.557310
654.835876	1315.441895	7365.657715	3228.891846	31.626144
655.168579	1312.243896	7348.234375	3223.157715	31.658663
655.501343	1312.574707	7332.906250	3219.187500	31.669565
655.833984	1310.920532	7323.863770	3218.195313	31.719486
656.166626	1312.464233	7319.673340	3219.518555	31.746096
656.499268	1313.456787	7342.720215	3229.333008	31.776289
656.831787	1312.684937	7376.904785	3240.801758	31.794970
657.164307	1311.912964	7422.889160	3254.916260	31.795301
657.496765	1311.140991	7469.424316	3270.354492	31.814281
657.829224	1311.361572	7518.275391	3281.602051	31.742674
658.161621	1315.110718	7566.463379	3297.370850	31.709299
658.493958	1317.095703	7605.831055	3301.892090	31.561136
658.826233	1310.920410	7635.494629	3307.185303	31.563625
659.158508	1310.479370	7661.739746	3319.646240	31.634146
659.490723	1311.140991	7680.155273	3319.535645	31.533838
659.822876	1310.479492	7699.012695	3330.122070	31.613558
660.154968	1306.399414	7700.555664	3330.563232	31.656466
660.487061	1307.943115	7699.343750	3323.946777	31.542440
660.819153	1303.642700	7693.719727	3322.403320	31.592117
661.151123	1305.406982	7679.934570	3311.816895	31.475430
661.483093	1308.935791	7668.576660	3303.436035	31.361839
661.815002	1310.479614	7652.807129	3297.701904	31.332697
662.146851	1312.354126	7623.915039	3292.519287	31.373619
662.478760	1314.008057	7595.354980	3280.058350	31.299822
662.810486	1311.802612	7558.523926	3270.795410	31.360336
663.142212	1309.597168	7505.482910	3261.422363	31.501955
663.473938	1306.730103	7453.654785	3244.660645	31.526831
663.805603	1306.840332	7388.263184	3223.267822	31.512814
664.137207	1307.060913	7295.854980	3194.155762	31.510431
664.468689	1306.730103	7208.187500	3163.389404	31.461029
664.800293	1304.965820	7131.107910	3137.916748	31.460800
665.131775	1304.083496	7048.623535	3104.283447	31.337582
665.463196	1302.539795	6980.255859	3080.354248	31.312141
665.794617	1304.965820	6923.795410	3064.364746	31.312551
666.125916	1309.156250	6865.902344	3046.941650	31.273436
666.457275	1308.715210	6822.564941	3034.811768	31.304745
666.788574	1305.627563	6776.801270	3025.989990	31.444118
667.119812	1306.730225	6747.910645	3014.521484	31.386410
667.450928	1307.612305	6727.731445	3005.810303	31.331377
667.782104	1311.582153	6713.063965	3000.958496	31.276163
668.113159	1308.384155	6691.230469	2999.194092	31.411076
668.444214	1304.414307	6669.286621	2993.019043	31.475210
668.775208	1303.311523	6650.980469	2987.174561	31.487795
669.106201	1304.414307	6636.645996	2981.219727	31.446598
669.437134	1303.311646	6629.367676	2979.896484	31.478918
669.768005	1302.870605	6622.200195	2972.508057	31.388119
670.098877	1300.444702	6610.951660	2965.009766	31.344749
670.429688	1303.201416	6591.874023	2954.974854	31.232286
670.760437	1299.893311	6567.504395	2944.168213	31.214811
671.091187	1298.349487	6559.564941	2938.875000	31.181494
671.421814	1296.033813	6542.692871	2937.441650	31.284819
671.752441	1295.261963	6521.189941	2934.905029	31.375158
672.083008	1292.946167	6507.185059	2935.235840	31.496250
672.413574	1293.607788	6493.731934	2934.905029	31.562656
672.744080	1296.033813	6466.936035	2923.105957	31.465923
673.074524	1293.828369	6440.581055	2907.447021	31.352169
673.404968	1297.467407	6416.541504	2899.286865	31.291195
673.735352	1301.437256	6396.582520	2880.981689	31.000969
674.065613	1303.752930	6375.410156	2875.357666	30.987991
674.395935	1302.429688	6351.700684	2872.380371	31.092621
674.726196	1301.657837	6320.494141	2869.844238	31.246016
675.056335	1304.414551	6304.504395	2859.257813	31.096306
675.386536	1304.745361	6292.815430	2856.280518	31.104918
675.716614	1306.840454	6281.346680	2848.451172	30.990225
676.046692	1308.274048	6279.913086	2843.599121	30.881668
676.376770	1310.259033	6268.334961	2843.489014	30.923889
676.706726	1312.023315	6257.638184	2837.203369	30.839039
677.036621	1310.038452	6262.820801	2843.378418	30.959164
677.366516	1310.258911	6260.616211	2845.694336	31.016659
677.696411	1314.338989	6274.068359	2850.215576	30.966942
678.026184	1313.787720	6291.381836	2853.192871	30.926691
678.355957	1312.464355	6305.166016	2855.177734	30.899370
678.685669	1312.464355	6330.639160	2856.170166	30.762297
679.015320	1309.817749	6346.187500	2859.809326	30.775969
679.344971	1306.730103	6362.838379	2863.668945	30.793224
679.674561	1305.406860	6371.991211	2871.057373	30.901499
680.004150	1301.547241	6394.928711	2884.510498	31.078829
680.333618	1299.231689	6410.145996	2891.788574	31.159924
680.663086	1299.672729	6424.701660	2902.705566	31.278513
680.992493	1298.680298	6430.987305	2903.697998	31.272831
681.321899	1298.569824	6429.002930	2902.154297	31.256317
681.651184	1298.128784	6429.994629	2898.515137	31.185274
681.980530	1296.585083	6419.849609	2898.735840	31.272066
682.309753	1295.372070	6412.682129	2894.104492	31.241657
682.638977	1290.850952	6387.650391	2892.119385	31.417137
682.968079	1288.314697	6361.735840	2883.297607	31.438017
683.297241	1288.976318	6340.563965	2873.813965	31.373058
683.626343	1288.865845	6318.619629	2868.630859	31.408396
683.955383	1293.056396	6279.803711	2851.869629	31.259119
684.284363	1294.048950	6252.235352	2844.922363	31.279045
684.613281	1292.284546	6209.890137	2832.461426	31.319651
684.942139	1296.144043	6166.111816	2825.404053	31.401852
685.271057	1299.231567	6128.619629	2813.053467	31.346039
685.599792	1301.657593	6088.370117	2805.334473	31.413563
685.928589	1305.737671	6056.721191	2793.756104	31.320219
686.257324	1310.810181	6019.118164	2778.207764	31.166134
686.585999	1310.699951	5994.527344	2768.503662	31.124199
686.914612	1310.810303	5948.323242	2756.484131	31.173473
687.243164	1310.369141	5912.043457	2738.179199	31.028055
687.571777	1307.281494	5879.072754	2725.497559	31.021017
687.900269	1308.825317	5843.344727	2709.287598	30.884468
688.228699	1309.707520	5811.365234	2700.796387	30.901703
688.557129	1305.186401	5783.466309	2686.020020	30.834019
688.885498	1306.950806	5757.552246	2674.220703	30.721014
689.213867	1310.920532	5727.668457	2661.208740	30.572001
689.542114	1311.140991	5706.827148	2648.196289	30.417442
689.870361	1310.369141	5686.095703	2644.998291	30.500744
690.198608	1305.737671	5651.470215	2637.389404	30.642746
690.526794	1305.296631	5620.042969	2627.685547	30.648129
690.854858	1302.870605	5598.098633	2614.783691	30.543503
691.182922	1300.775513	5560.605957	2603.315430	30.577271
691.510986	1300.224121	5533.919922	2594.383301	30.568071
691.838928	1297.908447	5499.404785	2580.599121	30.529379
692.166931	1297.687866	5463.015137	2569.020752	30.521801
692.494812	1296.695557	5415.708496	2552.259033	30.482147
692.822632	1295.702881	5372.591309	2543.216797	30.599657
693.150452	1293.056396	5328.923828	2535.056641	30.774059
693.478149	1296.144043	5291.430664	2518.184814	30.587061
693.805908	1294.379639	5266.067871	2503.959717	30.455061
694.133606	1294.710449	5228.244141	2498.005127	30.590679
694.461243	1296.585083	5198.580078	2489.403564	30.569450
694.788818	1295.261841	5180.605957	2490.616699	30.765739
695.116333	1293.938477	5170.019531	2487.749756	30.799440
695.443848	1295.261719	5164.505371	2489.955322	30.876671
695.771301	1292.284302	5178.620605	2499.989990	31.075686
696.098755	1289.748047	5203.322266	2503.187744	31.005920
696.426147	1293.166626	5236.514160	2521.272461	31.143738
696.753418	1293.717896	5275.661133	2537.702637	31.240644
697.080688	1297.687744	5332.451660	2551.376709	31.072176
697.407898	1298.569946	5386.485352	2571.776855	31.145626
697.735107	1301.768066	5424.308594	2588.869141	31.221066
698.062317	1303.201660	5465.219727	2595.265137	31.044159
698.389404	1306.289307	5499.735352	2607.946533	31.040274
698.716492	1305.407104	5531.273438	2612.688721	30.935234
699.043457	1303.863281	5551.122559	2619.856201	30.984520
699.370483	1305.406982	5568.545410	2625.811035	30.972580
699.697388	1309.597412	5572.294434	2623.495605	30.823164
700.024292	1313.677490	5568.766113	2621.069580	30.725376
700.351135	1314.008423	5560.936523	2618.974365	30.727289
700.677917	1318.860352	5549.137695	2617.430664	30.697048
701.004639	1319.191162	5533.699219	2612.247559	30.681078
701.331299	1319.963013	5514.731934	2602.763916	30.580967
701.658020	1321.286133	5491.244629	2592.839355	30.493187
701.984619	1319.963013	5453.972168	2581.040039	30.504940
702.311218	1319.742432	5411.186523	2567.586914	30.498877
702.637756	1319.191040	5359.027344	2548.950684	30.440828
702.964233	1319.411621	5287.901855	2533.291992	30.587965
703.290649	1316.213867	5216.665527	2502.636230	30.417564
703.617065	1319.080933	5132.086914	2472.642090	30.253328
703.943481	1320.624756	5047.287109	2444.853516	30.167175
704.269775	1320.735107	4959.289551	2415.080078	30.076366
704.596008	1319.522095	4881.105957	2392.915039	30.138077
704.922241	1317.095947	4814.500977	2369.757813	30.098370
705.248474	1316.323975	4747.565430	2344.174561	29.955647
705.574585	1315.882935	4687.687500	2329.397949	30.058533
705.900696	1316.103271	4637.072266	2315.614258	30.096968
706.226746	1314.559570	4597.925781	2303.484131	30.119228
706.552734	1311.692505	4570.799316	2290.141113	30.021986
706.878723	1306.068604	4551.612305	2280.767822	30.031923
707.204651	1302.649902	4529.888672	2277.459717	30.205692
707.530518	1301.547363	4516.986328	2272.276855	30.189642
707.856323	1302.098633	4510.700684	2268.527832	30.119946
708.182068	1301.988403	4514.008789	2265.770996	30.005493
708.507813	1299.341797	4509.597656	2261.139404	29.960154
708.833496	1301.106201	4522.278809	2259.264893	29.745649
709.159180	1301.878052	4538.268066	2264.227051	29.735260
709.484802	1303.091187	4550.949219	2260.036621	29.463894
709.810303	1303.752563	4569.696289	2262.021484	29.341255
710.135864	1306.178711	4579.620117	2271.394775	29.486279
710.461304	1306.288818	4591.309570	2275.364502	29.499834
710.786743	1305.627319	4600.352051	2278.782959	29.536783
711.112122	1305.847900	4608.181152	2278.893311	29.465391
711.437500	1305.406860	4615.128418	2279.003418	29.416267
711.762817	1308.825195	4614.136230	2282.752686	29.465532
712.088013	1307.171143	4618.546875	2283.965820	29.498154
712.413269	1309.266357	4613.364258	2283.744873	29.493029
712.738403	1312.133423	4616.562012	2279.334229	29.269835
713.063538	1313.125977	4610.276855	2277.790527	29.257519
713.388611	1312.243652	4604.983398	2278.782959	29.353651
713.713623	1309.817749	4597.154297	2278.452148	29.465630
714.038574	1312.243652	4596.713379	2280.988525	29.494711
714.363525	1310.258789	4590.096680	2279.995850	29.566616
714.688477	1305.847900	4579.951660	2277.790527	29.685760
715.013306	1306.730103	4555.581543	2275.364502	29.814671
715.338135	1307.391724	4534.299316	2272.828613	29.918329
715.662842	1306.068604	4507.282227	2266.983887	30.017218
715.987549	1306.950684	4475.633789	2256.728516	29.973898
716.312195	1308.274048	4442.441406	2251.545898	30.096409
716.636841	1303.863037	4403.735840	2241.400635	30.244389
716.961426	1300.003540	4372.087891	2224.529053	30.094404
717.285950	1297.687744	4341.210938	2212.509521	30.057985
717.610474	1293.497437	4300.630371	2201.812988	30.205368
717.934937	1293.056396	4265.012695	2191.667480	30.236349
718.259277	1292.615234	4230.827637	2180.530029	30.219559
718.583679	1291.291992	4202.046875	2172.149414	30.262165
718.908020	1288.535156	4169.406738	2159.026855	30.216261
719.232239	1286.881104	4142.720703	2146.125244	30.087269
719.556519	1287.542725	4115.262695	2134.215820	29.941900
719.880737	1287.322144	4084.717285	2120.983154	29.801332
720.204834	1284.344727	4055.274902	2113.925781	29.938721
720.528931	1288.755615	4025.060303	2100.141846	29.652628
720.852966	1286.440063	3988.890625	2083.049316	29.477291
721.176941	1288.424805	3950.295410	2070.257568	29.371553
721.500916	1289.307129	3919.970703	2059.450928	29.275648
721.824829	1284.675537	3898.798096	2051.070313	29.317476
722.148743	1284.785767	3867.370117	2043.020508	29.359533
722.472534	1288.535034	3844.874268	2038.609375	29.341736
722.796326	1289.417236	3823.701660	2031.993164	29.301207
723.119995	1288.424805	3799.882813	2029.456787	29.506046
723.443665	1293.056396	3787.201172	2027.912964	29.463268
723.767334	1294.820801	3769.006348	2027.913086	29.629641
724.090942	1294.600220	3758.751221	2022.619995	29.544449
724.414551	1299.231689	3752.686035	2021.517334	29.439539
724.737976	1300.223999	3747.503418	2021.517334	29.473274
725.061462	1302.539795	3747.393555	2018.098633	29.267962
725.384888	1302.870728	3747.834717	2016.995850	29.208004
725.708252	1303.311768	3747.503662	2017.326416	29.212708
726.031616	1303.863159	3752.465820	2022.288818	29.340231
726.354858	1302.981079	3753.017090	2024.935303	29.467085
726.678162	1301.878296	3762.721436	2028.574463	29.530373
727.001404	1305.517334	3766.580811	2028.905273	29.393307
727.324463	1307.281860	3771.102051	2031.110718	29.378313
727.647583	1309.928345	3778.269775	2035.411499	29.391525
727.970642	1306.179077	3790.069092	2041.476563	29.602657
728.293701	1308.715210	3792.384766	2046.769287	29.716276
728.616699	1309.707642	3797.126221	2050.629150	29.786766
728.939575	1309.928223	3815.431152	2054.708984	29.725800
729.262512	1305.958252	3825.686768	2058.458496	29.864338
729.585266	1305.627441	3834.950195	2058.678955	29.772852
729.908142	1304.193848	3854.909180	2057.355713	29.527475
730.230896	1302.098633	3868.252197	2060.884521	29.568998
730.553467	1304.193848	3887.329346	2064.854248	29.447174
730.876160	1301.106201	3901.333740	2070.698730	29.597122
731.198792	1296.695313	3912.360840	2069.265137	29.536263
731.521362	1294.159058	3927.357910	2074.999512	29.653685
731.843872	1293.056152	3925.152832	2073.345215	29.645151
732.166321	1289.968506	3925.152832	2070.257568	29.610416
732.488770	1291.732910	3926.476074	2071.029297	29.577698
732.811157	1289.196655	3919.639404	2066.397705	29.546396
733.133484	1288.755615	3912.250732	2062.979248	29.511152
733.455811	1290.299438	3894.386475	2063.641113	29.697229
733.778015	1290.961182	3877.845947	2057.466064	29.630423
734.100281	1289.527710	3869.685547	2056.142822	29.711948
734.422424	1286.660522	3857.666016	2052.503662	29.787691
734.744507	1290.189331	3842.668945	2045.997559	29.610746
735.066589	1288.645508	3832.192627	2035.632080	29.367908
735.388611	1291.512695	3820.062988	2030.890259	29.241165
735.710571	1290.630493	3804.293945	2023.281494	29.146740
736.032532	1292.505005	3794.038574	2017.988525	29.001549
736.354431	1292.284424	3781.467529	2015.011108	29.034693
736.676270	1293.276733	3765.367920	2016.113647	29.239895
736.998108	1298.900879	3751.914551	2011.813232	29.062714
737.319824	1297.687866	3736.807373	2004.094116	28.961525
737.641541	1301.547485	3717.729980	1996.926514	28.780069
737.963135	1302.209106	3696.888672	1994.831299	28.923376
738.284790	1303.311890	3671.305176	1986.781250	28.862810
738.606323	1303.532227	3660.498047	1989.427856	29.100788
738.927856	1305.517334	3650.022217	1983.803955	28.930910
739.249390	1307.391968	3639.436279	1978.620850	28.782852
739.570740	1311.913086	3628.740234	1979.172241	28.800558
739.892212	1310.810303	3617.933350	1977.187256	28.883459
740.213562	1308.604858	3610.214355	1970.791626	28.770597
740.534790	1310.479614	3603.818359	1968.365479	28.686815
740.856079	1306.730347	3588.931641	1968.806763	29.010431
741.177246	1304.304443	3578.455322	1968.916992	29.224646
741.498413	1306.399536	3569.964600	1966.160156	29.146971
741.819580	1307.943237	3562.245605	1964.947388	29.144457
742.140625	1309.707642	3551.989990	1961.639160	29.074463
742.461670	1307.722534	3536.992920	1954.140625	28.996843
742.782654	1306.950562	3515.489990	1944.987671	28.889549
743.103577	1309.155884	3498.728760	1938.591919	28.746979
743.424438	1309.707275	3477.335938	1927.344116	28.493664
743.745300	1305.847900	3448.003418	1918.301880	28.590548
744.066101	1304.745117	3421.758545	1913.339600	28.747786
744.386902	1303.421875	3399.924561	1909.811035	28.923843
744.707581	1302.649902	3381.399170	1907.385254	29.091309
745.028198	1302.429443	3367.504395	1901.981812	29.032959
745.348816	1299.562378	3355.815430	1894.152588	28.916201
745.669373	1297.357056	3337.620605	1889.631104	29.029291
745.989929	1295.261963	3316.558350	1885.991943	29.225302
746.310364	1293.497437	3301.892090	1879.485840	29.176954
746.630798	1294.159180	3289.431641	1876.398193	29.180927
746.951172	1290.409912	3286.343750	1874.854492	29.281761
747.271545	1286.109375	3276.529297	1871.987305	29.434891
747.591858	1290.299683	3275.537109	1867.686523	29.084019
747.912109	1295.261841	3266.936035	1861.290894	28.708042
748.232300	1291.512695	3258.555176	1862.503906	29.027905
748.552429	1294.159180	3245.542725	1859.747192	28.983950
748.872559	1289.637817	3235.066895	1856.769897	29.152031
749.192627	1293.387329	3235.287598	1859.195679	29.136839
749.512695	1293.166626	3236.941162	1859.306030	29.125774
749.832642	1293.938477	3234.956543	1855.446411	28.928528
750.152588	1295.592651	3234.625732	1853.020508	28.747723
750.472473	1295.592651	3243.116455	1853.792358	28.662022
750.792358	1297.246704	3246.204346	1851.807617	28.454231
751.112122	1298.570068	3241.242188	1851.366455	28.455465
751.431824	1300.775391	3249.181641	1843.647339	27.862360
751.751587	1300.334351	3246.093750	1842.103638	27.843592
752.071228	1299.452148	3243.447510	1842.323975	27.925571
752.390869	1300.665161	3240.911133	1845.081055	28.059118
752.710327	1303.752808	3238.595215	1844.309204	27.938007
753.029846	1303.201416	3238.595215	1843.978271	27.941439
753.349304	1304.524780	3236.610596	1847.286499	28.092009
753.668762	1305.186279	3230.545654	1842.655151	27.915249
753.988098	1304.965820	3223.157471	1840.890869	27.939077
754.307434	1304.193848	3213.674072	1833.171875	27.702724
754.626770	1303.862915	3210.917480	1825.342407	27.344759
754.946045	1302.760376	3209.262939	1812.550537	26.739548
755.265259	1299.011108	3208.050293	1811.668335	26.854202
755.584351	1300.885742	3207.277832	1808.801392	26.642769
755.903442	1299.562500	3202.756592	1809.904053	26.815002
756.222534	1298.459839	3192.391357	1811.006714	27.062588
756.541565	1296.033813	3191.288330	1810.896240	27.165873
756.860535	1295.813354	3191.178223	1813.983765	27.338821
757.179443	1294.820923	3185.995605	1813.983765	27.451872
757.498291	1297.467529	3183.789795	1813.432617	27.352966
757.817139	1300.665405	3188.752197	1811.227173	27.041224
758.135925	1302.540039	3184.892822	1810.565430	26.988852
758.454651	1301.657837	3183.569092	1805.492920	26.772520
758.773376	1305.958374	3179.820313	1803.177246	26.534445
759.092041	1306.178955	3185.002930	1801.633545	26.370464
759.410645	1302.540039	3189.193359	1800.751343	26.407146
759.729187	1301.547485	3180.482178	1796.781616	26.357176
760.047607	1301.768188	3185.223633	1793.914429	26.129965
760.366089	1305.406982	3187.319092	1799.758911	26.268599
760.684509	1305.186523	3201.543945	1803.508179	26.277834
761.002869	1305.627563	3227.237305	1819.056763	26.718702
761.321228	1304.193970	3265.833008	1838.464600	27.235929
761.639465	1306.840576	3313.470703	1860.629517	27.597958
761.957642	1306.730225	3365.739990	1877.501343	27.720661
762.275879	1304.965820	3409.297607	1891.395508	27.867739
762.593994	1303.752930	3447.561768	1905.951660	28.090132
762.912109	1302.539673	3483.180176	1916.758179	28.166883
763.230103	1305.296387	3503.359863	1927.895630	28.324898
763.548157	1302.649780	3515.710449	1932.637695	28.466818
763.866150	1302.980713	3529.274170	1937.269165	28.490784
764.184021	1301.326660	3539.860596	1938.371826	28.458141
764.501892	1298.018555	3546.587158	1941.128540	28.600861
764.819702	1295.923340	3544.491699	1948.186035	29.007910
765.137451	1296.474731	3548.792725	1955.794678	29.272953
765.455200	1292.504883	3554.416748	1955.794678	29.324299
765.772888	1293.607666	3544.161377	1956.345947	29.447788
766.090515	1293.828247	3534.347168	1956.566650	29.579681
766.408081	1295.371948	3534.897949	1955.794800	29.489405
766.725586	1293.938477	3525.415283	1951.273438	29.457396
767.043091	1294.269287	3515.600342	1943.443970	29.224581
767.360535	1294.820679	3500.824463	1940.246338	29.257685
767.677917	1293.497437	3468.404053	1925.359619	29.052382
767.995239	1291.512573	3422.089355	1911.575562	29.103060
768.312500	1292.174194	3362.983643	1892.939331	29.011124
768.629822	1290.299561	3302.553467	1873.752075	28.994974
768.947021	1290.520142	3246.204346	1860.629517	29.151403
769.264160	1294.379639	3190.406738	1840.008423	28.777477
769.581299	1294.379639	3148.392822	1825.562744	28.650450
769.898376	1292.505005	3111.230713	1814.094360	28.678835
770.215393	1292.174072	3077.928467	1803.067017	28.609362
770.532349	1292.504883	3049.698975	1792.150146	28.434267
770.849304	1291.512451	3019.925293	1785.533691	28.582363
771.166199	1290.740601	2998.863281	1774.726929	28.334400
771.483032	1287.542725	2981.770752	1765.794800	28.228317
771.799866	1288.645508	2961.260010	1756.752441	27.986540
772.116577	1291.622803	2940.528564	1751.018433	27.860636
772.433350	1293.938599	2928.509033	1739.660522	27.268444
772.749939	1294.931030	2919.025391	1734.146973	27.043745
773.066589	1294.048828	2905.131348	1730.177124	27.070513
773.383057	1297.357178	2888.811035	1725.545532	26.905483
773.699646	1298.680420	2876.460205	1724.442871	26.984909
774.016113	1300.885864	2860.029785	1718.708740	26.798223
774.332520	1303.201660	2851.208008	1715.069580	26.606346
774.648804	1308.494751	2842.055176	1703.601318	25.764004
774.965149	1307.943359	2831.689697	1697.205566	25.546392
775.281433	1313.126099	2820.993164	1692.022461	25.127968
775.597656	1313.677490	2814.156494	1684.965210	24.744614
775.913879	1312.905640	2807.540283	1679.451660	24.524122
776.229980	1314.449463	2797.836426	1671.622192	24.078190
776.546082	1312.023315	2787.691162	1662.690063	23.763258
776.862122	1315.882935	2780.854248	1658.279175	23.372215
777.178162	1317.978149	2771.812012	1663.131104	23.740881
777.494141	1315.331421	2767.621582	1662.690063	23.917992
777.809998	1314.780151	2755.822266	1662.690063	24.142939
778.125854	1316.544556	2750.309082	1656.514648	23.711710
778.441711	1317.426758	2744.133789	1653.096313	23.527575
778.757446	1316.323975	2737.847900	1650.890625	23.535774
779.073181	1313.567017	2733.547363	1654.419434	24.004025
779.388855	1316.323853	2727.702637	1649.677612	23.619015
779.704468	1315.552124	2723.623047	1646.149170	23.478722
780.020020	1310.258911	2717.888672	1644.054077	23.713278
780.335571	1311.251343	2708.736328	1644.053955	23.814396
780.651062	1310.479492	2703.222168	1641.407349	23.760876
780.966553	1307.722656	2697.708740	1642.179321	24.061871
781.281860	1301.657471	2686.020020	1646.810791	24.932293
781.597290	1301.767944	2678.631592	1646.921143	25.068073
781.912476	1299.231812	2675.102783	1647.472412	25.310556
782.227722	1300.775635	2666.060547	1647.582642	25.401804
782.542908	1299.011108	2654.923096	1644.825684	25.504206
782.858093	1299.452148	2642.682373	1645.597656	25.769634
783.173218	1302.539917	2640.256836	1646.480103	25.710983
783.488281	1300.003662	2639.595215	1645.377197	25.782003
783.803345	1299.562622	2630.883789	1636.886353	25.337517
784.118225	1301.547485	2618.202148	1634.901367	25.318247
784.433167	1302.208862	2609.821533	1635.452759	25.484909
784.748047	1303.532227	2603.425537	1636.004150	25.576862
785.062866	1306.619995	2590.193115	1639.973999	25.970783
785.377686	1305.958374	2579.276123	1637.768433	26.058701
785.692444	1306.619995	2568.689697	1636.996460	26.177355
786.007141	1305.517334	2564.830078	1637.437500	26.357246
786.321716	1308.825439	2558.765137	1637.768433	26.316710
786.636353	1311.141113	2562.073242	1638.871094	26.198862
786.950928	1309.487061	2567.256104	1636.555420	26.003849
787.265442	1308.715088	2574.313721	1640.084106	26.182789
787.579834	1304.414551	2570.674561	1638.209595	26.360703
787.894226	1308.163696	2576.850098	1639.532715	26.119064
788.208618	1304.193970	2578.834961	1639.863647	26.334448
788.522949	1305.517212	2574.424072	1638.319702	26.227495
788.837219	1302.870605	2574.424072	1634.570679	26.086206
789.151367	1303.752808	2579.937500	1637.989258	26.190289
789.465515	1301.657593	2579.937744	1634.901367	26.069698
789.779602	1299.893188	2571.005615	1629.939331	25.965141
790.093689	1303.973267	2559.427002	1626.961914	25.726847
790.407776	1300.554688	2555.016113	1622.440674	25.659298
790.721741	1299.672607	2549.943848	1617.919434	25.454224
791.035645	1298.018555	2541.562988	1612.516235	25.290426
791.349548	1296.695190	2534.615967	1609.538696	25.271690
791.663391	1293.938477	2536.270020	1600.165527	24.649382
791.977173	1296.805664	2532.630859	1593.880005	24.038540
792.290894	1296.254150	2521.714111	1588.587036	23.854952
792.604614	1298.790771	2510.466064	1583.404175	23.489246
792.918274	1299.231812	2501.754639	1576.456787	23.053614
793.231812	1298.680542	2485.764893	1573.700195	23.167660
793.545410	1298.459839	2473.083496	1572.597412	23.338333
793.858948	1300.113892	2456.983398	1565.760376	22.962528
794.172363	1304.524780	2451.690186	1560.357178	22.301266
794.485840	1302.209106	2442.427490	1555.725708	22.234039
794.799194	1308.494629	2439.449951	1551.866211	21.519115
795.112488	1307.171265	2438.126953	1552.197021	21.665373
795.425781	1309.156128	2435.370117	1552.086670	21.570549
795.738953	1305.958374	2428.533203	1546.131958	21.394884
796.052185	1307.061035	2428.753906	1543.485352	21.077456
796.365234	1307.171265	2428.754150	1548.006714	21.472818
796.678284	1305.627441	2429.966797	1548.888794	21.635937
796.991333	1308.825317	2427.540771	1547.014160	21.291281
797.304382	1309.927979	2429.305176	1544.477905	20.953609
797.617310	1312.023193	2428.974121	1541.390259	20.535107
797.930115	1312.574463	2422.468262	1539.625854	20.457037
798.242981	1314.890259	2417.726318	1541.500366	20.547941
798.555786	1313.236084	2413.425781	1540.508057	20.657526
798.868530	1317.205933	2412.764160	1536.097046	19.979870
799.181213	1313.346436	2411.110352	1536.538086	20.331480
799.493896	1313.125854	2406.479004	1537.199829	20.494200
799.806519	1316.985474	2406.037842	1535.435425	20.058720
800.119080	1318.198608	2402.068115	1532.347900	19.757849
800.431580	1315.000610	2392.033203	1530.252686	19.985661
800.744080	1313.897949	2382.329346	1530.142456	20.239437
801.056458	1315.000732	2373.948486	1526.723999	19.993740
801.368835	1312.133667	2360.054199	1530.032227	20.793425
801.681152	1314.890381	2348.144531	1524.959595	20.330837
801.993408	1316.765015	2338.440430	1523.857056	20.269846
802.305664	1319.962891	2329.397949	1523.085083	20.122364
802.617798	1320.845093	2318.812012	1522.313110	20.187845
802.929993	1320.403809	2310.431396	1519.004883	20.060156
803.242065	1321.396240	2301.058105	1514.704346	19.732124
803.554016	1318.418945	2295.985596	1517.461182	20.360989
803.865967	1318.639404	2289.479492	1517.461182	20.479353
804.177979	1316.103271	2288.045898	1518.563965	20.830519
804.489807	1314.890381	2288.045654	1521.210449	21.201145
804.801697	1311.251343	2286.281494	1521.210571	21.533613
805.113464	1310.369263	2280.547363	1522.092651	21.823147
805.425232	1306.730225	2282.311523	1521.872070	22.052683
805.736938	1305.627563	2277.900879	1522.092529	22.263798
806.048584	1300.554932	2273.269287	1522.533691	22.820549
806.360168	1297.467285	2267.535400	1521.210327	23.064672
806.671753	1296.915771	2257.280029	1515.145386	22.723629
806.983276	1298.790527	2257.831299	1514.814453	22.525000
807.294739	1300.223999	2252.979248	1515.365845	22.581018
807.606140	1301.437012	2248.568359	1514.924805	22.540462
807.917542	1301.326782	2247.906738	1509.631714	22.006058
808.228760	1301.216431	2242.393311	1507.426270	21.909786
808.540100	1300.223999	2231.917236	1503.897461	21.860571
808.851318	1297.026123	2225.080322	1502.574219	22.148285
809.162476	1297.356934	2217.361328	1503.346191	22.390030
809.473633	1297.246704	2212.840088	1501.140747	22.269060
809.784668	1291.071411	2206.113525	1501.140747	22.957340
810.095703	1295.813110	2194.975830	1497.170898	22.393921
810.406738	1298.570068	2186.594971	1496.619507	22.302238
810.717590	1302.870605	2174.465332	1496.840088	22.254549
811.028503	1303.311890	2163.548096	1492.539551	21.997175
811.339294	1303.201416	2153.733887	1485.923218	21.483225
811.650085	1302.209106	2148.661377	1488.679932	22.029692
811.960876	1299.231812	2137.082764	1492.649780	23.085009
812.271545	1301.988525	2129.143311	1489.892944	22.716959
812.582153	1309.045898	2126.496582	1486.474487	21.705112
812.892761	1307.281616	2116.902832	1484.599854	21.901382
813.203308	1302.980957	2115.579590	1484.820435	22.377527
813.513855	1303.973511	2111.058594	1482.284058	22.093153
813.824280	1303.311768	2107.530029	1480.519653	22.034800
814.134705	1301.988525	2105.765869	1481.512085	22.334986
814.445068	1301.437012	2096.943604	1479.637451	22.400875
814.755371	1301.437012	2098.156738	1478.534668	22.228352
815.065613	1299.562378	2102.016113	1476.329224	22.028292
815.375854	1302.980835	2101.354492	1475.998413	21.671253
815.686035	1302.208984	2104.111328	1475.777954	21.644651
815.996155	1303.311646	2104.442139	1477.101318	21.693054
816.306152	1308.053467	2105.544922	1474.895874	20.920902
816.616211	1306.840454	2114.036133	1476.219116	20.983593
816.926208	1303.091187	2117.675049	1478.645142	21.551367
817.236145	1303.752930	2126.166016	1477.983521	21.185289
817.546021	1304.524780	2139.619141	1480.960815	21.127676
817.855774	1305.186401	2151.638916	1484.048462	21.130785
818.165588	1305.958252	2168.951660	1484.269165	20.661909
818.475281	1309.928101	2192.218750	1485.812866	19.935015
818.784973	1305.406860	2222.102783	1492.980591	20.461935
819.094604	1299.231689	2250.112061	1506.874878	21.836941
819.404175	1298.790405	2295.434082	1518.233032	22.018164
819.713684	1298.680298	2358.620117	1541.059326	22.867245
820.023254	1297.577515	2484.661865	1586.491577	24.338123
820.332642	1295.923340	2704.766113	1663.572388	26.095818
820.642090	1295.923584	2994.231445	1759.840210	27.316402
820.951416	1296.144043	3298.804688	1857.982910	28.054621
821.260681	1292.725586	3552.982910	1938.592041	28.574907
821.569946	1293.497559	3751.914551	2006.409546	28.998823
821.879150	1294.159180	3915.779785	2054.047363	28.985437
822.188293	1295.592773	4045.460449	2098.708008	29.205595
822.497437	1298.018799	4152.204102	2131.899902	29.216082
822.806458	1298.018799	4247.811035	2170.385498	29.573835
823.115479	1298.790649	4328.861328	2194.093750	29.547266
823.424438	1300.334473	4405.721191	2213.942871	29.420116
823.733337	1295.813232	4468.245605	2231.586426	29.497026
824.042236	1296.144043	4520.073730	2250.112061	29.590223
824.351013	1295.372192	4567.932129	2265.329834	29.639109
824.659790	1297.467407	4607.079102	2281.980957	29.747101
824.968445	1297.908447	4665.522949	2304.366211	29.886372
825.277100	1301.106445	4735.656250	2332.485840	30.029537
825.585693	1304.635010	4822.220703	2359.061523	29.975859
825.894287	1309.376709	4879.562012	2376.705322	29.895609
826.202820	1314.890381	4901.395996	2379.352051	29.679632
826.511292	1313.787720	4834.019531	2354.319824	29.558624
826.819702	1316.213745	4662.435059	2291.134033	29.134962
827.128113	1320.073242	4409.911133	2202.805664	28.568892
827.436401	1319.962769	4141.618164	2113.705322	28.130386
827.744751	1321.506592	3911.148438	2040.042969	27.746553
828.052917	1322.057983	3731.293945	1982.149902	27.398394
828.361145	1319.521729	3583.308105	1941.790161	27.487949
828.669312	1320.183350	3465.977295	1899.996826	27.020929
828.977356	1315.993164	3366.732178	1866.143066	26.826910
829.285400	1312.464233	3275.867920	1831.737915	26.447626
829.593384	1310.920532	3197.353516	1803.728638	26.123806
829.901306	1307.833008	3122.257813	1780.020142	26.024067
830.209167	1312.133667	3057.858887	1759.288696	25.614285
830.517029	1312.795288	2998.532471	1740.542358	25.374481
830.824829	1314.669922	2946.704346	1726.868652	25.256742
831.132568	1311.802856	2898.073975	1710.107178	25.109472
831.440247	1308.935791	2841.724609	1692.573975	25.028770
831.747925	1308.384399	2783.059814	1666.659912	24.295212
832.055481	1305.848022	2716.786133	1647.362183	24.204758
832.363037	1306.178833	2668.706787	1634.129517	24.069281
832.670532	1304.635010	2628.898438	1624.645996	24.165207
832.977966	1306.178833	2611.034180	1616.926880	23.814751
833.285400	1308.825317	2591.847168	1611.964600	23.626978
833.592712	1306.840454	2572.659668	1609.318115	23.895803
833.900085	1307.391724	2552.700195	1605.348389	23.926334
834.207275	1302.760254	2539.798096	1605.127808	24.442871
834.514526	1301.767822	2527.668213	1599.944946	24.323112
834.821716	1302.760376	2517.964111	1594.100464	23.974588
835.128784	1303.091187	2508.921631	1591.564331	23.923193
835.435852	1306.399292	2503.297852	1592.446655	23.899048
835.742798	1308.163696	2494.696533	1588.586914	23.633835
836.049805	1307.722534	2485.323730	1586.381470	23.663269
836.356750	1309.597168	2474.847656	1585.278687	23.658564
836.663574	1306.950562	2463.930664	1583.293945	23.884886
836.970398	1307.060913	2452.021484	1581.198608	23.942982
837.277161	1304.524658	2437.244629	1577.118652	24.065435
837.583923	1305.075928	2424.122314	1572.487183	23.896351
837.890564	1308.053345	2396.774658	1560.357178	23.174326
838.197205	1308.604858	2354.650391	1552.086914	23.276430
838.503784	1311.692505	2308.005371	1534.663696	22.379637
838.810303	1309.376709	2257.059326	1518.012695	22.015387
839.116699	1306.509766	2211.626953	1500.369019	21.418139
839.423096	1309.046021	2160.791260	1487.908203	20.999493
839.729492	1308.715210	2120.541992	1475.557617	20.551479
840.035828	1304.745361	2089.996582	1468.279541	20.825714
840.342102	1302.760620	2067.500732	1459.016602	20.432560
840.648315	1308.494751	2039.601807	1450.525635	19.426825
840.954529	1311.692505	2021.517090	1447.217529	19.092749
841.260620	1313.015747	2003.432251	1441.262817	18.575319
841.566711	1310.258911	1989.207275	1434.756714	18.336859
841.872803	1309.707397	1968.365845	1424.611572	17.445183
842.178772	1312.795044	1954.250977	1420.862305	16.847183
842.484680	1310.920532	1935.394165	1421.744385	17.746763
842.790588	1312.574585	1921.830688	1414.245850	16.687771
843.096436	1313.567017	1911.354858	1413.032837	16.638983
843.402222	1314.118286	1899.996826	1401.013184	14.831555
843.707947	1315.551880	1889.300415	1393.514648	13.588317
844.013611	1315.993042	1878.162720	1390.427124	13.240501
844.319275	1313.125977	1861.070679	1385.905884	13.282345
844.624817	1314.118530	1844.529785	1377.966309	12.037410
844.930359	1311.913086	1820.380005	1368.372681	11.103888
845.235901	1311.030884	1800.530884	1359.550903	9.912159
845.541321	1315.993164	1778.035400	1354.478394	8.329374
845.846680	1311.913086	1765.354004	1348.854492	8.146906
846.152039	1311.472046	1751.459839	1344.112793	7.418558
846.457275	1316.323975	1736.793335	1339.260742	5.455039
846.762512	1318.308838	1724.553223	1334.518921	3.990229
847.067749	1316.654785	1716.392822	1330.108032	3.365516
847.372925	1315.110840	1705.365479	1319.742432	1.186813
847.677979	1313.125977	1699.410889	1315.662354	0.656608
847.983032	1314.669922	1687.391235	1316.765015	0.562107
848.288025	1310.369263	1681.767456	1315.882813	1.484539
848.592957	1309.045898	1679.782349	1313.897827	1.308727
848.897888	1312.905518	1675.812744	1310.920532	-0.546968
849.202759	1312.133667	1675.151001	1315.331421	0.880882
849.507507	1308.715210	1670.739990	1312.464355	1.035605
849.812317	1308.825439	1668.093506	1317.426514	2.394055
850.117004	1308.163818	1667.211182	1318.529175	2.886905
850.421631	1305.958374	1663.682617	1315.772339	2.743444
850.726257	1304.745361	1661.146240	1312.133423	2.072964
851.030823	1304.635010	1660.154053	1311.251221	1.861000
851.335327	1303.421875	1660.264282	1310.589722	2.008687
851.639771	1301.326782	1656.404785	1310.369141	2.546584
851.944153	1296.805664	1654.419800	1309.045898	3.422749
852.248535	1297.136353	1657.507446	1307.391846	2.845815
852.552856	1295.041260	1663.792725	1303.201416	2.212915
852.857056	1291.733032	1663.131104	1300.444702	2.345642
853.161255	1286.770874	1662.579834	1300.113892	3.550479
853.465393	1284.124268	1660.594727	1297.467285	3.544240
853.769531	1279.382568	1652.765381	1298.239136	5.050197
854.073547	1280.044189	1649.788086	1299.231689	5.189403
854.377563	1280.375000	1644.715576	1295.261841	4.085968
854.681580	1280.485474	1645.156616	1298.459717	4.928891
854.985474	1280.926392	1640.194336	1295.151611	3.959502
855.289307	1279.492920	1640.525269	1293.607666	3.909552
855.593140	1276.736084	1639.312134	1292.394653	4.318699
855.896851	1277.066895	1640.525269	1289.637817	3.458697
856.200623	1276.736084	1638.981445	1288.204224	3.165848
856.504272	1275.633423	1635.783691	1287.322021	3.245478
856.807922	1278.169678	1635.452759	1285.006348	1.913516
857.111389	1280.044312	1639.312256	1288.093994	2.240579
857.414978	1278.390259	1637.768555	1288.204224	2.730817
857.718445	1279.382568	1635.121826	1289.086426	2.727801
858.021790	1284.565308	1632.585693	1286.880981	0.665385
858.325195	1287.322144	1635.452881	1286.219360	-0.316773
858.628479	1291.071655	1630.380371	1284.124146	-2.047548
858.931763	1289.637817	1624.315308	1287.542725	-0.626004
859.234985	1288.866089	1626.410522	1287.322021	-0.457441
859.538147	1291.071533	1623.763916	1287.322144	-1.126984
859.841248	1294.710571	1626.410522	1291.402344	-0.997355
860.144287	1297.687866	1629.828857	1294.159180	-1.062406
860.447266	1298.459717	1628.615723	1297.026123	-0.434217
860.750305	1296.915894	1632.585571	1297.026123	0.032839
861.053223	1299.121338	1634.680786	1296.033691	-0.920149
861.356018	1295.592651	1635.342407	1297.577515	0.584213
861.658813	1294.489746	1634.460205	1296.584961	0.616293
861.961609	1299.672607	1630.049316	1292.945923	-2.036065
862.264343	1299.562256	1629.056885	1298.459595	-0.334652
862.567017	1301.216309	1630.821289	1299.782837	-0.434906
862.869629	1302.539673	1627.843994	1300.444458	-0.644078
863.172180	1302.429443	1623.322754	1300.223999	-0.687283
863.474670	1302.980713	1619.463135	1299.893188	-0.975575
863.777161	1304.083496	1617.037231	1296.364624	-2.466458
864.079590	1303.973267	1616.044800	1295.592651	-2.685479
864.381958	1302.760254	1622.330322	1297.687744	-1.587292
864.684265	1300.665161	1622.991943	1300.885742	0.068434
864.986511	1297.246704	1621.889160	1302.209106	1.528575
865.288757	1299.341797	1621.338013	1300.113892	0.239784
865.590942	1301.988281	1621.117432	1298.128906	-1.209346
865.893066	1303.642578	1622.661133	1299.231567	-1.382682
866.195068	1301.988403	1619.352905	1298.680298	-1.042368
866.497131	1300.223999	1619.353027	1294.820801	-1.693108
866.799133	1304.193848	1623.874023	1293.387085	-3.380492
867.100952	1304.965698	1619.794067	1292.394653	-3.992984
867.402832	1306.619751	1616.816650	1290.630249	-5.154630
867.704651	1309.597168	1615.272827	1290.189209	-6.349200
868.006409	1309.045898	1617.808960	1294.379517	-4.750044
868.308105	1307.612305	1620.345459	1289.968872	-5.641689
868.609802	1310.810303	1620.896973	1284.565430	-8.463722
868.911438	1310.148682	1618.360474	1283.242065	-8.729912
869.213013	1310.479370	1617.478394	1285.006470	-8.297388
869.514465	1310.258911	1621.117432	1287.211792	-7.414022
869.815979	1312.133545	1620.345459	1288.424805	-7.692350
870.117371	1311.802734	1622.771362	1295.372070	-5.283705
870.418701	1315.000610	1624.425537	1297.246704	-5.737710
870.720093	1317.536987	1622.440674	1299.672729	-5.858984
871.021301	1319.080811	1621.558350	1298.128906	-6.926764
871.322571	1320.955322	1622.550781	1301.547363	-6.435097
871.623718	1319.301392	1625.638550	1305.517212	-4.499676
871.924805	1318.088379	1625.417969	1305.076050	-4.233998
872.225891	1318.970581	1625.528442	1303.863037	-4.928122
872.526917	1321.396484	1629.277588	1300.334351	-6.840996
872.827881	1323.491699	1626.631104	1300.885742	-7.457281
873.128784	1318.970459	1619.242920	1297.908325	-7.014341
873.429626	1317.867798	1620.345581	1299.452026	-6.088305
873.730408	1317.757568	1618.691406	1299.893188	-5.936315
874.031189	1314.338989	1621.338013	1304.193848	-3.304617
874.331848	1314.780151	1621.227661	1298.900757	-5.181767
874.632568	1311.692627	1620.786499	1300.885742	-3.496312
874.933167	1311.251343	1620.896973	1303.201416	-2.599722
875.233704	1309.156250	1623.102295	1303.752808	-1.721137
875.534241	1308.494629	1626.630981	1302.098755	-2.010419
875.834717	1307.171509	1627.513184	1299.782959	-2.306459
876.135071	1303.752930	1634.570679	1299.672729	-1.233368
876.435425	1302.539917	1634.019165	1293.607788	-2.694627
876.735779	1304.635132	1635.893799	1293.938599	-3.229058
877.036011	1298.901001	1636.004150	1294.159180	-1.406638
877.336182	1297.246948	1638.650635	1295.703125	-0.452199
877.636353	1294.931152	1645.928589	1296.805664	0.534053
877.936462	1294.931030	1651.001099	1296.805664	0.526479
878.236511	1297.908447	1661.366821	1302.098877	1.152933
878.536560	1297.798218	1679.782349	1311.361816	3.550828
878.836487	1297.246826	1703.049805	1328.123169	7.608703
879.136414	1294.379639	1762.486816	1352.713989	12.461751
879.436279	1291.843506	1852.138428	1384.692993	16.571539
879.736084	1293.276855	1963.513550	1420.090576	18.920736
880.035828	1290.961182	2086.908691	1458.244873	21.016926
880.335510	1293.938477	2202.694824	1494.634888	22.084732
880.635193	1293.276855	2303.594238	1528.047485	23.237314
880.934753	1297.797852	2393.576904	1561.790771	24.091803
881.234314	1296.474854	2473.193359	1588.366455	24.805559
881.533752	1298.569946	2539.467529	1607.002563	24.855606
881.833252	1297.798096	2600.889404	1626.851563	25.251759
882.132629	1298.570068	2658.892822	1648.354736	25.713358
882.431946	1298.680298	2704.766113	1660.154053	25.707802
882.731323	1299.893433	2746.559326	1675.481934	25.962353
883.030579	1298.459839	2780.192627	1683.200928	25.965618
883.329712	1298.018677	2813.053955	1693.456299	26.100885
883.628845	1298.790527	2833.675049	1695.000000	25.813635
883.927979	1298.900879	2847.128174	1696.433350	25.676622
884.226990	1299.452148	2858.045166	1701.726563	25.810101
884.526001	1296.144043	2861.684082	1702.719116	25.970276
884.824951	1296.695435	2855.398682	1698.528687	25.779972
885.123840	1295.702881	2838.306396	1687.280884	25.384228
885.422729	1297.687744	2793.645996	1667.762695	24.738321
885.721497	1300.223999	2709.948975	1637.878662	23.951811
886.020203	1301.216553	2605.962158	1601.929932	23.047663
886.318909	1302.760376	2484.331299	1560.687866	21.829201
886.617554	1302.980835	2367.773193	1521.320557	20.505381
886.916138	1302.980957	2268.858643	1492.649780	19.636940
887.214661	1300.554932	2181.522705	1459.788574	18.074854
887.513184	1301.106323	2099.369629	1433.102661	16.535439
887.811523	1298.018677	2028.905518	1414.907593	15.992751
888.109924	1303.752808	1794.686401	1380.171753	15.566045
888.408264	1292.174194	1871.105347	1363.961670	12.400002
888.706543	1294.489868	1690.478760	1322.278564	7.017544
889.004761	1331.541504	1743.740479	1310.699951	-5.056188
889.302979	1313.015747	1655.742920	1238.912598	-21.621614
889.601135	1329.225830	1637.217163	1278.279907	-16.541349
889.899170	1282.911255	1678.900146	1347.751587	16.374281
890.197205	1313.015747	1667.321533	1229.649658	-23.529417
890.495178	1299.121338	1597.849854	1296.805664	-0.775177
890.793091	1271.332642	1570.061157	1324.594360	17.829473
>>>>>End Processed Spectral Data<<<<<
