Jaz Data File
++++++++++++++++++++++++++++++++++++
Date: Thu Sep 26 04:28:34 2019
User: jaz
Dark Spectrum Present: Yes
Reference Spectrum Present: Yes
Processed Spectrum Present: Yes
Spectrometers: JAZA3541
Integration Time (usec): 100000 (JAZA3541)
Spectra Averaged: 1 (JAZA3541)
Boxcar Smoothing: 10 (JAZA3541)
Correct for Electrical Dark: No (JAZA3541)
Strobe/Lamp Enabled: Yes (JAZA3541)
Correct for Detector Non-linearity: No (JAZA3541)
Correct for Stray Light: No (JAZA3541)
Number of Pixels in Processed Spectrum: 2048
>>>>>Begin Processed Spectral Data<<<<<
W	D	R	S	P
190.543274	0.000000	0.000000	0.000000	0.000000
190.921555	0.000000	0.000000	0.000000	0.000000
191.299805	1296.805664	1336.172974	1227.333862	-176.470795
191.678024	1229.649658	1322.278564	1222.702515	-7.499974
192.056229	1345.435913	1313.015747	1234.281128	342.856934
192.434387	1331.541504	1278.279907	1241.228271	169.565384
192.812531	1303.752808	1324.594360	1250.491211	-255.554840
193.190659	1310.699951	1296.805664	1204.176636	766.669861
193.568741	1319.962891	1359.330200	1262.069824	-147.058731
193.946793	0.000000	0.000000	0.000000	0.000000
194.324829	1207.815674	1211.785522	1106.695679	-2547.200195
194.702835	1271.994385	1273.317627	1165.911987	-8016.854004
195.080811	1337.606445	1335.070313	1226.892822	4365.450684
195.458755	1337.827148	1332.203125	1224.687378	2011.722900
195.836685	1338.268188	1331.541626	1224.246338	1695.098389
196.214569	1339.811890	1336.172974	1225.018188	3154.612549
196.592422	1341.907104	1340.032471	1225.569702	6205.873535
196.970261	1342.679077	1342.127686	1223.694946	21578.878906
197.348068	1343.781860	1343.120117	1219.724976	18746.984375
197.725861	1344.222900	1342.127563	1216.968140	6073.236328
198.103622	1343.561279	1338.157837	1222.261230	2244.866211
198.481323	1340.253052	1337.496216	1225.128418	4175.969727
198.859039	1337.937378	1335.290771	1225.238647	4258.235352
199.236694	1335.070313	1335.621460	1228.877686	-19267.552734
199.614334	1333.416138	1335.511230	1230.200928	-4926.521973
199.991959	1329.115479	1337.937134	1230.972900	-1112.518799
200.369553	1324.373657	1337.826904	1234.832520	-665.572693
200.747101	1322.499023	1341.355835	1236.376343	-456.719208
201.124619	1320.514038	1341.576294	1243.433838	-365.963654
201.502136	1316.323608	1346.538452	1243.102905	-242.333542
201.879623	1313.677246	1349.736450	1242.331055	-197.858475
202.257065	1311.030640	1351.500854	1241.779541	-171.116211
202.634476	1309.927979	1352.934570	1241.889771	-158.204132
203.011871	1305.186279	1354.809082	1242.110352	-127.110771
203.389221	1303.091064	1361.866455	1243.984985	-100.562630
203.766571	1304.745117	1367.931519	1248.175415	-89.528290
204.143875	1300.334229	1365.064331	1246.411011	-83.304703
204.521164	1296.254272	1365.284912	1244.977539	-74.281120
204.898392	1297.798096	1363.300049	1244.426025	-81.481644
205.275620	1298.459717	1368.703369	1251.593872	-66.718971
205.652817	1293.718018	1368.482910	1254.460938	-52.507370
206.029984	1293.607666	1372.673218	1253.689087	-50.487953
206.407135	1291.953613	1374.988892	1255.012329	-44.488663
206.784225	1292.394775	1374.437378	1255.343140	-45.161457
207.161301	1293.607910	1372.893555	1250.050049	-54.937893
207.538376	1298.570190	1373.555176	1249.057495	-66.030144
207.915405	1302.209229	1370.798462	1249.388428	-77.010338
208.292404	1303.422119	1370.798584	1246.741943	-84.124588
208.669373	1305.406860	1366.718506	1242.772095	-102.158028
209.046310	1302.319336	1363.961670	1236.817383	-106.261314
209.423218	1303.863159	1361.645874	1237.368774	-115.076599
209.800095	1305.737793	1357.124756	1238.692017	-130.472351
210.176956	1308.715210	1353.265137	1238.802368	-156.931442
210.553787	1308.163818	1355.911743	1237.589355	-147.806351
210.930603	1309.597412	1356.242554	1235.494141	-158.865997
211.307358	1315.221313	1353.485718	1234.611938	-210.664139
211.684113	1317.316406	1349.846680	1231.413940	-264.069305
212.060837	1316.985596	1348.413086	1235.604370	-258.949158
212.437531	1316.765015	1350.839233	1234.391357	-241.747757
212.814178	1314.008179	1354.037109	1235.383911	-196.418610
213.190826	1312.574585	1351.280273	1232.958008	-205.697357
213.567413	1313.125977	1352.383057	1231.303833	-208.426468
213.943985	1310.258789	1357.345337	1229.649780	-171.193283
214.320541	1309.266479	1357.124756	1229.429199	-166.820221
214.697052	1307.612305	1361.315186	1229.098267	-146.200790
215.073563	1309.266357	1363.300049	1232.516968	-142.039871
215.449997	1303.863159	1360.874023	1233.068237	-124.177948
215.826431	1301.326904	1362.086914	1231.965454	-114.156418
216.202850	1300.334351	1364.954102	1233.288574	-103.754311
216.579224	1298.459717	1369.695923	1232.957886	-91.950195
216.955582	1300.885742	1374.989014	1233.398926	-91.071304
217.331894	1300.554932	1374.217041	1230.421387	-95.209801
217.708191	1300.003418	1376.863647	1230.421387	-90.530609
218.084442	1300.113770	1383.480103	1231.524170	-82.274940
218.460678	1296.915771	1384.141602	1233.509155	-72.692474
218.836899	1295.041260	1385.685303	1232.406494	-69.099701
219.213074	1292.615234	1387.339478	1236.596802	-59.138432
219.589233	1294.269287	1392.191650	1237.479004	-57.995213
219.965347	1296.805542	1398.697510	1237.148193	-58.549610
220.341431	1295.592529	1399.359131	1241.118164	-52.497013
220.717499	1296.254150	1400.241455	1243.213257	-51.007084
221.093552	1295.041260	1402.336548	1245.749390	-45.940388
221.469543	1299.011108	1407.078247	1244.315796	-50.612343
221.845535	1302.980835	1407.409058	1248.616455	-52.059086
222.221466	1305.296631	1411.709595	1247.734253	-54.093388
222.597397	1305.186279	1417.884766	1247.954834	-50.782799
222.973297	1302.760376	1426.706543	1249.498657	-42.971653
223.349167	1300.554932	1437.403076	1248.175415	-38.275650
223.725006	1297.467285	1446.996826	1248.837158	-32.522087
224.100800	1295.041260	1454.385010	1251.042480	-27.612492
224.476578	1295.372070	1465.081543	1253.468506	-24.691353
224.852325	1297.577515	1475.778076	1252.365845	-25.371227
225.228058	1298.680298	1495.847778	1259.202759	-20.022337
225.603760	1297.577637	1523.195313	1264.936890	-14.467282
225.979416	1295.261963	1552.086792	1269.237427	-10.133185
226.355057	1295.372192	1590.351318	1273.317505	-7.476694
226.730652	1296.805664	1642.069214	1281.588013	-4.407547
227.106232	1296.915894	1691.912231	1285.778320	-2.819665
227.481796	1294.159180	1736.903687	1287.983765	-1.394803
227.857315	1292.946167	1778.145630	1291.622803	-0.272746
228.232788	1296.033813	1815.638184	1293.828247	-0.424470
228.608246	1296.695435	1848.058350	1300.334229	0.659963
228.983704	1297.026245	1883.345459	1305.406860	1.429361
229.359100	1297.577637	1916.206665	1311.471802	2.245961
229.734482	1293.166748	1945.870117	1310.810303	2.703151
230.109833	1290.189453	1973.768921	1316.434082	3.839294
230.485153	1290.189331	1989.979126	1321.837524	4.522529
230.860443	1289.527710	2012.585205	1325.255981	4.941277
231.235703	1293.166748	2031.331421	1332.203125	5.288302
231.610931	1293.607788	2055.481445	1337.937256	5.818480
231.986145	1293.056396	2079.300049	1341.686523	6.185122
232.361313	1290.189209	2098.708252	1346.869385	7.010370
232.736465	1287.983765	2121.313965	1354.147461	7.939673
233.111572	1285.888550	2134.656982	1359.991943	8.730697
233.486664	1288.865845	2141.052734	1363.851440	8.799196
233.861725	1290.409668	2141.604248	1365.836304	8.861268
234.236755	1292.284302	2138.957520	1366.939087	8.817426
234.611771	1296.474731	2120.873047	1364.072021	8.199591
234.986740	1298.900635	2101.023926	1364.292603	8.152359
235.361679	1299.782959	2083.710938	1368.593140	8.777616
235.736588	1298.570068	2073.235107	1370.357544	9.266905
236.111496	1297.908447	2069.375488	1378.517700	10.448827
236.486343	1298.459717	2071.139893	1376.753174	10.132712
236.861160	1301.106323	2071.250000	1380.392334	10.294964
237.235962	1300.334351	2079.961426	1386.788086	11.089114
237.610733	1302.760376	2089.996338	1396.932983	11.962438
237.985474	1301.437134	2106.978271	1402.777588	12.580420
238.360199	1300.665283	2140.501221	1414.907593	13.602932
238.734879	1301.767944	2177.662842	1427.919678	14.402611
239.109543	1300.334473	2227.616455	1443.358032	15.423955
239.484177	1304.635132	2281.650146	1468.058960	16.726849
239.858749	1310.810303	2350.680908	1492.760010	17.497341
240.233322	1311.361694	2434.047119	1520.548828	18.632748
240.607864	1313.126099	2511.899414	1553.520264	20.053347
240.982391	1314.559570	2592.618896	1580.978271	20.845566
241.356857	1316.213745	2651.063232	1603.142822	21.495237
241.731308	1315.000610	2704.435059	1626.851563	22.444452
242.105728	1317.977905	2744.684814	1649.457397	23.233889
242.480118	1312.354126	2785.926758	1671.732300	24.388222
242.854492	1310.479492	2835.880127	1696.433594	25.301819
243.228836	1309.045898	2893.442383	1717.385376	25.772556
243.603134	1312.905518	2957.290283	1746.276733	26.354612
243.977402	1312.023193	3046.721436	1781.453735	27.061222
244.351654	1310.920532	3168.241699	1835.707764	28.255060
244.725861	1310.810303	3315.235107	1884.007202	28.596579
245.100067	1311.912964	3466.970215	1948.847412	29.555340
245.474213	1311.361694	3603.377197	2009.718018	30.469091
245.848343	1316.985474	3710.341553	2062.207764	31.137127
246.222443	1318.198486	3794.700195	2099.810547	31.561136
246.596512	1318.419067	3855.019287	2132.230713	32.082771
246.970566	1321.286133	3892.181641	2158.144775	32.551250
247.344574	1320.845093	3904.862793	2172.039307	32.940727
247.718567	1317.206055	3891.740234	2177.883789	33.430424
248.092529	1318.749756	3859.430420	2178.214600	33.828133
248.466431	1315.441650	3833.075195	2170.716064	33.971363
248.840332	1313.236206	3807.051025	2165.753662	34.185272
249.214203	1311.030640	3809.476563	2171.377441	34.435280
249.588043	1313.787598	3825.797363	2180.861084	34.517124
249.961838	1310.038330	3853.696045	2197.291748	34.881008
250.335617	1313.677124	3886.888428	2216.037842	35.067493
250.709381	1313.456665	3901.664795	2221.220947	35.073082
251.083084	1318.198608	3899.569824	2228.278320	35.255672
251.456787	1314.780029	3882.367188	2222.103027	35.337574
251.830460	1316.434204	3829.656738	2203.356689	35.290249
252.204071	1313.456787	3746.069824	2170.274902	35.222130
252.577667	1310.038452	3638.995117	2139.619141	35.620274
252.951248	1310.369263	3513.615234	2092.422363	35.495495
253.324799	1308.604858	3406.099365	2046.438843	35.176918
253.698303	1305.737671	3326.152100	2014.900879	35.099888
254.071793	1305.296631	3267.817627	1994.610718	35.123909
254.445236	1304.083618	3233.853760	1977.738892	34.908577
254.818665	1300.113770	3219.959473	1969.027100	34.842037
255.192062	1300.003418	3219.077393	1967.373169	34.775612
255.565430	1300.444458	3243.888672	1972.666260	34.589199
255.938782	1301.878052	3283.365967	1988.325317	34.643021
256.312103	1304.745117	3340.266846	2014.680420	34.877316
256.685364	1306.730225	3419.442383	2046.769775	35.027939
257.058594	1304.965820	3518.357178	2086.798828	35.322853
257.431793	1302.098633	3646.714600	2131.348633	35.368267
257.804993	1302.760254	3790.178955	2176.119141	35.111053
258.178162	1299.672729	3928.240234	2221.110596	35.054756
258.551270	1298.128906	4052.517578	2265.550293	35.122906
258.924377	1294.379639	4145.587402	2299.844971	35.264542
259.297485	1293.938599	4222.999023	2328.405762	35.317371
259.670502	1293.056396	4286.625977	2353.106934	35.410919
260.043518	1295.151489	4346.063477	2373.727783	35.352585
260.416473	1298.569946	4394.473145	2394.018066	35.383797
260.789459	1297.026123	4449.830078	2413.315430	35.406239
261.162354	1297.246704	4497.467773	2433.605713	35.508766
261.535278	1298.349365	4541.796875	2451.800781	35.562511
261.908142	1298.790527	4576.092285	2460.071045	35.434044
262.280975	1301.216553	4595.279297	2475.178467	35.638725
262.653717	1302.870605	4609.834961	2478.265625	35.543022
263.026520	1300.113892	4627.809570	2477.493896	35.381241
263.399261	1297.357056	4643.688477	2481.573730	35.388504
263.771973	1296.915894	4654.495605	2480.140381	35.240398
264.144653	1298.239258	4653.502930	2470.216064	34.929501
264.517334	1301.106323	4633.103027	2459.629883	34.769650
264.889954	1302.208862	4586.678223	2434.046631	34.460293
265.262543	1305.627563	4506.179199	2404.714355	34.340542
265.635071	1308.053589	4405.610840	2366.891113	34.182987
266.007599	1311.802856	4310.224609	2327.964844	33.889893
266.380127	1312.133545	4240.201660	2295.765381	33.593201
266.752594	1315.882935	4205.575684	2278.452148	33.310432
267.125031	1315.000732	4197.084473	2271.946289	33.203255
267.497437	1313.236328	4212.963867	2270.402100	33.008816
267.869843	1316.544556	4239.098633	2276.908203	32.860424
268.242218	1313.567261	4277.473633	2289.038330	32.911671
268.614532	1311.913208	4335.697754	2308.446289	32.956482
268.986816	1312.354126	4430.973633	2331.603516	32.682709
269.359100	1311.471924	4539.150879	2358.069092	32.425690
269.731354	1310.038452	4652.510742	2391.371582	32.351299
270.103516	1311.030762	4749.219727	2413.094971	32.053627
270.475708	1311.361572	4830.049805	2437.686035	32.009785
270.847839	1314.890381	4902.499023	2462.938232	32.000366
271.219971	1318.419067	4961.053711	2474.406738	31.734932
271.592041	1320.403809	5006.596191	2480.912842	31.482595
271.964081	1321.065552	5036.369629	2487.198242	31.387274
272.336151	1316.434204	5064.048340	2488.521729	31.275564
272.708130	1316.654785	5090.182129	2492.491455	31.160147
273.080109	1313.015869	5107.385254	2491.829834	31.067453
273.452026	1311.582275	5141.238770	2496.240723	30.933804
273.823914	1310.369263	5176.085449	2503.959717	30.876308
274.195770	1310.369263	5215.893555	2514.325439	30.827003
274.567627	1309.376831	5261.987793	2522.816650	30.699703
274.939423	1310.700073	5304.332031	2533.182373	30.610790
275.311249	1312.243896	5345.464355	2543.327148	30.523579
275.682983	1310.479492	5376.120117	2548.730469	30.456478
276.054688	1309.707520	5401.151855	2546.194336	30.221279
276.426422	1307.943115	5403.577148	2536.490234	29.996506
276.798065	1312.243896	5370.495117	2524.470703	29.870670
277.169708	1313.236206	5325.172852	2501.313232	29.613554
277.541321	1317.757446	5277.536133	2485.213379	29.482857
277.912903	1316.985352	5267.832031	2477.273682	29.368093
278.284424	1316.764893	5279.741211	2476.722168	29.269852
278.655945	1315.882813	5301.685547	2484.110352	29.309717
279.027435	1312.574707	5332.010254	2501.312988	29.574757
279.398865	1310.920532	5391.226563	2529.211914	29.857841
279.770294	1307.502075	5467.424805	2557.993408	30.060446
280.141663	1310.810303	5539.763672	2585.671631	30.146027
280.513031	1313.015869	5615.631348	2612.357666	30.198885
280.884369	1315.993164	5680.912598	2635.735596	30.235207
281.255676	1314.559570	5725.462402	2653.158691	30.347509
281.626953	1313.787720	5763.727051	2675.102783	30.591766
281.998199	1316.654907	5805.189453	2699.583252	30.810242
282.369385	1313.346680	5856.245605	2723.512695	31.041105
282.740540	1313.236328	5915.572754	2742.259033	31.049940
283.111694	1311.802856	5983.280273	2762.879883	31.062485
283.482819	1310.479492	6070.064941	2801.034180	31.316902
283.853912	1314.559570	6165.339844	2833.233643	31.307831
284.224945	1315.441772	6257.858398	2871.387939	31.481485
284.595978	1313.346436	6348.502930	2911.747803	31.744822
284.966980	1311.030762	6425.914551	2953.320801	32.108063
285.337952	1309.817749	6500.238281	2989.379639	32.358879
285.708893	1306.730103	6535.746094	3014.742432	32.664124
286.079803	1305.406860	6558.352051	3038.671387	32.996052
286.450684	1304.745239	6574.893066	3060.725830	33.319378
286.821533	1307.391846	6588.677246	3082.780518	33.616604
287.192322	1306.399414	6596.506836	3106.268311	34.023296
287.563110	1307.391968	6602.571289	3137.916748	34.569649
287.933868	1303.642700	6627.272461	3173.093262	35.116089
288.304596	1299.672852	6668.735352	3222.716064	35.817112
288.675262	1300.885742	6725.304199	3283.366455	36.547340
289.045929	1301.326782	6777.683594	3346.111328	37.338409
289.416565	1300.113770	6826.645020	3391.323242	37.839458
289.787170	1296.805664	6843.957520	3434.880859	38.543655
290.157745	1293.718018	6845.170898	3474.137695	39.276558
290.528259	1293.497437	6840.870605	3520.562988	40.146309
290.898773	1294.820801	6830.614746	3565.002930	41.009151
291.269226	1294.269287	6813.852539	3602.716064	41.822849
291.639679	1290.630371	6797.202148	3650.905029	42.862869
292.010101	1294.820801	6810.876465	3702.291748	43.644791
292.380463	1293.828369	6840.539551	3764.375488	44.540760
292.750824	1298.680298	6882.332031	3827.561279	45.290806
293.121155	1300.775391	6928.756836	3892.291748	46.046997
293.491455	1307.502197	6990.068359	3963.968262	46.747646
293.861725	1310.920532	7072.000977	4041.931152	47.404488
294.231964	1313.125977	7184.479004	4125.958984	47.907749
294.602142	1314.669678	7298.721680	4218.256836	48.522095
294.972321	1314.669800	7398.077148	4306.695801	49.183388
295.342468	1316.213623	7496.991699	4381.350586	49.591438
295.712555	1317.095825	7559.295410	4454.351074	50.258812
296.082672	1318.419067	7583.776855	4501.878418	50.810497
296.452728	1315.882813	7585.761719	4529.666992	51.257515
296.822693	1319.080688	7589.400879	4551.611328	51.552879
297.192657	1321.065552	7589.180664	4576.312012	51.933418
297.562622	1322.388916	7606.824219	4603.880371	52.216167
297.932556	1326.027954	7627.886230	4629.022461	52.413025
298.302460	1328.233398	7634.833496	4651.077148	52.688354
298.672333	1327.792358	7640.347656	4669.492676	52.937363
299.042145	1329.005127	7636.597656	4681.843262	53.155590
299.411957	1330.218140	7623.033691	4689.562500	53.383804
299.781677	1326.027954	7584.768555	4690.665039	53.759014
300.151428	1326.579224	7523.125977	4675.778320	54.049446
300.521149	1326.248291	7458.727051	4654.716309	54.276066
300.890839	1322.829956	7386.829590	4628.802246	54.518017
301.260468	1317.095825	7310.961914	4595.720215	54.699661
301.630096	1318.418945	7223.515625	4560.322754	54.900097
301.999695	1319.080688	7102.436523	4510.810547	55.188198
302.369232	1316.323975	6976.063965	4451.924805	55.401852
302.738739	1314.449219	6859.727051	4388.187012	55.429825
303.108246	1310.699951	6722.106445	4324.891113	55.700699
303.477692	1311.251343	6610.841309	4261.594727	55.671162
303.847137	1311.361816	6522.182129	4210.317383	55.633381
304.216553	1311.361572	6456.680176	4178.118164	55.715824
304.585876	1310.369141	6397.794434	4152.755371	55.870819
304.955231	1309.597046	6350.267090	4137.207031	56.095913
305.324493	1306.619751	6311.010254	4121.768555	56.253582
305.693787	1306.178711	6280.244629	4113.167480	56.432480
306.063049	1306.509521	6274.399414	4108.756836	56.407196
306.432251	1307.391846	6272.414551	4112.726074	56.501945
306.801422	1305.627319	6267.783691	4120.114258	56.719028
307.170593	1304.524658	6268.334961	4128.495117	56.891182
307.539673	1303.642456	6275.171875	4136.324707	56.978085
307.908783	1304.304077	6290.831055	4143.602539	56.939396
308.277832	1302.650146	6307.150879	4156.173828	57.019146
308.646851	1300.444702	6338.357910	4173.155273	57.021835
309.015839	1303.973389	6378.717773	4201.275391	57.092571
309.384796	1298.239258	6410.586914	4221.896484	57.188152
309.753723	1295.151733	6446.205566	4240.201660	57.173737
310.122620	1294.600220	6472.339844	4253.765137	57.151676
310.491486	1296.144165	6484.690430	4268.873047	57.294064
310.860352	1299.342041	6501.231445	4282.215820	57.342121
311.229126	1299.452148	6515.456055	4291.809570	57.368774
311.597931	1298.680298	6523.726074	4304.490723	57.526970
311.966675	1300.224121	6544.016602	4318.054199	57.550526
312.335388	1300.665161	6579.523926	4333.161621	57.446064
312.704071	1298.680298	6617.236816	4351.246094	57.394630
313.072723	1301.326904	6632.564941	4361.942871	57.409100
313.441345	1301.988525	6630.139160	4366.132813	57.508591
313.809875	1302.650146	6611.061523	4355.436523	57.508476
314.178436	1298.459839	6573.018066	4341.872559	57.699860
314.546967	1304.193970	6535.194824	4315.517578	57.566875
314.915466	1304.635132	6494.283691	4288.941895	57.504986
315.283936	1308.604858	6440.911621	4260.822754	57.522240
315.652374	1309.266602	6398.125977	4226.527344	57.326416
316.020752	1307.943237	6345.084961	4198.297852	57.380848
316.389130	1313.236328	6299.542480	4175.692383	57.406345
316.757416	1313.346680	6259.072266	4162.128906	57.600895
317.125732	1312.574585	6233.378418	4141.728027	57.493725
317.494019	1313.126099	6201.399414	4127.393066	57.571800
317.862274	1315.441895	6169.530762	4109.749023	57.566048
318.230469	1314.338989	6137.441406	4088.907715	57.526642
318.598663	1315.441772	6109.211914	4072.697510	57.517483
318.966797	1315.221069	6076.571289	4054.833740	57.538570
319.334930	1314.449341	6049.113281	4037.410645	57.511185
319.703003	1310.148682	6018.347656	4012.930176	57.405846
320.071045	1307.612305	5975.341309	3989.220947	57.449963
320.439056	1306.178711	5939.722656	3968.379395	57.454956
320.807037	1306.399292	5937.627441	3957.132080	57.236069
321.175049	1305.296631	5958.910156	3957.573242	56.993919
321.542969	1301.878052	5990.778809	3971.357178	56.931870
321.910828	1306.178711	6035.219238	3992.750000	56.810070
322.278717	1304.965820	6093.112305	4019.877197	56.700676
322.646515	1308.053345	6142.183594	4041.821533	56.551392
323.014313	1307.501953	6192.908691	4065.860596	56.461185
323.382111	1304.855469	6229.739746	4097.508789	56.704952
323.749817	1304.745117	6278.259766	4120.666016	56.618328
324.117523	1303.752808	6305.828125	4131.913574	56.539745
324.485199	1301.326782	6320.052734	4131.913086	56.400497
324.852814	1304.193970	6319.501465	4134.119629	56.425766
325.220428	1306.399292	6317.957520	4130.811523	56.357964
325.588013	1305.075928	6324.794434	4134.670898	56.369591
325.955536	1308.384155	6334.498535	4137.097168	56.280315
326.323059	1308.825317	6352.804199	4148.014160	56.288677
326.690552	1309.597168	6376.622070	4158.379395	56.221989
327.058014	1311.030640	6396.030273	4165.326172	56.131676
327.425415	1314.338989	6409.152344	4177.456543	56.196712
327.792816	1317.977905	6423.708984	4183.411133	56.121899
328.160187	1320.955322	6430.545410	4179.882324	55.952183
328.527496	1321.837646	6416.541504	4177.346191	56.048565
328.894775	1322.940430	6410.255859	4176.794434	56.097446
329.262054	1325.697144	6391.839844	4170.839355	56.159931
329.629303	1323.712280	6378.275879	4161.024902	56.133678
329.996490	1321.837646	6364.161621	4153.195801	56.151848
330.363647	1317.977905	6370.558105	4158.819824	56.225567
330.730774	1316.985718	6381.474609	4167.972656	56.293674
331.097839	1316.544434	6412.020020	4177.457031	56.146133
331.464935	1316.103394	6438.044434	4198.739258	56.280144
331.831970	1312.353882	6459.437500	4209.876953	56.294460
332.198975	1311.802490	6487.336426	4225.866211	56.304600
332.565948	1311.582153	6516.007324	4242.627441	56.318329
332.932892	1304.965698	6553.610352	4262.917969	56.356495
333.299744	1305.406860	6581.950195	4282.546387	56.422157
333.666656	1301.878174	6619.553711	4308.460938	56.539413
334.033478	1300.444702	6650.540039	4320.920898	56.456493
334.400299	1300.665283	6674.027344	4343.307129	56.624542
334.767090	1298.570068	6710.527344	4361.061035	56.587498
335.133850	1299.562622	6735.669434	4375.065430	56.575466
335.500549	1296.805786	6758.166016	4392.157227	56.677299
335.867218	1291.622803	6781.985352	4410.903809	56.813755
336.233917	1292.725586	6818.154785	4429.318848	56.766510
336.600525	1292.505005	6834.694824	4441.118164	56.811718
336.967102	1293.938599	6855.757324	4453.468750	56.807499
337.333649	1296.915894	6867.004395	4455.343262	56.703362
337.700195	1294.269287	6866.563965	4459.754395	56.807568
338.066681	1296.254150	6856.970215	4460.967773	56.911983
338.433136	1295.813110	6847.266602	4453.579590	56.881798
338.799591	1296.254272	6825.983398	4448.837891	57.011536
339.165985	1296.584961	6811.758789	4430.752441	56.828083
339.532318	1300.775391	6816.390625	4444.205566	56.991470
339.898651	1300.995972	6828.851074	4443.653809	56.851307
340.264954	1300.444580	6846.163574	4447.624023	56.749714
340.631226	1305.627319	6861.712891	4465.046875	56.864124
340.997467	1305.406860	6901.410645	4475.522949	56.649643
341.363678	1306.840454	6942.652344	4496.364746	56.593876
341.729828	1308.274048	6995.914551	4525.366699	56.562870
342.095947	1305.627563	7056.674316	4555.912598	56.516407
342.462067	1306.178833	7114.677734	4596.051758	56.638954
342.828156	1305.076050	7183.377441	4639.608887	56.726128
343.194183	1304.414551	7254.171875	4675.667969	56.662033
343.560211	1309.597290	7313.718750	4709.852539	56.632019
343.926178	1311.582275	7371.282227	4744.037109	56.643970
344.292114	1310.259155	7404.143066	4760.908691	56.624798
344.658020	1307.502197	7440.643066	4776.125977	56.555424
345.023926	1307.943237	7478.025391	4796.306152	56.536732
345.389771	1309.817871	7515.187500	4815.052734	56.487125
345.755585	1307.061157	7535.036621	4817.147949	56.359997
346.121368	1309.376953	7556.099121	4829.499023	56.351505
346.487122	1309.707642	7582.233398	4838.872070	56.263851
346.852844	1309.597412	7608.037109	4852.435059	56.249451
347.218536	1308.163818	7628.216309	4854.640625	56.114670
347.584167	1309.487061	7650.822266	4874.048340	56.211529
347.949768	1309.487061	7669.127930	4888.163086	56.271671
348.315369	1310.259033	7693.718750	4894.779297	56.153252
348.680939	1312.684937	7708.384766	4909.777344	56.242359
349.046448	1312.464478	7717.426270	4909.446289	56.159302
349.411957	1310.810303	7721.727051	4915.510742	56.227531
349.777435	1313.677490	7716.654785	4908.563477	56.143974
350.142792	1315.772705	7705.848145	4898.749023	56.070957
350.508209	1317.757568	7707.170898	4891.471191	55.931797
350.873566	1320.734985	7710.369629	4898.417969	55.991982
351.238892	1324.153320	7723.822754	4913.415039	56.085110
351.604187	1317.647217	7751.722656	4928.632813	56.122837
351.969482	1319.521973	7817.224609	4964.030273	56.089184
352.334717	1317.647339	7876.330566	5001.964355	56.174644
352.699890	1318.308838	7959.255371	5054.674805	56.262554
353.065063	1317.647217	8043.062500	5101.760742	56.265873
353.430237	1317.095825	8157.305176	5164.947266	56.253418
353.795319	1313.456787	8287.425781	5231.441406	56.180130
354.160370	1313.897827	8413.466797	5301.133789	56.161663
354.525421	1315.441650	8548.000977	5387.477539	56.301449
354.890442	1315.993164	8704.146484	5478.893066	56.345608
355.255402	1310.589600	8870.106445	5579.792969	56.474552
355.620331	1311.912964	9055.035156	5688.300781	56.519680
355.985260	1311.913086	9232.242188	5793.280273	56.580566
356.350098	1310.699951	9388.499023	5878.411621	56.546494
356.714935	1313.015869	9533.837891	5962.438965	56.556664
357.079742	1313.456909	9660.432617	6039.409180	56.618736
357.444519	1311.361694	9805.770508	6121.893066	56.631733
357.809296	1311.030762	9967.540039	6216.727539	56.670609
358.173981	1309.266479	10156.877930	6318.068359	56.611912
358.538605	1307.171265	10367.388672	6434.846680	56.595497
358.903259	1303.091187	10606.127930	6570.372070	56.618938
359.267914	1305.958008	10871.113281	6730.157227	56.707905
359.632477	1302.208740	11147.125000	6886.964355	56.727310
359.997009	1303.091064	11412.661133	7041.014648	56.757347
360.361542	1299.893188	11615.783203	7161.983398	56.825832
360.726013	1303.201416	11769.945313	7253.840820	56.852825
361.090485	1304.304321	11863.676758	7317.247070	56.944134
361.454895	1310.259033	11911.866211	7350.108398	56.971073
361.819244	1311.251343	11933.588867	7370.950684	57.046757
362.183594	1308.935791	11933.038086	7370.398926	57.053883
362.547913	1305.958374	11891.907227	7348.344727	57.079304
362.912201	1310.148682	11832.580078	7308.977539	57.009914
363.276489	1311.692383	11753.514648	7257.370605	56.941002
363.640686	1309.045898	11666.289063	7200.028320	56.877899
364.004883	1308.053467	11603.984375	7161.873535	56.855671
364.369049	1307.502075	11540.247070	7131.879395	56.919014
364.733154	1305.627319	11501.651367	7102.768066	56.856873
365.097198	1305.296631	11440.780273	7072.663086	56.902725
365.461273	1304.855469	11349.916992	7025.025391	56.945095
365.825287	1303.863037	11219.022461	6954.450684	56.989380
366.189270	1305.517212	11049.423828	6855.756836	56.961136
366.553223	1306.509644	10853.798828	6738.426270	56.894859
366.917114	1304.083740	10603.810547	6583.052734	56.764774
367.281006	1309.156250	10322.946289	6430.767090	56.819725
367.644867	1308.715088	10066.894531	6280.795410	56.770702
368.008698	1311.251465	9856.163086	6152.217773	56.653202
368.372498	1305.958374	9704.648438	6061.904785	56.627235
368.736237	1305.075928	9600.442383	5997.174316	56.562889
369.099976	1302.429565	9538.358398	5958.468750	56.533260
369.463654	1301.988525	9494.360352	5926.709961	56.451557
369.827332	1302.208862	9463.153320	5897.157227	56.304123
370.190948	1304.193848	9440.435547	5882.932129	56.275841
370.554535	1302.650146	9416.837891	5865.178223	56.229023
370.918091	1301.106445	9393.791016	5856.466309	56.289848
371.281647	1303.091309	9380.999023	5846.652344	56.246758
371.645111	1305.848267	9366.443359	5843.233398	56.290947
372.008575	1305.186523	9363.686523	5841.689941	56.294640
372.371979	1305.406982	9347.367188	5838.602539	56.369286
372.735382	1308.604858	9362.143555	5844.447266	56.321110
373.098724	1308.384155	9392.909180	5859.885254	56.298931
373.462067	1307.501953	9422.242188	5896.274902	56.548611
373.825348	1305.847900	9491.492188	5938.399414	56.593609
374.188599	1304.855347	9567.139648	5987.581055	56.675919
374.551819	1305.517090	9684.690430	6054.075684	56.670963
374.915009	1303.091187	9826.390625	6130.494629	56.637726
375.278168	1303.532227	9977.463867	6210.883789	56.575863
375.641266	1299.672729	10109.459961	6286.860840	56.609631
376.004395	1302.319214	10216.204102	6346.739746	56.590595
376.367462	1305.296631	10289.535156	6387.650391	56.569664
376.730469	1302.980957	10335.959961	6422.717285	56.678276
377.093475	1300.995972	10366.173828	6450.395020	56.804169
377.456421	1299.672852	10399.367188	6477.853516	56.904995
377.819336	1303.201538	10434.763672	6494.062500	56.845264
378.182281	1304.304199	10477.661133	6512.699219	56.777412
378.545135	1306.619873	10523.974609	6536.407715	56.738495
378.907928	1304.965820	10570.621094	6567.173340	56.792610
379.270752	1303.752808	10610.319336	6581.398926	56.708843
379.633484	1304.304077	10644.283203	6601.688477	56.717300
379.996246	1308.604858	10675.931641	6611.613281	56.611755
380.358948	1305.737671	10694.016602	6625.177246	56.660431
380.721558	1306.509521	10717.394531	6630.800781	56.575882
381.084198	1307.281494	10758.856445	6633.667969	56.354488
381.446747	1309.156006	10778.814453	6645.467285	56.351681
381.809326	1310.589722	10797.670898	6643.813477	56.215645
382.171875	1312.574707	10791.716797	6647.783691	56.283665
382.534363	1312.354126	10755.877930	6630.360352	56.313793
382.896790	1311.361572	10704.710938	6610.180176	56.410316
383.259247	1315.441772	10669.204102	6595.845215	56.452183
383.621613	1316.544556	10660.161133	6588.787109	56.426147
383.983948	1316.765015	10687.950195	6612.275391	56.508434
384.346283	1317.647217	10738.124023	6636.535156	56.460918
384.708588	1315.772705	10823.144531	6671.491211	56.332272
385.070831	1320.073242	10899.012695	6719.128906	56.363815
385.433075	1315.662354	10992.963867	6770.516602	56.367516
385.795258	1316.765015	11075.448242	6830.284180	56.498592
386.157440	1312.133667	11151.536133	6876.598145	56.552868
386.519531	1312.795288	11244.496094	6917.950684	56.437012
386.881622	1310.810303	11316.504883	6966.802246	56.527733
387.243683	1310.700073	11391.710938	7007.602539	56.511223
387.605713	1307.391724	11473.091797	7058.549316	56.574142
387.967682	1309.817749	11555.907227	7104.752930	56.557526
388.329651	1307.832886	11652.283203	7159.889160	56.571941
388.691559	1308.053345	11748.441406	7226.824219	56.691105
389.053467	1303.752686	11868.749023	7285.599121	56.619488
389.415314	1301.326782	11987.513672	7360.474609	56.700752
389.777130	1303.752808	12107.820313	7425.424316	56.660805
390.138885	1299.782959	12230.442383	7489.934570	56.631088
390.500641	1300.665039	12323.181641	7542.645996	56.629364
390.862366	1296.584961	12410.408203	7588.078125	56.609619
391.224060	1296.364502	12484.620117	7633.180176	56.638100
391.585693	1297.246704	12571.514648	7677.288574	56.589413
391.947296	1298.569946	12659.623047	7722.168945	56.540527
392.308868	1304.524658	12724.023438	7768.483398	56.604576
392.670441	1304.304077	12789.525391	7798.918945	56.547577
393.031952	1307.171265	12819.077148	7822.847656	56.599457
393.393433	1306.399414	12846.205078	7829.022949	56.522820
393.754883	1308.494507	12861.644531	7834.536621	56.487122
394.116302	1307.502075	12850.395508	7834.536621	56.545914
394.477692	1311.141113	12853.373047	7833.985352	56.512848
394.839020	1310.589722	12852.491211	7823.509766	56.428482
395.200348	1310.589722	12851.718750	7816.782715	56.373974
395.561646	1308.825317	12834.958008	7804.211426	56.353561
395.922882	1312.574585	12799.230469	7792.853516	56.415710
396.284088	1313.787476	12739.682617	7755.582031	56.378902
396.645264	1316.103271	12662.161133	7715.552734	56.402405
397.006409	1316.985474	12567.545898	7669.017090	56.459690
397.367523	1312.905396	12464.992188	7606.161621	56.431198
397.728577	1317.426514	12368.834961	7559.847656	56.485298
398.089600	1319.080688	12297.267578	7520.479980	56.488377
398.450592	1319.631958	12241.248047	7483.538574	56.437679
398.811584	1319.631958	12182.804688	7454.756836	56.476364
399.172546	1317.536865	12098.225586	7401.164551	56.430794
399.533447	1316.323853	12017.835938	7359.481934	56.470135
399.894318	1310.479492	11962.148438	7316.035156	56.381359
400.255127	1308.935791	11911.533203	7292.216309	56.432213
400.615936	1307.502197	11882.752930	7280.637695	56.482212
400.976685	1307.171387	11886.833008	7290.450684	56.554539
401.337433	1305.517212	11916.826172	7309.749023	56.583332
401.698151	1304.745483	11971.852539	7357.386719	56.741165
402.058807	1301.657715	12056.542969	7419.580566	56.885063
402.419434	1299.672729	12151.487305	7485.523926	57.002918
402.780060	1297.467285	12260.105469	7549.592285	57.031204
403.140594	1296.364624	12359.020508	7606.383301	57.038910
403.501129	1292.394775	12453.856445	7660.747070	57.056618
403.861633	1291.181763	12540.641602	7712.795898	57.083755
404.222076	1289.196777	12626.102539	7759.661621	57.074345
404.582550	1287.983765	12698.000000	7805.313965	57.119373
404.942932	1289.307007	12768.574219	7855.377930	57.199387
405.303284	1293.607666	12843.891602	7887.687500	57.090199
405.663605	1292.174316	12899.579102	7916.688965	57.071457
406.023895	1293.056396	12936.077148	7943.705566	57.121342
406.384125	1290.409912	12989.669922	7964.326660	57.045635
406.744354	1290.850952	13056.826172	8005.127930	57.065193
407.104553	1291.291992	13123.429688	8034.460449	56.990280
407.464691	1296.364624	13183.198242	8079.893066	57.067577
407.824829	1296.916016	13253.110352	8117.937500	57.050106
408.184906	1296.805664	13333.279297	8172.632324	57.124928
408.544922	1298.129028	13397.016602	8205.052734	57.087261
408.904938	1299.562500	13444.985352	8231.628906	57.075546
409.264923	1300.224121	13466.709961	8234.605469	56.995762
409.624847	1298.239258	13452.485352	8226.997070	57.006889
409.984802	1301.437256	13428.113281	8207.479492	56.949177
410.344666	1303.091187	13393.708008	8181.675781	56.891922
410.704529	1305.076050	13355.223633	8168.773926	56.959450
411.064331	1307.612305	13323.023438	8149.916504	56.946068
411.424133	1306.399414	13317.508789	8145.174805	56.937084
411.783875	1306.509644	13312.107422	8153.555176	57.032108
412.143555	1310.369263	13321.479492	8155.541016	56.990334
412.503235	1308.274048	13338.792969	8164.142090	56.987305
412.862885	1304.635010	13348.716797	8185.424805	57.130051
413.222473	1305.406860	13404.625000	8220.710938	57.154968
413.582062	1303.642578	13483.800781	8261.511719	57.124619
413.941559	1302.870605	13553.383789	8317.639648	57.261021
414.301086	1304.855591	13638.513672	8375.533203	57.328308
414.660522	1306.399414	13709.198242	8429.236328	57.429272
415.019958	1303.863037	13795.209961	8472.242188	57.386757
415.379364	1302.429688	13906.364258	8531.239258	57.353596
415.738708	1300.555054	14027.223633	8585.051758	57.238045
416.098053	1300.996216	14169.366211	8665.219727	57.227322
416.457336	1300.996094	14353.409180	8775.492188	57.265244
416.816559	1302.870728	14553.443359	8891.719727	57.271858
417.175812	1306.840454	14794.830078	9032.207031	57.275894
417.535004	1302.319336	15084.958008	9201.696289	57.313969
417.894135	1306.289063	15413.351563	9396.658203	57.349777
418.253265	1303.091187	15806.914063	9607.830078	57.258965
418.612335	1300.775513	16211.945313	9838.851563	57.259598
418.971405	1302.870728	16630.541016	10075.938477	57.236797
419.330414	1304.304077	17066.005859	10331.218750	57.271194
419.689423	1303.642334	17500.701172	10570.841797	57.215321
420.048370	1306.178711	17901.873047	10812.559570	57.282207
420.407257	1306.619751	18312.748047	11033.656250	57.197239
420.766144	1307.281372	18696.716797	11247.694336	57.163517
421.125000	1310.479370	19089.509766	11474.304688	57.167484
421.483795	1311.692383	19479.652344	11697.385742	57.164883
421.842560	1309.817749	19892.181641	11930.612305	57.155243
422.201324	1305.627563	20295.669922	12161.853516	57.167988
422.560028	1306.730225	20666.406250	12381.406250	57.204861
422.918671	1310.259033	21005.935547	12577.582031	57.207092
423.277283	1307.281494	21295.291016	12754.898438	57.272423
423.635925	1306.950806	21519.697266	12888.550781	57.298496
423.994476	1306.178833	21684.664063	12989.007813	57.329235
424.353027	1301.437134	21815.447266	13059.692383	57.318169
424.711487	1299.562500	21918.664063	13105.235352	57.256001
425.069946	1303.422119	21966.853516	13125.966797	57.214817
425.428375	1300.003662	21932.335938	13108.875000	57.234787
425.786743	1302.980957	21839.044922	13057.928711	57.240505
426.145081	1302.650146	21688.634766	12975.665039	57.259998
426.503418	1303.201538	21511.423828	12874.104492	57.258392
426.861725	1303.642578	21295.402344	12744.534180	57.228035
427.219971	1305.958252	21063.716797	12603.497070	57.180267
427.578186	1305.737671	20870.742188	12483.849609	57.133198
427.936371	1306.509521	20683.941406	12380.965820	57.151310
428.294495	1304.524658	20465.931641	12253.932617	57.143032
428.652618	1305.406982	20213.738281	12114.987305	57.168343
429.010712	1308.604858	19949.083984	11963.363281	57.159256
429.368744	1307.502197	19655.095703	11793.323242	57.150936
429.726746	1309.266479	19377.318359	11639.381836	57.173374
430.084717	1308.163818	19099.431641	11475.516602	57.147995
430.442688	1307.060913	18835.882813	11328.412109	57.170708
430.800568	1309.376709	18608.390625	11197.078125	57.157600
431.158417	1306.840454	18434.820313	11091.326172	57.125740
431.516235	1306.068604	18281.431641	10996.932617	57.087818
431.874023	1311.692505	18144.582031	10918.087891	57.069202
432.231812	1313.567261	18015.671875	10853.358398	57.117294
432.589508	1312.574707	17917.308594	10807.044922	57.179298
432.947205	1313.015869	17823.136719	10750.916016	57.164333
433.304840	1313.015747	17743.410156	10701.403320	57.140366
433.662476	1316.213623	17696.322266	10656.523438	57.022270
434.020050	1314.890381	17657.066406	10625.756836	56.974461
434.377594	1312.795166	17623.541016	10590.911133	56.883457
434.735138	1308.825195	17599.613281	10593.005859	56.990372
435.092621	1308.935669	17586.931641	10580.434570	56.957249
435.450043	1307.612305	17582.742188	10565.106445	56.881229
435.807465	1309.707520	17606.451172	10579.332031	56.880226
436.164856	1308.053345	17642.402344	10593.998047	56.849186
436.522156	1303.973267	17711.433594	10633.475586	56.861340
436.879486	1305.737671	17791.822266	10676.371094	56.839657
437.236755	1306.840454	17887.759766	10718.714844	56.763279
437.593994	1306.730225	17994.613281	10772.638672	56.723244
437.951172	1304.635010	18134.107422	10839.905273	56.658165
438.308380	1308.053467	18255.406250	10897.026367	56.580944
438.665497	1306.840454	18378.800781	10982.929688	56.678249
439.022583	1309.266602	18541.562500	11069.273438	56.637875
439.379608	1306.399414	18692.748047	11147.676758	56.603477
439.736633	1303.973389	18803.460938	11198.181641	56.539986
440.093628	1303.311646	18901.603516	11242.841797	56.480087
440.450562	1302.098633	18996.988281	11286.399414	56.424767
440.807495	1300.003540	19074.402344	11342.529297	56.499947
441.164368	1297.687866	19164.937500	11387.079102	56.468632
441.521210	1294.820679	19226.908203	11429.534180	56.517200
441.878021	1295.813232	19294.947266	11483.016602	56.598293
442.234833	1294.820801	19409.521484	11539.145508	56.552544
442.591522	1293.056274	19506.119141	11585.239258	56.509895
442.948242	1294.379517	19605.806641	11645.557617	56.528511
443.304901	1289.748169	19723.906250	11717.455078	56.567307
443.661530	1290.961060	19876.414063	11802.475586	56.557755
444.018127	1295.372070	20038.294922	11872.498047	56.432640
444.374664	1293.717773	20193.007813	11960.937500	56.442440
444.731201	1294.710327	20324.121094	12019.712891	56.360146
445.087738	1294.159058	20459.091797	12097.454102	56.370113
445.444183	1294.048950	20529.777344	12151.708984	56.445278
445.800598	1288.535278	20607.960938	12195.817383	56.457592
446.156982	1294.710449	20632.111328	12205.192383	56.421661
446.513336	1294.379639	20623.511719	12198.245117	56.411560
446.869598	1296.143921	20639.279297	12207.506836	56.409489
447.225891	1296.254272	20655.710938	12217.210938	56.411484
447.582153	1298.569946	20644.904297	12214.895508	56.425808
447.938354	1298.900757	20658.910156	12232.759766	56.476517
448.294495	1300.113892	20673.464844	12227.686523	56.405170
448.650665	1300.775269	20647.441406	12230.333008	56.493237
449.006775	1304.304199	20650.308594	12221.842773	56.433044
449.362823	1304.634888	20653.947266	12222.945313	56.427383
449.718842	1306.068604	20646.886719	12213.571289	56.396286
450.074860	1303.201416	20633.435547	12216.990234	56.459682
450.430817	1299.121338	20615.460938	12210.924805	56.490017
450.786713	1303.091187	20522.720703	12153.693359	56.455837
451.142578	1302.429443	20414.103516	12085.324219	56.420460
451.498444	1299.672852	20259.611328	12008.244141	56.479992
451.854248	1298.790649	20091.447266	11903.705078	56.431160
452.210022	1296.364624	19887.664063	11810.083008	56.551826
452.565765	1297.687866	19641.093750	11683.380859	56.618130
452.921478	1298.790527	19413.382813	11554.250977	56.614365
453.277191	1300.665039	19194.601563	11423.800781	56.572990
453.632813	1293.717896	19016.619141	11314.518555	56.541538
453.988434	1291.953491	18836.214844	11215.604492	56.563515
454.343964	1291.512451	18654.484375	11133.673828	56.684769
454.699524	1291.512451	18502.417969	11056.812500	56.739021
455.054993	1289.858398	18362.921875	10980.945313	56.762440
455.410400	1292.946045	18256.728516	10916.326172	56.728973
455.765839	1292.505005	18209.533203	10890.080078	56.733227
456.121216	1291.843384	18214.494141	10891.402344	56.726093
456.476593	1290.850952	18258.162109	10924.154297	56.775665
456.831909	1292.505005	18381.447266	11004.653320	56.832943
457.187195	1290.299438	18541.011719	11104.007813	56.888710
457.542450	1292.725586	18748.433594	11215.604492	56.846043
457.897644	1294.049072	18936.558594	11321.796875	56.838558
458.252808	1294.710571	19188.201172	11465.482422	56.840626
458.607971	1291.733398	19381.619141	11577.959961	56.861752
458.963013	1290.079224	19505.677734	11648.203125	56.864037
459.318085	1288.755859	19596.982422	11707.088867	56.905201
459.673096	1285.116821	19666.013672	11741.163086	56.885395
460.028076	1286.440063	19745.630859	11776.892578	56.830509
460.383057	1284.786133	19806.941406	11803.247070	56.788532
460.737976	1287.983887	19834.839844	11827.287109	56.825279
461.092865	1292.725586	19855.791016	11838.315430	56.809525
461.447723	1296.916016	19856.453125	11836.881836	56.790024
461.802551	1298.239258	19856.453125	11819.678711	56.694244
462.157288	1297.467407	19858.546875	11810.747070	56.641529
462.512054	1300.224121	19875.419922	11816.811523	56.616299
462.866760	1298.349487	19855.460938	11809.092773	56.639977
463.221405	1300.224121	19807.162109	11787.699219	56.667801
463.576019	1303.091187	19712.216797	11741.273438	56.701134
463.930603	1302.539917	19614.736328	11683.380859	56.688122
464.285156	1299.121338	19475.904297	11573.550781	56.525017
464.639709	1298.128906	19264.953125	11450.816406	56.507969
464.994171	1297.908203	19023.126953	11312.976563	56.501804
465.348633	1296.584961	18747.886719	11164.438477	56.545090
465.703033	1295.923462	18464.816406	11008.291992	56.569569
466.057434	1298.790649	18214.716797	10877.729492	56.626747
466.411774	1299.562622	18037.949219	10773.081055	56.597561
466.766083	1301.106445	17885.222656	10678.025391	56.541561
467.120331	1305.737793	17779.470703	10614.618164	56.507420
467.474548	1301.106445	17689.046875	10564.223633	56.523983
467.828735	1303.752930	17619.908203	10522.871094	56.503006
468.182922	1304.083740	17569.181641	10490.009766	56.476303
468.537048	1303.752808	17523.308594	10459.685547	56.449959
468.891144	1301.878296	17492.320313	10441.379883	56.449982
469.245178	1301.878174	17462.218750	10419.876953	56.422070
469.599213	1302.539917	17443.248047	10405.873047	56.399837
469.953186	1298.680298	17429.464844	10388.449219	56.350445
470.307129	1296.805664	17448.871094	10386.794922	56.277565
470.661041	1296.364624	17470.375000	10403.116211	56.304848
471.014923	1294.159180	17540.398438	10423.626953	56.194344
471.368713	1291.402344	17554.513672	10425.060547	56.161812
471.722504	1291.733154	17527.056641	10426.052734	56.262012
472.076294	1294.159180	17506.875000	10416.901367	56.269054
472.429993	1294.820679	17450.636719	10385.693359	56.269970
472.783722	1298.680298	17445.673828	10367.387695	56.163441
473.137329	1298.900757	17468.169922	10373.011719	56.119488
473.490967	1297.136353	17501.912109	10389.551758	56.109478
473.844543	1299.893188	17586.824219	10428.146484	56.046490
474.198090	1304.304077	17671.072266	10477.108398	56.045300
474.551605	1302.319214	17800.201172	10539.302734	55.988903
474.905060	1308.384155	17940.027344	10616.492188	55.966259
475.258484	1308.935547	18086.910156	10708.350586	56.022346
475.611877	1306.178711	18251.660156	10799.876953	56.024956
475.965240	1308.273926	18447.281250	10900.666992	55.968189
476.318573	1309.266235	18634.302734	11008.292969	55.982716
476.671844	1309.597168	18851.650391	11135.545898	56.013680
477.025116	1311.912964	19080.025391	11254.310547	55.956406
477.378326	1311.582275	19312.589844	11399.208008	56.039230
477.731506	1315.882690	19547.250000	11534.844727	56.051540
478.084656	1316.323975	19827.232422	11676.875000	55.969975
478.437744	1317.867554	20118.792969	11832.027344	55.923630
478.790833	1320.844971	20460.417969	12025.776367	55.930882
479.143890	1321.506836	20876.585938	12244.667969	55.858437
479.496826	1319.191040	21361.125000	12517.263672	55.873215
479.849823	1318.308838	22011.734375	12875.428711	55.849236
480.202728	1315.441650	22825.765625	13316.297852	55.791145
480.555603	1315.110840	23823.623047	13869.645508	55.776833
480.908478	1315.441772	25161.562500	14624.792969	55.813488
481.261292	1316.985596	26807.597656	15577.658203	55.944805
481.614075	1312.574707	28644.851563	16761.322266	56.521992
481.966797	1312.464355	30482.433594	17972.777344	57.114605
482.319489	1309.045898	32214.595703	19056.097656	57.423508
482.672150	1305.296631	33764.917969	19971.138672	57.504807
483.024780	1306.730103	35107.265625	20726.396484	57.453724
483.377350	1302.870605	36224.988281	21378.214844	57.486046
483.729919	1298.018677	37244.351563	21944.136719	57.435951
484.082428	1299.011108	38192.691406	22475.318359	57.398197
484.434937	1295.702881	39178.636719	23050.390625	57.426090
484.787384	1295.151489	40234.167969	23651.707031	57.414276
485.139771	1292.725586	41388.390625	24319.296875	57.429077
485.492157	1292.835815	42569.632813	24998.687500	57.431423
485.844482	1293.387207	43648.093750	25642.345703	57.488201
486.196777	1294.710449	44636.695313	26197.572266	57.456673
486.549072	1296.033813	45404.960938	26664.353516	57.512894
486.901276	1296.695313	45975.839844	26969.916016	57.461308
487.253448	1298.239258	46288.355469	27141.943359	57.443066
487.605591	1302.208984	46303.132813	27166.091797	57.474117
487.957703	1299.672607	46083.031250	27057.697266	57.516956
488.309784	1299.562378	45554.933594	26751.244141	57.510944
488.661835	1296.033691	44797.800781	26293.285156	57.462616
489.013855	1298.349365	44004.054688	25692.744141	57.122093
489.365814	1299.231567	43266.445313	25114.363281	56.746990
489.717743	1303.532349	42634.578125	24645.152344	56.474785
490.069611	1305.186401	42050.355469	24261.183594	56.340420
490.421509	1304.965820	41502.742188	23967.968750	56.378750
490.773315	1302.981079	41014.894531	23672.878906	56.330448
491.125092	1306.619995	40491.542969	23379.554688	56.330177
491.476807	1304.524780	39882.945313	23046.863281	56.358807
491.828522	1307.612305	39140.375000	22611.947266	56.311871
492.180176	1309.707520	38236.800781	22103.701172	56.310940
492.531830	1309.156128	37205.195313	21503.376953	56.257519
492.883423	1306.178711	36045.132813	20835.564453	56.217545
493.234985	1304.745239	34956.851563	20196.865234	56.139484
493.586487	1304.965698	33935.281250	19625.654297	56.146221
493.937988	1305.296509	33071.078125	19122.259766	56.088539
494.289429	1307.391846	32372.283203	18736.304688	56.104855
494.640869	1306.950562	31790.261719	18422.138672	56.146091
494.992218	1303.752808	31337.705078	18154.507813	56.105686
495.343567	1308.053345	30892.642578	17897.904297	56.075989
495.694855	1309.266479	30385.390625	17597.521484	56.019344
496.046112	1310.589722	29761.578125	17247.957031	56.016918
496.397339	1310.479492	28948.871094	16799.148438	56.040417
496.748535	1314.008179	28032.728516	16259.364258	55.935898
497.099670	1311.030884	27087.691406	15724.429688	55.916470
497.450806	1309.817871	26246.529297	15245.958008	55.886040
497.801880	1306.840576	25569.789063	14831.551758	55.742237
498.152924	1311.582275	24976.521484	14499.192383	55.726364
498.503937	1313.897827	24514.037109	14252.401367	55.769081
498.854889	1314.449219	24176.052734	14052.145508	55.716549
499.205841	1312.243774	23892.431641	13886.406250	55.686703
499.556702	1311.140991	23686.552734	13754.630859	55.612339
499.907562	1307.943115	23485.634766	13639.286133	55.602463
500.258362	1310.148560	23315.595703	13543.238281	55.591190
500.609161	1309.707520	23158.457031	13438.919922	55.514446
500.959900	1308.494507	22990.400391	13329.858398	55.444221
501.310608	1307.171265	22819.037109	13217.050781	55.364235
501.661255	1307.171265	22611.285156	13100.492188	55.357014
502.011902	1309.266602	22391.291016	12974.340820	55.331852
502.362488	1311.913086	22170.857422	12864.068359	55.382259
502.713043	1309.487061	21960.457031	12738.468750	55.343555
503.063568	1309.817871	21776.964844	12639.111328	55.353554
503.414063	1310.369263	21571.416016	12533.912109	55.394684
503.764496	1309.487061	21409.425781	12436.652344	55.359196
504.114899	1307.722656	21250.632813	12364.644531	55.442871
504.465271	1306.950684	21128.449219	12298.480469	55.452564
504.815613	1310.699951	21029.423828	12240.478516	55.428425
505.165894	1314.559570	20931.613281	12191.737305	55.447559
505.516174	1314.890381	20892.464844	12156.890625	55.379692
505.866394	1313.125977	20881.437500	12127.557617	55.265018
506.216583	1311.802856	20873.714844	12112.339844	55.212074
506.566711	1311.802734	20907.458984	12145.533203	55.286388
506.916840	1310.810303	20949.033203	12166.263672	55.277168
507.266907	1311.251343	21002.847656	12202.213867	55.307671
507.616882	1312.464355	21083.457031	12245.439453	55.298058
507.966858	1310.589966	21133.298828	12282.823242	55.351837
508.316803	1311.251587	21188.214844	12315.682617	55.362736
508.666748	1311.030884	21251.291016	12343.251953	55.326363
509.016632	1309.707642	21313.376953	12376.113281	55.321877
509.366486	1309.046021	21402.917969	12402.909180	55.210186
509.716309	1306.840454	21490.474609	12447.128906	55.194656
510.066040	1308.715088	21588.066406	12495.869141	55.165245
510.415771	1308.935669	21689.849609	12551.335938	55.161415
510.765503	1303.863037	21797.253906	12606.693359	55.153538
511.115173	1302.870483	21897.271484	12659.073242	55.142189
511.464752	1302.650024	21996.625000	12699.542969	55.073483
511.814270	1304.965820	22078.666016	12742.769531	55.059059
512.163818	1302.980835	22163.134766	12790.408203	55.068756
512.513306	1300.444580	22225.990234	12832.420898	55.109566
512.862793	1297.797974	22280.796875	12860.982422	55.107399
513.212219	1294.931030	22320.494141	12885.462891	55.125908
513.561646	1295.482178	22372.982422	12914.242188	55.123993
513.911011	1294.710449	22402.203125	12921.520508	55.083809
514.260315	1298.128906	22437.380859	12936.517578	55.055820
514.609558	1299.893188	22506.414063	12976.658203	55.062141
514.958801	1300.665283	22600.585938	13023.193359	55.035553
515.308044	1304.193970	22745.705078	13108.763672	55.054745
515.657227	1303.311890	22949.488281	13210.324219	55.007465
516.006348	1307.171387	23197.712891	13347.834961	55.003960
516.355408	1308.935669	23468.322266	13482.366211	54.935776
516.704529	1306.950684	23702.210938	13628.479492	55.018471
517.053467	1310.810181	23927.384766	13742.059570	54.965218
517.402466	1309.817627	24100.404297	13847.588867	55.012939
517.751404	1310.589600	24227.660156	13922.022461	55.030735
518.100281	1315.882813	24354.253906	13983.995117	54.987015
518.449219	1316.764893	24445.224609	14039.465820	55.008858
518.798035	1314.228638	24541.933594	14083.244141	54.973213
519.146851	1311.471924	24637.761719	14132.095703	54.962124
519.495544	1311.582275	24703.267578	14161.207031	54.932446
519.844299	1311.582031	24792.478516	14192.414063	54.856644
520.192932	1310.589600	24892.824219	14242.255859	54.836475
520.541626	1311.912964	24987.878906	14294.526367	54.834564
520.890198	1313.236084	25089.660156	14356.718750	54.858891
521.238770	1315.993042	25211.404297	14404.908203	54.775848
521.587280	1313.897827	25350.234375	14470.189453	54.735016
521.935791	1315.000488	25468.556641	14525.766602	54.694908
522.284180	1312.905273	25587.652344	14596.562500	54.722126
522.632629	1310.810181	25735.308594	14665.812500	54.678715
522.981018	1313.346436	25881.085938	14761.417969	54.738739
523.329346	1309.376709	26049.583984	14855.704102	54.754299
523.677551	1312.795288	26239.253906	14971.489258	54.795967
524.025818	1310.810303	26502.146484	15085.952148	54.682060
524.374023	1305.848267	26813.333984	15260.181641	54.706814
524.722229	1304.304443	27208.441406	15464.846680	54.665176
525.070374	1302.760376	27733.115234	15740.860352	54.626961
525.418457	1301.878174	28432.574219	16122.733398	54.627628
525.766541	1303.532227	29419.845703	16658.437500	54.612087
526.114563	1305.406860	30673.535156	17389.544922	54.767323
526.462585	1304.414429	32059.880859	18186.816406	54.892361
526.810547	1302.319214	33429.792969	18999.416016	55.084000
527.158447	1303.311523	34649.191406	19710.671875	55.201302
527.506348	1306.509521	35670.535156	20294.236328	55.254662
527.854065	1305.406860	36507.835938	20761.683594	55.269699
528.201904	1305.296631	37179.289063	21120.398438	55.235283
528.549622	1304.965820	37700.105469	21409.091797	55.238487
528.897339	1304.965820	38087.820313	21613.537109	55.212055
529.245056	1305.848022	38392.945313	21770.013672	55.178665
529.592712	1304.965942	38621.097656	21895.062500	55.177464
529.940369	1302.209106	38808.785156	22012.945313	55.218948
530.287903	1298.239258	39002.093750	22103.699219	55.181255
530.635437	1300.003662	39242.042969	22217.830078	55.131001
530.982910	1296.254272	39534.929688	22365.265625	55.098698
531.330383	1298.349487	39778.742188	22507.515625	55.116810
531.677795	1296.364624	39893.535156	22579.416016	55.141476
532.025208	1296.805664	39896.734375	22579.746094	55.137253
532.372498	1296.144043	39700.453125	22472.339844	55.140156
532.719788	1294.379639	39259.023438	22232.607422	55.151917
533.067078	1295.261841	38522.738281	21806.734375	55.097672
533.414307	1297.577637	37499.183594	21206.742188	54.995251
533.761536	1299.782959	36364.812500	20545.439453	54.885609
534.108643	1298.790649	35301.566406	19888.544922	54.671280
534.455811	1298.349487	34402.292969	19354.714844	54.544453
534.802856	1298.459717	33658.390625	18938.214844	54.511105
535.149902	1300.996094	33076.042969	18604.308594	54.455662
535.496887	1300.665161	32572.203125	18331.935547	54.462528
535.843811	1298.790527	32153.277344	18120.876953	54.520714
536.190796	1300.113892	31807.683594	17933.302734	54.521515
536.537659	1300.885742	31473.228516	17762.378906	54.558216
536.884460	1301.216553	31187.402344	17593.552734	54.514606
537.231323	1303.973267	30885.589844	17423.621094	54.492111
537.578064	1306.950806	30573.738281	17252.257813	54.482601
537.924805	1308.274048	30209.177734	17067.990234	54.530182
538.271423	1307.502197	29892.691406	16884.828125	54.494396
538.618164	1308.935547	29722.433594	16787.457031	54.475945
538.964783	1312.795288	29751.984375	16805.208984	54.475582
539.311279	1312.354126	29938.345703	16904.236328	54.467567
539.657776	1313.787720	30217.447266	17052.552734	54.452496
540.004333	1312.023193	30474.714844	17188.298828	54.440365
540.350769	1311.030762	30722.937500	17320.404297	54.431606
540.697144	1310.920410	30910.619141	17428.361328	54.451370
541.043518	1307.501953	31016.039063	17470.044922	54.403698
541.389893	1307.832764	30991.449219	17474.015625	54.461632
541.736145	1312.243652	30870.919922	17415.238281	54.478062
542.082458	1311.030762	30728.115234	17307.945313	54.379673
542.428711	1313.677490	30558.958984	17205.279297	54.339027
542.774902	1311.030884	30414.613281	17118.933594	54.316002
543.121033	1314.559570	30309.851563	17030.164063	54.200539
543.467102	1315.772705	30228.580078	16983.521484	54.189651
543.813171	1314.449341	30173.115234	16941.396484	54.149929
544.159180	1314.118530	30124.265625	16914.601563	54.149269
544.505127	1316.103394	30064.390625	16865.859375	54.089329
544.851135	1315.882813	29946.505859	16817.562500	54.143703
545.197021	1314.228760	29733.347656	16703.761719	54.152042
545.542908	1312.574585	29327.765625	16487.958984	54.168415
545.888733	1313.125977	28734.279297	16152.949219	54.118160
546.234558	1312.574585	27955.421875	15710.315430	54.039799
546.580322	1314.449219	27086.472656	15225.335938	53.976696
546.926025	1314.449219	26190.398438	14734.954102	53.949718
547.271667	1315.331421	25366.664063	14284.047852	53.920994
547.617371	1312.464233	24569.062500	13868.320313	53.988365
547.962952	1309.376709	23836.634766	13469.352539	53.978943
548.308533	1316.875244	23176.984375	13123.098633	54.008072
548.654053	1318.749878	22597.058594	12806.948242	53.990185
548.999573	1316.985596	22105.242188	12531.926758	53.948448
549.344971	1317.426514	21676.394531	12316.676758	54.026558
549.690430	1313.456787	21303.451172	12125.023438	54.084888
550.035767	1313.897827	20995.458984	11952.555664	54.053936
550.381104	1314.338867	20720.439453	11811.958008	54.094425
550.726440	1308.715088	20440.898438	11659.561523	54.101753
551.071655	1308.053345	20193.007813	11519.846680	54.073696
551.416931	1305.737671	19905.525391	11353.004883	54.018185
551.762085	1305.958130	19601.064453	11184.727539	53.996788
552.107178	1303.752686	19293.402344	10990.429688	53.845833
552.452332	1302.539795	18985.742188	10810.023438	53.765617
552.797424	1304.304077	18713.041016	10664.243164	53.765759
553.142395	1299.011108	18451.914063	10546.361328	53.911289
553.487366	1300.113770	18255.408203	10446.455078	53.943867
553.832336	1301.106323	18065.296875	10347.540039	53.962837
554.177185	1299.782959	17916.652344	10267.260742	53.966106
554.522095	1301.326782	17807.810547	10196.465820	53.888752
554.866943	1304.745361	17704.042969	10133.280273	53.834839
555.211731	1306.068604	17624.757813	10078.253906	53.755455
555.556396	1300.885742	17547.566406	10025.432617	53.700489
555.901123	1302.760376	17476.771484	9979.889648	53.648590
556.245789	1303.201538	17389.656250	9924.533203	53.593735
556.590454	1305.406860	17291.294922	9878.329102	53.628063
556.934998	1303.642700	17206.494141	9813.267578	53.510056
557.279541	1307.722656	17093.353516	9744.458008	53.445663
557.624023	1306.620117	16953.750000	9672.448242	53.465576
557.968567	1311.361694	16822.525391	9607.719727	53.486370
558.312988	1313.567017	16687.994141	9540.232422	53.508759
558.657349	1316.213745	16581.359375	9488.404297	53.534966
559.001770	1315.000732	16496.228516	9444.185547	53.547611
559.346069	1317.757568	16420.470703	9415.073242	53.614971
559.690308	1318.970459	16366.767578	9379.566406	53.566616
560.034485	1318.529541	16310.417969	9343.176758	53.526596
560.378723	1321.727173	16279.982422	9312.850586	53.422832
560.722900	1318.970459	16237.306641	9286.936523	53.410553
561.067017	1315.662354	16214.701172	9261.793945	53.333183
561.411072	1315.110962	16186.361328	9256.721680	53.402443
561.755127	1317.206055	16158.242188	9256.059570	53.492584
562.099182	1316.213745	16149.860352	9252.310547	53.500645
562.443115	1316.103394	16154.382813	9260.361328	53.538944
562.787048	1318.198486	16166.845703	9274.695313	53.583984
563.130920	1317.536865	16204.117188	9293.001953	53.574863
563.474792	1314.559570	16275.242188	9330.051758	53.577049
563.818604	1309.817749	16366.658203	9363.024414	53.485367
564.162354	1314.890259	16455.423828	9422.903320	53.551701
564.506042	1312.133545	16567.021484	9495.019531	53.641075
564.849731	1311.582153	16664.722656	9548.392578	53.649029
565.193420	1309.376709	16735.189453	9590.958008	53.686516
565.537048	1304.304077	16789.001953	9615.549805	53.673931
565.880615	1304.965820	16818.666016	9645.653320	53.763367
566.224121	1303.201416	16827.597656	9663.297852	53.851349
566.567627	1303.642578	16828.146484	9659.328125	53.822559
566.911072	1306.509766	16823.736328	9666.716797	53.876942
567.254517	1305.848022	16856.265625	9692.189453	53.930008
567.597839	1307.612305	16881.408203	9706.083008	53.926933
567.941223	1305.847900	16914.271484	9729.791992	53.970501
568.284485	1305.186401	16938.753906	9755.705078	54.053680
568.627808	1306.289063	17000.615234	9768.607422	53.919601
568.970947	1304.855591	17070.197266	9799.705078	53.883068
569.314148	1310.589600	17146.837891	9839.291992	53.855572
569.657288	1314.449341	17232.078125	9879.322266	53.807468
570.000366	1315.772461	17313.900391	9924.092773	53.808296
570.343445	1316.213745	17378.958984	9961.364258	53.821125
570.686462	1319.301392	17399.359375	9970.407227	53.800213
571.029419	1319.521851	17410.937500	9982.095703	53.833511
571.372314	1314.559570	17389.546875	9962.908203	53.800034
571.715210	1314.780029	17336.173828	9933.245117	53.793480
572.058105	1315.441650	17284.566406	9906.999023	53.801056
572.400879	1318.308716	17266.921875	9890.017578	53.745796
572.743713	1316.985474	17250.712891	9880.975586	53.747562
573.086426	1315.882813	17256.779297	9877.666992	53.709553
573.429077	1315.993042	17280.599609	9878.549805	53.634624
573.771790	1313.456787	17288.978516	9878.439453	53.613163
574.114441	1308.825317	17280.158203	9871.492188	53.612724
574.457031	1309.376709	17246.634766	9834.330078	53.490715
574.799561	1306.399414	17192.378906	9810.070313	53.529408
575.142029	1312.684937	17144.080078	9775.995117	53.459030
575.484436	1316.103271	17057.294922	9738.392578	53.504776
575.826904	1311.471802	16940.076172	9676.419922	53.523323
576.169250	1314.890381	16794.847656	9591.179688	53.464546
576.511597	1309.266357	16627.013672	9490.832031	53.412331
576.853943	1303.863037	16422.126953	9384.638672	53.450420
577.196167	1302.980835	16207.315430	9268.411133	53.443714
577.538391	1300.885742	15981.145508	9140.825195	53.404636
577.880554	1295.923462	15774.605469	9044.666992	53.518295
578.222717	1297.798096	15546.340820	8922.264648	53.510502
578.564819	1298.459717	15335.276367	8808.022461	53.499043
578.906860	1297.798096	15149.357422	8692.236328	53.383438
579.248901	1294.489990	14957.482422	8583.728516	53.350235
579.590942	1292.505005	14756.014648	8472.904297	53.332298
579.932861	1296.474854	14573.073242	8365.609375	53.245075
580.274780	1295.813232	14376.127930	8254.674805	53.201023
580.616638	1297.577515	14177.304688	8147.160156	53.181114
580.958496	1300.665161	13971.095703	8044.275391	53.223213
581.300232	1301.988525	13802.267578	7952.197754	53.200481
581.641968	1302.760376	13638.404297	7871.258301	53.248119
581.983704	1300.885620	13495.599609	7780.062500	53.131027
582.325317	1296.915771	13360.736328	7701.437500	53.088669
582.666992	1296.474731	13243.408203	7625.900879	52.979504
583.008606	1298.018555	13132.584961	7570.875000	53.004532
583.350098	1295.482300	13037.419922	7520.370605	53.014149
583.691589	1294.710449	12956.919922	7485.744141	53.086288
584.033081	1295.813232	12896.602539	7448.802734	53.039402
584.374512	1293.276978	12835.179688	7397.966309	52.891537
584.715881	1293.607666	12787.429688	7374.589355	52.906521
585.057190	1291.512451	12741.335938	7337.316895	52.802605
585.398499	1289.086548	12694.800781	7312.727051	52.812481
585.739807	1291.071655	12657.087891	7304.235840	52.904762
586.081055	1291.622803	12628.416992	7296.626465	52.969154
586.422180	1291.622803	12602.281250	7290.120605	53.034031
586.763367	1289.637939	12593.017578	7282.400879	53.017441
587.104431	1289.196777	12593.017578	7281.959961	53.015381
587.445496	1290.189331	12597.098633	7280.196289	52.976517
587.786499	1287.211914	12592.797852	7284.827148	53.050018
588.127502	1283.021484	12621.468750	7293.759766	53.012005
588.468445	1284.234619	12627.754883	7297.839844	53.013573
588.809326	1284.124390	12634.040039	7308.095215	53.075024
589.150208	1287.322266	12639.332031	7314.932129	53.097294
589.491028	1290.740723	12626.099609	7309.528809	53.097462
589.831848	1290.299683	12624.998047	7302.250977	53.040241
590.172546	1291.291992	12613.971680	7300.486816	53.072197
590.513245	1289.307251	12605.810547	7304.015625	53.149887
590.853943	1289.307251	12610.994141	7303.904785	53.124573
591.194458	1290.189331	12623.235352	7293.650391	52.973057
591.535095	1288.645508	12624.227539	7296.848145	53.003036
591.875610	1289.527588	12644.406250	7298.281250	52.917816
592.216125	1291.622803	12648.376953	7310.741699	53.000347
592.556580	1291.071411	12667.343750	7330.369629	53.086796
592.897034	1287.763184	12700.867188	7336.876465	53.001476
593.237366	1287.652954	12718.510742	7345.036621	52.991508
593.577698	1288.535156	12771.110352	7368.083984	52.945866
593.918030	1289.307007	12819.409180	7399.622070	52.994453
594.258301	1292.284302	12873.332031	7430.167480	52.999378
594.598511	1292.063843	12952.838867	7473.834961	53.013378
594.938721	1294.379639	13037.417969	7515.738770	52.979130
595.278809	1299.231567	13118.026367	7551.796875	52.903580
595.618958	1298.790527	13172.391602	7573.631836	52.846992
595.958984	1299.011108	13228.298828	7591.385254	52.747272
596.299011	1302.098633	13252.007813	7612.336914	52.805744
596.638977	1299.011108	13278.141602	7616.747559	52.739521
596.978943	1297.908447	13289.832031	7619.504395	52.715443
597.318848	1300.665161	13285.533203	7608.477539	52.631474
597.658630	1300.113770	13271.526367	7596.568359	52.595757
597.998474	1298.128662	13238.885742	7571.977539	52.541466
598.338257	1297.356934	13184.189453	7565.250977	52.729725
598.677979	1298.680298	13151.439453	7548.709961	52.730591
599.017700	1297.026245	13096.192383	7523.126465	52.767288
599.357361	1300.444580	13052.415039	7486.075195	52.634838
599.696960	1305.737671	13013.156250	7440.643066	52.401859
600.036560	1307.171265	12965.298828	7413.295410	52.376541
600.376038	1303.973389	12926.591797	7390.579590	52.368633
600.715576	1303.422119	12884.029297	7368.525391	52.372932
601.055054	1302.870850	12840.801758	7336.545410	52.294254
601.394409	1301.878174	12806.395508	7324.084961	52.346455
601.733826	1303.752930	12760.414063	7296.958496	52.311974
602.073120	1301.878296	12756.113281	7276.999023	52.165165
602.412415	1297.577515	12743.873047	7284.166504	52.301540
602.751587	1296.915894	12771.220703	7307.103516	52.379536
603.090820	1298.459839	12801.544922	7326.400391	52.402817
603.429993	1293.166748	12848.080078	7333.789551	52.277531
603.769104	1292.063965	12883.807617	7365.988770	52.398712
604.108154	1293.828369	12909.392578	7390.579590	52.487770
604.447205	1296.144165	12946.553711	7407.340820	52.454781
604.786194	1298.349487	12976.877930	7416.714355	52.389862
605.125183	1302.319336	13007.534180	7435.901855	52.400425
605.464111	1300.665039	13028.486328	7439.872070	52.347378
605.802979	1299.562378	13050.870117	7455.640625	52.386326
606.141846	1300.113770	13074.911133	7466.667480	52.370785
606.480652	1297.908325	13114.829102	7489.714355	52.397797
606.819336	1295.702881	13167.648438	7521.472656	52.441021
607.158020	1295.261719	13228.960938	7561.611816	52.509705
607.496765	1300.003296	13292.807617	7596.457520	52.501930
607.835388	1301.216431	13331.182617	7608.035645	52.425911
608.173950	1305.076050	13348.386719	7625.238770	52.478615
608.512512	1303.201416	13325.559570	7608.586914	52.447163
608.851013	1301.216431	13280.789063	7588.187500	52.480766
609.189514	1304.965820	13184.080078	7544.740234	52.527271
609.527893	1305.186279	13073.698242	7472.401855	52.404381
609.866333	1304.414673	12945.449219	7386.278809	52.245052
610.204712	1303.091309	12806.505859	7312.065430	52.236443
610.542969	1304.304321	12678.920898	7252.297852	52.291817
610.881226	1305.627563	12564.238281	7186.905273	52.238045
611.219482	1303.532349	12470.395508	7130.775879	52.183353
611.557678	1301.547363	12383.722656	7090.416504	52.235855
611.895813	1299.011108	12310.279297	7052.042480	52.246761
612.233948	1298.018555	12237.611328	7015.211426	52.261478
612.571960	1302.098633	12167.256836	6981.136719	52.268341
612.910034	1306.619873	12098.998047	6944.746094	52.241741
613.247986	1306.730103	12027.210938	6904.717285	52.217690
613.585938	1308.935547	11942.411133	6861.049316	52.213539
613.923828	1305.737671	11822.654297	6803.267090	52.273201
614.261658	1308.715088	11693.414063	6738.978516	52.291004
614.599487	1306.730103	11548.295898	6666.308105	52.331631
614.937317	1307.943115	11424.239258	6603.893555	52.350685
615.275024	1307.612305	11309.556641	6537.289551	52.286606
615.612732	1306.399414	11213.178711	6484.358398	52.266827
615.950378	1305.627441	11119.227539	6427.348145	52.190033
616.288025	1302.429443	11032.443359	6376.511719	52.148766
616.625549	1303.421997	10971.901367	6361.625977	52.316437
616.963074	1304.414307	10919.523438	6338.688965	52.357952
617.300537	1305.517212	10871.445313	6321.597656	52.436947
617.638000	1305.296631	10823.035156	6306.820801	52.549507
617.975464	1309.266357	10790.614258	6285.648926	52.486027
618.312744	1310.369141	10753.563477	6273.628906	52.559120
618.650024	1309.486938	10720.259766	6255.433594	52.556225
618.987305	1308.274048	10683.428711	6238.010254	52.582989
619.324585	1305.958374	10658.507813	6219.705078	52.539112
619.661743	1302.429565	10644.723633	6202.722656	52.452782
619.998901	1299.783081	10616.824219	6183.976563	52.422150
620.336060	1298.018799	10589.255859	6174.162109	52.481102
620.673096	1295.151611	10567.752930	6160.708984	52.472412
621.010193	1298.459717	10548.125000	6151.997559	52.472584
621.347168	1296.254272	10527.833984	6132.038086	52.383057
621.684082	1297.908447	10493.208984	6114.063965	52.376266
622.020996	1297.356934	10457.591797	6102.264648	52.453983
622.357849	1298.128906	10433.993164	6085.724121	52.404404
622.694641	1299.562500	10412.929688	6069.183594	52.336540
623.031433	1303.863037	10391.095703	6059.148438	52.329300
623.368164	1305.296631	10386.905273	6061.354004	52.370213
623.704895	1306.619873	10376.759766	6043.379395	52.223671
624.041504	1307.832886	10383.927734	6052.752441	52.279308
624.378174	1305.737671	10402.343750	6054.516602	52.203850
624.714783	1311.692505	10445.901367	6069.072754	52.083115
625.051331	1308.715210	10478.101563	6080.430664	52.039635
625.387756	1309.156250	10514.711914	6090.244629	51.936989
625.724304	1309.486938	10534.119141	6101.603027	51.949131
626.060669	1310.589600	10552.314453	6119.577148	52.035606
626.397034	1310.369141	10560.364258	6126.303711	52.064186
626.733337	1310.369141	10564.333984	6130.604004	52.088322
627.069641	1307.502075	10570.950195	6130.163086	52.061188
627.405884	1309.486938	10560.474609	6129.722168	52.105091
627.742126	1308.935669	10550.439453	6125.862305	52.122757
628.078308	1308.053467	10538.639648	6118.805176	52.117516
628.414429	1304.524780	10513.057617	6107.557617	52.158501
628.750488	1304.414551	10493.319336	6096.419434	52.149906
629.086548	1301.767944	10460.126953	6077.783691	52.149250
629.422546	1299.121338	10419.546875	6060.801758	52.208973
629.758545	1297.798096	10365.293945	6034.777344	52.241318
630.094421	1294.710571	10318.648438	6010.076172	52.253971
630.430298	1293.497437	10264.283203	5972.143066	52.154243
630.766113	1293.276855	10200.986328	5937.958008	52.142265
631.101929	1292.615479	10124.567383	5901.899414	52.188736
631.437622	1293.166626	10043.185547	5861.869629	52.213638
631.773376	1288.865967	9950.115234	5810.041504	52.200043
632.109070	1292.725586	9856.714844	5769.571289	52.275238
632.444641	1292.946167	9763.423828	5721.933594	52.287338
632.780273	1293.387329	9687.446289	5670.325684	52.143291
633.115784	1294.489990	9618.195313	5625.996582	52.038208
633.451294	1297.246826	9549.165039	5595.120605	52.083336
633.786682	1299.121338	9481.458008	5555.863281	52.023552
634.122131	1302.650146	9403.604492	5522.671387	52.092896
634.457458	1301.106323	9351.556641	5480.988281	51.921093
634.792847	1303.311768	9290.575195	5440.849609	51.801697
635.128113	1303.201538	9227.279297	5411.407227	51.844589
635.463318	1304.414429	9176.002930	5383.287598	51.817661
635.798584	1300.775513	9127.813477	5354.616211	51.792782
636.133728	1301.657715	9074.221680	5325.063477	51.764202
636.468872	1304.965820	9012.358398	5293.304199	51.746922
636.803955	1305.737793	8963.067383	5264.192871	51.694981
637.139038	1303.201416	8913.554688	5232.323730	51.628643
637.473999	1305.406860	8849.266602	5215.561523	51.832283
637.808899	1305.958374	8783.101563	5177.408203	51.777126
638.143799	1307.391846	8715.173828	5142.451660	51.770687
638.478638	1309.156128	8654.302734	5101.871094	51.635658
638.813538	1309.156006	8589.573242	5065.811523	51.599457
639.148315	1305.516968	8517.233398	5022.253906	51.537479
639.483032	1306.509521	8454.048828	4984.541016	51.458710
639.817749	1303.421875	8386.782227	4959.288574	51.612038
640.152405	1302.098633	8323.044922	4922.458008	51.565121
640.487000	1301.547363	8252.250000	4883.642090	51.535721
640.821594	1301.326782	8187.410156	4859.492188	51.671833
641.156128	1299.121338	8138.338379	4826.741211	51.579296
641.490662	1297.687744	8078.791504	4806.120605	51.738377
641.825134	1298.569946	8018.140625	4784.176758	51.872463
642.159546	1298.459717	7977.560059	4759.364746	51.816933
642.493896	1302.760376	7925.291016	4736.759277	51.853275
642.828186	1301.216553	7883.938477	4713.381348	51.835167
643.162537	1299.562622	7849.974609	4689.231934	51.747421
643.496765	1293.718140	7814.246094	4672.911133	51.823917
643.830994	1292.505005	7780.061523	4663.317871	51.958130
644.165100	1293.387329	7751.059570	4654.385742	52.046593
644.499268	1292.615479	7734.409180	4635.970215	51.900990
644.833313	1291.071655	7720.955566	4640.822754	52.096603
645.167358	1288.535278	7705.075684	4628.471680	52.051983
645.501343	1287.652954	7682.139648	4620.201660	52.115971
645.835327	1287.873535	7662.069824	4610.607910	52.127895
646.169189	1289.638062	7648.727539	4603.770996	52.116470
646.503052	1289.417358	7636.818359	4596.161621	52.096035
646.836914	1293.387207	7626.342285	4590.979004	52.070351
647.170654	1295.041260	7611.676270	4577.856445	51.970951
647.504395	1296.584961	7607.376465	4572.342773	51.907242
647.838074	1296.695435	7601.641602	4562.087891	51.790966
648.171753	1299.562500	7598.995605	4561.426270	51.780273
648.505371	1300.665283	7600.097656	4558.889648	51.722504
648.838928	1301.988525	7603.184570	4553.706543	51.604774
649.172424	1304.635010	7610.131836	4546.869629	51.419174
649.505920	1302.870728	7606.382324	4542.678711	51.396877
649.839294	1308.274048	7598.001465	4538.599121	51.358746
650.172729	1310.920532	7596.127441	4536.834473	51.325500
650.506104	1314.890381	7600.207520	4531.210449	51.171959
650.839355	1317.536987	7584.989746	4524.704590	51.171787
651.172668	1318.308838	7565.913086	4520.293945	51.251404
651.505859	1316.875244	7542.977051	4511.361816	51.307976
651.839111	1319.080688	7527.979980	4500.886230	51.245888
652.172241	1321.175903	7515.959961	4492.835938	51.198879
652.505371	1319.521729	7502.616211	4482.139648	51.149433
652.838379	1320.845093	7475.930176	4473.648438	51.222740
653.171387	1319.632202	7461.924805	4462.952148	51.175026
653.504333	1318.088379	7438.988281	4461.518555	51.355686
653.837280	1318.970459	7418.918945	4444.867676	51.244652
654.170227	1319.080811	7399.731934	4445.749512	51.419964
654.503052	1315.662354	7379.772461	4436.707031	51.467480
654.835876	1315.441895	7365.657715	4439.905273	51.642181
655.168579	1312.243896	7348.234375	4442.000977	51.851593
655.501343	1312.574707	7332.906250	4432.958496	51.830765
655.833984	1310.920532	7323.863770	4434.612793	51.949474
656.166626	1312.464233	7319.673340	4438.582520	52.039444
656.499268	1313.456787	7342.720215	4455.013184	52.105141
656.831787	1312.684937	7376.904785	4478.611816	52.206661
657.164307	1311.912964	7422.889160	4506.290039	52.272778
657.496765	1311.140991	7469.424316	4533.196289	52.320671
657.829224	1311.361572	7518.275391	4564.403320	52.409969
658.161621	1315.110718	7566.463379	4585.575684	52.316116
658.493958	1317.095703	7605.831055	4608.732422	52.341789
658.826233	1310.920410	7635.494629	4614.687500	52.236988
659.158508	1310.479370	7661.739746	4630.897461	52.279671
659.490723	1311.140991	7680.155273	4643.137207	52.315727
659.822876	1310.479492	7699.012695	4645.122559	52.197319
660.154968	1306.399414	7700.555664	4651.738281	52.318691
660.487061	1307.943115	7699.343750	4646.776367	52.239464
660.819153	1303.642700	7693.719727	4648.541016	52.345196
661.151123	1305.406982	7679.934570	4638.616211	52.289513
661.483093	1308.935791	7668.576660	4633.322754	52.273190
661.815002	1310.479614	7652.807129	4618.436523	52.156830
662.146851	1312.354126	7623.915039	4588.001465	51.899166
662.478760	1314.008057	7595.354980	4574.217285	51.903030
662.810486	1311.802612	7558.523926	4554.038086	51.902996
663.142212	1309.597168	7505.482910	4529.115723	51.962200
663.473938	1306.730103	7453.654785	4486.770996	51.733852
663.805603	1306.840332	7388.263184	4448.064941	51.652790
664.137207	1307.060913	7295.854980	4403.514648	51.704128
664.468689	1306.730103	7208.187500	4361.832031	51.768600
664.800293	1304.965820	7131.107910	4313.201660	51.633411
665.131775	1304.083496	7048.623535	4267.328613	51.583679
665.463196	1302.539795	6980.255859	4224.763184	51.468292
665.794617	1304.965820	6923.795410	4200.172852	51.526871
666.125916	1309.156250	6865.902344	4172.163574	51.523090
666.457275	1308.715210	6822.564941	4155.182129	51.623947
666.788574	1305.627563	6776.801270	4144.264648	51.883514
667.119812	1306.730225	6747.910645	4124.195313	51.780399
667.450928	1307.612305	6727.731445	4110.411133	51.711018
667.782104	1311.582153	6713.063965	4100.486816	51.632214
668.113159	1308.384155	6691.230469	4097.177734	51.808903
668.444214	1304.414307	6669.286621	4085.819824	51.844769
668.775208	1303.311523	6650.980469	4070.161133	51.739357
669.106201	1304.414307	6636.645996	4074.130859	51.942917
669.437134	1303.311646	6629.367676	4065.750488	51.866501
669.768005	1302.870605	6622.200195	4056.818359	51.772461
670.098877	1300.444702	6610.951660	4050.091797	51.777485
670.429688	1303.201416	6591.874023	4050.202393	51.941216
670.760437	1299.893311	6567.504395	4038.402832	51.987690
671.091187	1298.349487	6559.564941	4019.987305	51.730209
671.421814	1296.033813	6542.692871	4006.203125	51.655144
671.752441	1295.261963	6521.189941	3994.734375	51.655373
672.083008	1292.946167	6507.185059	3982.384033	51.578728
672.413574	1293.607788	6493.731934	3975.326660	51.570286
672.744080	1296.033813	6466.936035	3962.424561	51.565289
673.074524	1293.828369	6440.581055	3948.971436	51.588703
673.404968	1297.467407	6416.541504	3926.365234	51.354950
673.735352	1301.437256	6396.582520	3909.493652	51.187084
674.065613	1303.752930	6375.410156	3894.386475	51.080612
674.395935	1302.429688	6351.700684	3884.352051	51.134556
674.726196	1301.657837	6320.494141	3873.324707	51.240303
675.056335	1304.414551	6304.504395	3852.483154	50.960457
675.386536	1304.745361	6292.815430	3846.969238	50.966080
675.716614	1306.840454	6281.346680	3843.109863	50.985352
676.046692	1308.274048	6279.913086	3834.508545	50.812908
676.376770	1310.259033	6268.334961	3829.105225	50.802895
676.706726	1312.023315	6257.638184	3828.112793	50.875160
677.036621	1310.038452	6262.820801	3828.443359	50.848286
677.366516	1310.258911	6260.616211	3824.363525	50.786324
677.696411	1314.338989	6274.068359	3824.914795	50.619205
678.026184	1313.787720	6291.381836	3840.794189	50.767624
678.355957	1312.464355	6305.166016	3847.741699	50.779667
678.685669	1312.464355	6330.639160	3857.114990	50.708687
679.015320	1309.817749	6346.187500	3874.316895	50.919594
679.344971	1306.730103	6362.838379	3880.271973	50.899662
679.674561	1305.406860	6371.991211	3888.873047	50.990295
680.004150	1301.547241	6394.928711	3894.276855	50.903896
680.333618	1299.231689	6410.145996	3911.809814	51.117630
680.663086	1299.672729	6424.701660	3928.020020	51.284534
680.992493	1298.680298	6430.987305	3944.781250	51.557732
681.321899	1298.569824	6429.002930	3942.135010	51.527134
681.651184	1298.128784	6429.994629	3941.031738	51.499844
681.980530	1296.585083	6419.849609	3940.811279	51.612133
682.309753	1295.372070	6412.682129	3939.157471	51.663578
682.638977	1290.850952	6387.650391	3940.701660	51.990482
682.968079	1288.314697	6361.735840	3933.975098	52.147465
683.297241	1288.976318	6340.563965	3924.932373	52.180740
683.626343	1288.865845	6318.619629	3914.677490	52.205566
683.955383	1293.056396	6279.803711	3895.048828	52.178150
684.284363	1294.048950	6252.235352	3883.139160	52.218494
684.613281	1292.284546	6209.890137	3870.127197	52.420692
684.942139	1296.144043	6166.111816	3849.726074	52.435295
685.271057	1299.231567	6128.619629	3832.965088	52.464893
685.599792	1301.657593	6088.370117	3811.241455	52.428135
685.928589	1305.737671	6056.721191	3787.973633	52.246780
686.257324	1310.810181	6019.118164	3777.276855	52.385418
686.585999	1310.699951	5994.527344	3753.898926	52.162449
686.914612	1310.810303	5948.323242	3736.696777	52.310078
687.243164	1310.369141	5912.043457	3713.208740	52.216637
687.571777	1307.281494	5879.072754	3686.412598	52.039368
687.900269	1308.825317	5843.344727	3663.144775	51.919930
688.228699	1309.707520	5811.365234	3650.353027	51.995190
688.557129	1305.186401	5783.466309	3631.496582	51.946510
688.885498	1306.950806	5757.552246	3617.271484	51.910305
689.213867	1310.920532	5727.668457	3597.201904	51.763905
689.542114	1311.140991	5706.827148	3574.044678	51.480106
689.870361	1310.369141	5686.095703	3553.754395	51.268864
690.198608	1305.737671	5651.470215	3535.339355	51.305542
690.526794	1305.296631	5620.042969	3518.136963	51.285530
690.854858	1302.870605	5598.098633	3502.257324	51.205353
691.182922	1300.775513	5560.605957	3476.232422	51.069099
691.510986	1300.224121	5533.919922	3461.125488	51.040543
691.838928	1297.908447	5499.404785	3443.481689	51.066887
692.166931	1297.687866	5463.015137	3420.655518	50.967613
692.494812	1296.695557	5415.708496	3402.240234	51.117702
692.822632	1295.702881	5372.591309	3382.060303	51.175240
693.150452	1293.056396	5328.923828	3361.990234	51.263672
693.478149	1296.144043	5291.430664	3346.883301	51.328964
693.805908	1294.379639	5266.067871	3333.209473	51.334087
694.133606	1294.710449	5228.244141	3322.071777	51.540459
694.461243	1296.585083	5198.580078	3309.611328	51.589664
694.788818	1295.261841	5180.605957	3301.340332	51.631939
695.116333	1293.938477	5170.019531	3293.511230	51.587486
695.443848	1295.261719	5164.505371	3295.716797	51.701450
695.771301	1292.284302	5178.620605	3304.649170	51.780510
696.098755	1289.748047	5203.322266	3321.741455	51.921677
696.426147	1293.166626	5236.514160	3342.803467	51.977074
696.753418	1293.717896	5275.661133	3375.554199	52.281921
697.080688	1297.687744	5332.451660	3400.696777	52.122234
697.407898	1298.569946	5386.485352	3426.831055	52.062260
697.735107	1301.768066	5424.308594	3452.745605	52.176018
698.062317	1303.201660	5465.219727	3476.784668	52.224258
698.389404	1306.289307	5499.735352	3488.032471	52.027451
698.716492	1305.407104	5531.273438	3502.257324	51.985794
699.043457	1303.863281	5551.122559	3511.961426	51.988777
699.370483	1305.406982	5568.545410	3519.018555	51.924458
699.697388	1309.597412	5572.294434	3519.570313	51.844471
700.024292	1313.677490	5568.766113	3511.630859	51.654701
700.351135	1314.008423	5560.936523	3506.227295	51.618927
700.677917	1318.860352	5549.137695	3493.435547	51.405025
701.004639	1319.191162	5533.699219	3478.107910	51.225834
701.331299	1319.963013	5514.731934	3457.266357	50.951630
701.658020	1321.286133	5491.244629	3437.637695	50.752342
701.984619	1319.963013	5453.972168	3419.112305	50.777569
702.311218	1319.742432	5411.186523	3392.426270	50.658981
702.637756	1319.191040	5359.027344	3362.321533	50.574585
702.964233	1319.411621	5287.901855	3321.962158	50.461269
703.290649	1316.213867	5216.665527	3281.381348	50.383076
703.617065	1319.080933	5132.086914	3233.302734	50.202435
703.943481	1320.624756	5047.287109	3190.516846	50.176052
704.269775	1320.735107	4959.289551	3143.981689	50.109093
704.596008	1319.522095	4881.105957	3100.754883	50.012375
704.922241	1317.095947	4814.500977	3062.931152	49.918015
705.248474	1316.323975	4747.565430	3030.180176	49.948574
705.574585	1315.882935	4687.687500	3003.604492	50.053955
705.900696	1316.103271	4637.072266	2979.234131	50.079685
706.226746	1314.559570	4597.925781	2958.392822	50.065487
706.552734	1311.692505	4570.799316	2944.608643	50.103176
706.878723	1306.068604	4551.612305	2933.140381	50.132488
707.204651	1302.649902	4529.888672	2921.010498	50.146912
707.530518	1301.547363	4516.986328	2916.930420	50.238338
707.856323	1302.098633	4510.700684	2915.166016	50.273212
708.182068	1301.988403	4514.008789	2924.098145	50.501225
708.507813	1299.341797	4509.597656	2927.847656	50.728226
708.833496	1301.106201	4522.278809	2932.699463	50.652153
709.159180	1301.878052	4538.268066	2936.889893	50.519615
709.484802	1303.091187	4550.949219	2938.213135	50.344627
709.810303	1303.752563	4569.696289	2945.160400	50.258301
710.135864	1306.178711	4579.620117	2949.130127	50.190342
710.461304	1306.288818	4591.309570	2954.533447	50.174557
710.786743	1305.627319	4600.352051	2957.290283	50.130531
711.112122	1305.847900	4608.181152	2962.252686	50.158619
711.437500	1305.406860	4615.128418	2967.766357	50.226566
711.762817	1308.825195	4614.136230	2971.846436	50.313606
712.088013	1307.171143	4618.546875	2975.926758	50.394630
712.413269	1309.266357	4613.364258	2970.523438	50.278687
712.738403	1312.133423	4616.562012	2971.956543	50.230259
713.063538	1313.125977	4610.276855	2969.971924	50.250839
713.388611	1312.243652	4604.983398	2966.333008	50.234440
713.713623	1309.817749	4597.154297	2967.215088	50.417637
714.038574	1312.243652	4596.713379	2969.861572	50.468357
714.363525	1310.258789	4590.096680	2964.789063	50.445488
714.688477	1305.847900	4579.951660	2958.283203	50.469852
715.013306	1306.730103	4555.581543	2950.122559	50.583797
715.338135	1307.391724	4534.299316	2936.559082	50.486954
715.662842	1306.068604	4507.282227	2924.318848	50.551147
715.987549	1306.950684	4475.633789	2911.196289	50.628151
716.312195	1308.274048	4442.441406	2895.096436	50.629787
716.636841	1303.863037	4403.735840	2876.681152	50.738152
716.961426	1300.003540	4372.087891	2857.824463	50.708923
717.285950	1297.687744	4341.210938	2835.328857	50.521748
717.610474	1293.497437	4300.630371	2818.787842	50.722416
717.934937	1293.056396	4265.012695	2803.900879	50.836700
718.259277	1292.615234	4230.827637	2781.184814	50.662422
718.583679	1291.291992	4202.046875	2764.754395	50.621315
718.908020	1288.535156	4169.406738	2741.486572	50.434441
719.232239	1286.881104	4142.720703	2721.858398	50.247124
719.556519	1287.542725	4115.262695	2702.340088	50.033150
719.880737	1287.322144	4084.717285	2685.688721	49.988171
720.204834	1284.344727	4055.274902	2666.942627	49.896526
720.528931	1288.755615	4025.060303	2647.645020	49.661480
720.852966	1286.440063	3988.890625	2629.449951	49.695999
721.176941	1288.424805	3950.295410	2611.916504	49.720364
721.500916	1289.307129	3919.970703	2594.934570	49.631107
721.824829	1284.675537	3898.798096	2571.887451	49.240688
722.148743	1284.785767	3867.370117	2560.639648	49.402214
722.472534	1288.535034	3844.874268	2546.414551	49.206280
722.796326	1289.417236	3823.701660	2536.049072	49.190685
723.119995	1288.424805	3799.882813	2526.234863	49.286510
723.443665	1293.056396	3787.201172	2522.264893	49.283768
723.767334	1294.820801	3769.006348	2523.147217	49.645687
724.090942	1294.600220	3758.751221	2518.515381	49.668839
724.414551	1299.231689	3752.686035	2519.728516	49.746059
724.737976	1300.223999	3747.503418	2511.017090	49.475067
725.061462	1302.539795	3747.393555	2511.127686	49.433956
725.384888	1302.870728	3747.834717	2512.450684	49.472305
725.708252	1303.311768	3747.503662	2516.310059	49.627785
726.031616	1303.863159	3752.465820	2526.675781	49.939205
726.354858	1302.981079	3753.017090	2533.623047	50.229542
726.678162	1301.878296	3762.721436	2538.144043	50.237484
727.001404	1305.517334	3766.580811	2545.201172	50.371876
727.324463	1307.281860	3771.102051	2547.627686	50.342381
727.647583	1309.928345	3778.269775	2546.745361	50.107212
727.970642	1306.179077	3790.069092	2556.559570	50.339607
728.293701	1308.715210	3792.384766	2563.065674	50.503922
728.616699	1309.707642	3797.126221	2575.967529	50.906590
728.939575	1309.928223	3815.431152	2580.709473	50.719608
729.262512	1305.958252	3825.686768	2584.017578	50.722103
729.585266	1305.627441	3834.950195	2591.295410	50.830521
729.908142	1304.193848	3854.909180	2593.721436	50.555527
730.230896	1302.098633	3868.252197	2595.044678	50.384594
730.553467	1304.193848	3887.329346	2595.044922	49.972256
730.876160	1301.106201	3901.333740	2601.219971	50.000000
731.198792	1296.695313	3912.360840	2601.109863	49.869316
731.521362	1294.159058	3927.357910	2605.189697	49.788517
731.843872	1293.056152	3925.152832	2613.570801	50.169685
732.166321	1289.968506	3925.152832	2612.688477	50.194592
732.488770	1291.732910	3926.476074	2614.011475	50.186241
732.811157	1289.196655	3919.639404	2607.174561	50.104790
733.133484	1288.755615	3912.250732	2599.565918	49.964275
733.455811	1290.299438	3894.386475	2592.508301	50.006351
733.778015	1290.961182	3877.845947	2588.648926	50.164112
734.100281	1289.527710	3869.685547	2581.812012	50.085476
734.422424	1286.660522	3857.666016	2575.085449	50.113663
734.744507	1290.189331	3842.668945	2559.426758	49.725666
735.066589	1288.645508	3832.192627	2547.737793	49.501434
735.388611	1291.512695	3820.062988	2534.946533	49.175762
735.710571	1290.630493	3804.293945	2526.234863	49.155518
736.032532	1292.505005	3794.038574	2521.823975	49.142612
736.354431	1292.284424	3781.467529	2513.222900	49.049767
736.676270	1293.276733	3765.367920	2512.561279	49.321987
736.998108	1298.900879	3751.914551	2507.929688	49.287487
737.319824	1297.687866	3736.807373	2500.430908	49.310539
737.641541	1301.547485	3717.729980	2494.807129	49.386154
737.963135	1302.209106	3696.888672	2482.677002	49.295441
738.284790	1303.311890	3671.305176	2480.140869	49.697311
738.606323	1303.532227	3660.498047	2468.010498	49.405819
738.927856	1305.517334	3650.022217	2459.850342	49.235683
739.249390	1307.391968	3639.436279	2453.234131	49.134663
739.570740	1311.913086	3628.740234	2443.750732	48.852917
739.892212	1310.810303	3617.933350	2438.016602	48.857658
740.213562	1308.604858	3610.214355	2433.054199	48.854916
740.534790	1310.479614	3603.818359	2426.769043	48.675293
740.856079	1306.730347	3588.931641	2421.806396	48.859673
741.177246	1304.304443	3578.455322	2419.049561	49.018082
741.498413	1306.399536	3569.964600	2417.395752	49.081703
741.819580	1307.943237	3562.245605	2413.977051	49.063244
742.140625	1309.707642	3551.989990	2408.684082	49.011513
742.461670	1307.722534	3536.992920	2394.679443	48.758411
742.782654	1306.950562	3515.489990	2386.298584	48.871574
743.103577	1309.155884	3498.728760	2371.742676	48.529411
743.424438	1309.707275	3477.335938	2360.825684	48.491627
743.745300	1305.847900	3448.003418	2347.152100	48.610111
744.066101	1304.745117	3421.758545	2338.109619	48.812374
744.386902	1303.421875	3399.924561	2327.413086	48.842827
744.707581	1302.649902	3381.399170	2323.333252	49.100842
745.028198	1302.429443	3367.504395	2311.864746	48.881290
745.348816	1299.562378	3355.815430	2305.248535	48.908680
745.669373	1297.357056	3337.620605	2298.301270	49.059555
745.989929	1295.261963	3316.558350	2292.015869	49.312607
746.310364	1293.497437	3301.892090	2289.589844	49.596447
746.630798	1294.159180	3289.431641	2283.855713	49.602074
746.951172	1290.409912	3286.343750	2282.421875	49.701645
747.271545	1286.109375	3276.529297	2276.687988	49.767319
747.591858	1290.299683	3275.537109	2276.908447	49.697269
747.912109	1295.261841	3266.936035	2276.136475	49.748314
748.232300	1291.512695	3258.555176	2274.812988	49.988766
748.552429	1294.159180	3245.542725	2272.276855	50.124317
748.872559	1289.637817	3235.066895	2272.387207	50.515816
749.192627	1293.387329	3235.287598	2274.482422	50.522423
749.512695	1293.166626	3236.941162	2271.394531	50.326202
749.832642	1293.938477	3234.956543	2274.923340	50.539707
750.152588	1295.592651	3234.625732	2273.049072	50.409477
750.472473	1295.592651	3243.116455	2272.828369	50.178371
750.792358	1297.246704	3246.204346	2271.615234	49.994343
751.112122	1298.570068	3241.242188	2273.269287	50.173119
751.431824	1300.775391	3249.181641	2268.858643	49.685905
751.751587	1300.334351	3246.093750	2266.653076	49.662807
752.071228	1299.452148	3243.447510	2261.249512	49.475292
752.390869	1300.665161	3240.911133	2256.287109	49.252617
752.710327	1303.752808	3238.595215	2253.199707	49.071018
753.029846	1303.201416	3238.595215	2244.818604	48.652485
753.349304	1304.524780	3236.610596	2242.392578	48.541725
753.668762	1305.186279	3230.545654	2232.137451	48.144321
753.988098	1304.965820	3223.157471	2226.623779	48.048271
754.307434	1304.193848	3213.674072	2221.551514	48.042271
754.626770	1303.862915	3210.917480	2217.250977	47.895226
754.946045	1302.760376	3209.262939	2209.531982	47.562046
755.265259	1299.011108	3208.050293	2209.421631	47.689461
755.584351	1300.885742	3207.277832	2203.797607	47.362339
755.903442	1299.562500	3202.756592	2204.459229	47.546215
756.222534	1298.459839	3192.391357	2201.922852	47.703045
756.541565	1296.033813	3191.288330	2199.386719	47.663937
756.860535	1295.813354	3191.178223	2196.409180	47.515697
757.179443	1294.820923	3185.995605	2189.020996	47.282787
757.498291	1297.467529	3183.789795	2190.344238	47.334263
757.817139	1300.665405	3188.752197	2183.728027	46.770233
758.135925	1302.540039	3184.892822	2185.492432	46.906849
758.454651	1301.657837	3183.569092	2185.271973	46.953018
758.773376	1305.958374	3179.820313	2188.690430	47.107635
759.092041	1306.178955	3185.002930	2191.337158	47.112354
759.410645	1302.540039	3189.193359	2188.580322	46.963596
759.729187	1301.547485	3180.482178	2196.078613	47.608421
760.047607	1301.768188	3185.223633	2203.797852	47.892277
760.366089	1305.406982	3187.319092	2211.406738	48.142513
760.684509	1305.186523	3201.543945	2220.118408	48.246807
761.002869	1305.627563	3227.237305	2228.498779	48.025944
761.321228	1304.193970	3265.833008	2246.473389	48.035313
761.639465	1306.840576	3313.470703	2274.593018	48.227745
761.957642	1306.730225	3365.739990	2299.735107	48.227303
762.275879	1304.965820	3409.297607	2324.325684	48.441025
762.593994	1303.752930	3447.561768	2345.608398	48.598339
762.912109	1302.539673	3483.180176	2365.347168	48.738316
763.230103	1305.296387	3503.359863	2376.484619	48.733273
763.548157	1302.649780	3515.710449	2387.622314	49.025887
763.866150	1302.980713	3529.274170	2400.965332	49.318954
764.184021	1301.326660	3539.860596	2403.832520	49.251247
764.501892	1298.018555	3546.587158	2409.897217	49.448288
764.819702	1295.923340	3544.491699	2409.897217	49.541473
765.137451	1296.474731	3548.792725	2412.984863	49.571606
765.455200	1292.504883	3554.416748	2410.669189	49.434479
765.772888	1293.607666	3544.161377	2406.809570	49.463467
766.090515	1293.828247	3534.347168	2407.581543	49.709610
766.408081	1295.371948	3534.897949	2402.839600	49.450989
766.725586	1293.938477	3525.415283	2395.671875	49.372387
767.043091	1294.269287	3515.600342	2389.496582	49.305000
767.360535	1294.820679	3500.824463	2379.461914	49.167694
767.677917	1293.497437	3468.404053	2364.795654	49.257202
767.995239	1291.512573	3422.089355	2345.828613	49.485008
768.312500	1292.174194	3362.983643	2312.085449	49.251812
768.629822	1290.299561	3302.553467	2280.437012	49.205395
768.947021	1290.520142	3246.204346	2250.884033	49.106285
769.264160	1294.379639	3190.406738	2218.464111	48.737934
769.581299	1294.379639	3148.392822	2194.534912	48.551720
769.898376	1292.505005	3111.230713	2175.347412	48.541813
770.215393	1292.174072	3077.928467	2158.806641	48.530334
770.532349	1292.504883	3049.698975	2143.809326	48.446808
770.849304	1291.512451	3019.925293	2130.135498	48.519833
771.166199	1290.740601	2998.863281	2120.762207	48.592621
771.483032	1287.542725	2981.770752	2111.278809	48.620144
771.799866	1288.645508	2961.260010	2098.487061	48.417706
772.116577	1291.622803	2940.528564	2090.216797	48.431755
772.433350	1293.938599	2928.509033	2083.600586	48.310062
772.749939	1294.931030	2919.025391	2079.079346	48.282188
773.066589	1294.048828	2905.131348	2073.786377	48.398361
773.383057	1297.357178	2888.811035	2066.177490	48.309307
773.699646	1298.680420	2876.460205	2060.333008	48.273693
774.016113	1300.885864	2860.029785	2050.959717	48.108059
774.332520	1303.201660	2851.208008	2047.320923	48.069523
774.648804	1308.494751	2842.055176	2039.491577	47.666645
774.965149	1307.943359	2831.689697	2038.057983	47.915760
775.281433	1313.126099	2820.993164	2029.677246	47.520844
775.597656	1313.677490	2814.156494	2024.384277	47.365326
775.913879	1312.905640	2807.540283	2022.289063	47.461994
776.229980	1314.449463	2797.836426	2018.208740	47.442730
776.546082	1312.023315	2787.691162	2015.782715	47.690907
776.862122	1315.882935	2780.854248	2011.592285	47.489624
777.178162	1317.978149	2771.812012	2008.835693	47.519703
777.494141	1315.331421	2767.621582	2007.953857	47.691738
777.809998	1314.780151	2755.822266	2002.770874	47.742584
778.125854	1316.544556	2750.309082	1998.029175	47.531139
778.441711	1317.426758	2744.133789	1990.530640	47.178844
778.757446	1316.323975	2737.847900	1985.788818	47.094872
779.073181	1313.567017	2733.547363	1984.796265	47.270321
779.388855	1316.323853	2727.702637	1974.871826	46.659904
779.704468	1315.552124	2723.623047	1967.924438	46.330929
780.020020	1310.258911	2717.888672	1961.528687	46.267120
780.335571	1311.251343	2708.736328	1952.265625	45.869137
780.651062	1310.479492	2703.222168	1952.045166	46.064911
780.966553	1307.722656	2697.708740	1945.980225	45.918270
781.281860	1301.657471	2686.020020	1940.466919	46.144665
781.597290	1301.767944	2678.631592	1937.158691	46.147690
781.912476	1299.231812	2675.102783	1933.078491	46.068760
782.227722	1300.775635	2666.060547	1928.777954	45.997894
782.542908	1299.011108	2654.923096	1924.036133	46.096283
782.858093	1299.452148	2642.682373	1917.088867	45.981449
783.173218	1302.539917	2640.256836	1913.449951	45.668110
783.488281	1300.003662	2639.595215	1907.605469	45.357243
783.803345	1299.562622	2630.883789	1899.555664	45.067490
784.118225	1301.547485	2618.202148	1888.197754	44.556122
784.433167	1302.208862	2609.821533	1881.029907	44.265480
784.748047	1303.532227	2603.425537	1877.942139	44.189003
785.062866	1306.619995	2590.193115	1876.618896	44.407200
785.377686	1305.958374	2579.276123	1875.295532	44.712891
785.692444	1306.619995	2568.689697	1872.318237	44.823059
786.007141	1305.517334	2564.830078	1872.979858	45.061287
786.321716	1308.825439	2558.765137	1875.295776	45.319813
786.636353	1311.141113	2562.073242	1882.463379	45.671722
786.950928	1309.487061	2567.256104	1883.896729	45.668930
787.265442	1308.715088	2574.313721	1888.638794	45.822086
787.579834	1304.414551	2570.674561	1891.174805	46.338055
787.894226	1308.163696	2576.850098	1890.182251	45.875683
788.208618	1304.193970	2578.834961	1888.859009	45.868996
788.522949	1305.517212	2574.424072	1888.197388	45.919853
788.837219	1302.870605	2574.424072	1888.528076	46.058422
789.151367	1303.752808	2579.937500	1885.551025	45.588875
789.465515	1301.657593	2579.937744	1885.550781	45.678028
789.779602	1299.893188	2571.005615	1882.683838	45.848866
790.093689	1303.973267	2559.427002	1882.573486	46.086941
790.407776	1300.554688	2555.016113	1879.927124	46.184956
790.721741	1299.672607	2549.943848	1881.140259	46.507320
791.035645	1298.018555	2541.562988	1875.406006	46.430786
791.349548	1296.695190	2534.615967	1867.576660	46.116154
791.663391	1293.938477	2536.270020	1862.393799	45.757133
791.977173	1296.805664	2532.630859	1859.416260	45.525097
792.290894	1296.254150	2521.714111	1851.917725	45.343266
792.604614	1298.790771	2510.466064	1845.963135	45.158333
792.918274	1299.231812	2501.754639	1838.354492	44.832638
793.231812	1298.680542	2485.764893	1827.327393	44.533218
793.545410	1298.459839	2473.083496	1829.863525	45.240337
793.858948	1300.113892	2456.983398	1821.041626	45.029083
794.172363	1304.524780	2451.690186	1818.064209	44.765945
794.485840	1302.209106	2442.427490	1819.828491	45.396511
794.799194	1308.494629	2439.449951	1818.063965	45.056541
795.112488	1307.171265	2438.126953	1820.710693	45.407562
795.425781	1309.156128	2435.370117	1816.851196	45.079803
795.738953	1305.958374	2428.533203	1817.953857	45.609028
796.052185	1307.061035	2428.753906	1817.071777	45.467949
796.365234	1307.171265	2428.754150	1819.497559	45.678860
796.678284	1305.627441	2429.966797	1812.770996	45.105915
796.991333	1308.825317	2427.540771	1810.786255	44.869404
797.304382	1309.927979	2429.305176	1811.116943	44.773911
797.617310	1312.023193	2428.974121	1813.212280	44.871181
797.930115	1312.574463	2422.468262	1812.109619	45.007473
798.242981	1314.890259	2417.726318	1810.565796	44.945534
798.555786	1313.236084	2413.425781	1805.824219	44.773018
798.868530	1317.205933	2412.764160	1804.942017	44.519413
799.181213	1313.346436	2411.110352	1804.059570	44.701153
799.493896	1313.125854	2406.479004	1799.979370	44.528477
799.806519	1316.985474	2406.037842	1793.914429	43.793022
800.119080	1318.198608	2402.068115	1782.887085	42.873100
800.431580	1315.000610	2392.033203	1774.065308	42.623100
800.744080	1313.897949	2382.329346	1767.559204	42.460495
801.056458	1315.000732	2373.948486	1755.980469	41.643200
801.368835	1312.133667	2360.054199	1746.607544	41.460575
801.681152	1314.890381	2348.144531	1737.123901	40.864441
801.993408	1316.765015	2338.440430	1733.043945	40.744736
802.305664	1319.962891	2329.397949	1728.853394	40.506866
802.617798	1320.845093	2318.812012	1722.788330	40.276207
802.929993	1320.403809	2310.431396	1714.738647	39.830692
803.242065	1321.396240	2301.058105	1714.628540	40.139595
803.554016	1318.418945	2295.985596	1715.731201	40.642982
803.865967	1318.639404	2289.479492	1709.004639	40.209015
804.177979	1316.103271	2288.045898	1706.799072	40.197414
804.489807	1314.890381	2288.045654	1706.688965	40.260643
804.801697	1311.251343	2286.281494	1705.145142	40.398113
805.113464	1310.369263	2280.547363	1702.718994	40.441002
805.425232	1306.730225	2282.311523	1699.300415	40.239616
805.736938	1305.627563	2277.900879	1691.250732	39.662014
806.048584	1300.554932	2273.269287	1693.566406	40.403584
806.360168	1297.467285	2267.535400	1693.235718	40.798004
806.671753	1296.915771	2257.280029	1693.566406	41.302101
806.983276	1298.790527	2257.831299	1695.110352	41.324608
807.294739	1300.223999	2252.979248	1693.456299	41.273170
807.606140	1301.437012	2248.568359	1696.323120	41.692856
807.917542	1301.326782	2247.906738	1697.315674	41.833645
808.228760	1301.216431	2242.393311	1697.426025	42.097252
808.540100	1300.223999	2231.917236	1696.213135	42.502094
808.851318	1297.026123	2225.080322	1691.471313	42.502388
809.162476	1297.356934	2217.361328	1691.361084	42.826332
809.473633	1297.246704	2212.840088	1690.037720	42.900158
809.784668	1291.071411	2206.113525	1690.478760	43.649067
810.095703	1295.813110	2194.975830	1683.641968	43.132221
810.406738	1298.570068	2186.594971	1679.782349	42.928108
810.717590	1302.870605	2174.465332	1675.040771	42.699909
811.028503	1303.311890	2163.548096	1675.481812	43.263691
811.339294	1303.201416	2153.733887	1675.702393	43.796207
811.650085	1302.209106	2148.661377	1672.614624	43.759766
811.960876	1299.231812	2137.082764	1668.093506	44.024738
812.271545	1301.988525	2129.143311	1669.196289	44.394081
812.582153	1309.045898	2126.496582	1664.344360	43.464207
812.892761	1307.281616	2116.902832	1663.131348	43.952618
813.203308	1302.980957	2115.579590	1663.020996	44.307243
813.513855	1303.973511	2111.058594	1659.712769	44.077045
813.824280	1303.311768	2107.530029	1659.271606	44.261597
814.134705	1301.988525	2105.765869	1656.956055	44.162422
814.445068	1301.437012	2096.943604	1654.750610	44.413662
814.755371	1301.437012	2098.156738	1655.411987	44.429047
815.065613	1299.562378	2102.016113	1653.537354	44.111576
815.375854	1302.980835	2101.354492	1655.081299	44.102215
815.686035	1302.208984	2104.111328	1652.434692	43.674358
815.996155	1303.311646	2104.442139	1653.978638	43.771519
816.306152	1308.053467	2105.544922	1652.655273	43.210720
816.616211	1306.840454	2114.036133	1658.609985	43.579212
816.926208	1303.091187	2117.675049	1665.887817	44.537666
817.236145	1303.752930	2126.166016	1673.386475	44.945000
817.546021	1304.524780	2139.619141	1676.473999	44.539783
817.855774	1305.186401	2151.638916	1680.113037	44.293877
818.165588	1305.958252	2168.951660	1688.493896	44.326599
818.475281	1309.928101	2192.218750	1698.418335	44.032001
818.784973	1305.406860	2222.102783	1713.746094	44.544678
819.094604	1299.231689	2250.112061	1727.309692	45.019123
819.404175	1298.790405	2295.434082	1750.908081	45.364025
819.713684	1298.680298	2358.620117	1783.107666	45.703289
820.023254	1297.577515	2484.661865	1855.887695	47.032055
820.332642	1295.923340	2704.766113	1976.305420	48.293686
820.642090	1295.923584	2994.231445	2130.135742	49.120197
820.951416	1296.144043	3298.804688	2291.023682	49.677895
821.260681	1292.725586	3552.982910	2418.498291	49.807281
821.569946	1293.497559	3751.914551	2521.162109	49.937199
821.879150	1294.159180	3915.779785	2598.683838	49.760239
822.188293	1295.592773	4045.460449	2669.258301	49.953876
822.497437	1298.018799	4152.204102	2722.740479	49.916931
822.806458	1298.018799	4247.811035	2765.195313	49.738300
823.115479	1298.790649	4328.861328	2803.790771	49.668812
823.424438	1300.334473	4405.721191	2839.078125	49.550789
823.733337	1295.813232	4468.245605	2865.212646	49.469910
824.042236	1296.144043	4520.073730	2889.251953	49.415096
824.351013	1295.372192	4567.932129	2912.188721	49.405251
824.659790	1297.467407	4607.079102	2935.897461	49.505203
824.968445	1297.908447	4665.522949	2967.766113	49.585773
825.277100	1301.106445	4735.656250	3004.707520	49.601875
825.585693	1304.635010	4822.220703	3047.272705	49.540733
825.894287	1309.376709	4879.562012	3077.487061	49.524330
826.202820	1314.890381	4901.395996	3083.883057	49.323570
826.511292	1313.787720	4834.019531	3048.926758	49.290474
826.819702	1316.213745	4662.435059	2953.209961	48.920742
827.128113	1320.073242	4409.911133	2817.464355	48.461803
827.436401	1319.962769	4141.618164	2678.080078	48.131935
827.744751	1321.506592	3911.148438	2563.396484	47.956047
828.052917	1322.057983	3731.293945	2469.223877	47.615341
828.361145	1319.521729	3583.308105	2398.428711	47.659397
828.669312	1320.183350	3465.977295	2335.683594	47.325153
828.977356	1315.993164	3366.732178	2282.973145	47.152756
829.285400	1312.464233	3275.867920	2243.937012	47.441734
829.593384	1310.920532	3197.353516	2205.010742	47.395809
829.901306	1307.833008	3122.257813	2166.415283	47.319805
830.209167	1312.133667	3057.858887	2135.649414	47.173275
830.517029	1312.795288	2998.532471	2105.655273	47.033428
830.824829	1314.669922	2946.704346	2081.395264	46.979729
831.132568	1311.802856	2898.073975	2056.694336	46.958649
831.440247	1308.935791	2841.724609	2026.810425	46.834541
831.747925	1308.384399	2783.059814	2000.565674	46.937874
832.055481	1305.848022	2716.786133	1973.879272	47.346603
832.363037	1306.178833	2668.706787	1947.854858	47.094521
832.670532	1304.635010	2628.898438	1930.983276	47.297859
832.977966	1306.178833	2611.034180	1916.317017	46.759068
833.285400	1308.825317	2591.847168	1905.400146	46.497635
833.592712	1306.840454	2572.659668	1898.452759	46.737503
833.900085	1307.391724	2552.700195	1887.756348	46.604084
834.207275	1302.760254	2539.798096	1880.588501	46.710636
834.514526	1301.767822	2527.668213	1876.618896	46.892151
834.821716	1302.760376	2517.964111	1869.671631	46.651539
835.128784	1303.091187	2508.921631	1860.960205	46.264301
835.435852	1306.399292	2503.297852	1860.629272	46.305511
835.742798	1308.163696	2494.696533	1855.556763	46.133831
836.049805	1307.722534	2485.323730	1848.609741	45.931271
836.356750	1309.597168	2474.847656	1843.426880	45.812443
836.663574	1306.950562	2463.930664	1837.472046	45.853985
836.970398	1307.060913	2452.021484	1835.156250	46.123451
837.277161	1304.524658	2437.244629	1829.422119	46.339561
837.583923	1305.075928	2424.122314	1818.394775	45.871098
837.890564	1308.053345	2396.774658	1805.823975	45.720665
838.197205	1308.604858	2354.650391	1782.225586	45.277256
838.503784	1311.692505	2308.005371	1753.113525	44.305462
838.810303	1309.376709	2257.059326	1726.538086	44.019100
839.116699	1306.509766	2211.626953	1702.498535	43.750000
839.423096	1309.046021	2160.791260	1678.900269	43.423107
839.729492	1308.715210	2120.541992	1660.153687	43.289837
840.035828	1304.745361	2089.996582	1643.723022	43.168053
840.342102	1302.760620	2067.500732	1624.976929	42.134094
840.648315	1308.494751	2039.601807	1611.302979	41.417767
840.954529	1311.692505	2021.517090	1601.929932	40.888615
841.260620	1313.015747	2003.432251	1595.975098	40.983864
841.566711	1310.258911	1989.207275	1589.248535	41.091434
841.872803	1309.707397	1968.365845	1575.464478	40.348240
842.178772	1312.795044	1954.250977	1570.392090	40.158184
842.484680	1310.920532	1935.394165	1565.319580	40.738155
842.790588	1312.574585	1921.830688	1561.239380	40.814495
843.096436	1313.567017	1911.354858	1554.843750	40.361599
843.402222	1314.118286	1899.996826	1548.999146	40.090366
843.707947	1315.551880	1889.300415	1539.184937	38.977539
844.013611	1315.993042	1878.162720	1532.789063	38.564159
844.319275	1313.125977	1861.070679	1528.047241	39.223167
844.624817	1314.118530	1844.529785	1515.696777	38.004143
844.930359	1311.913086	1820.380005	1502.022827	37.388813
845.235901	1311.030884	1800.530884	1492.098267	36.990273
845.541321	1315.993164	1778.035400	1481.512085	35.823330
845.846680	1311.913086	1765.354004	1471.918457	35.286930
846.152039	1311.472046	1751.459839	1461.442383	34.085114
846.457275	1316.323975	1736.793335	1455.267212	33.044796
846.762512	1318.308838	1724.553223	1450.966553	32.654659
847.067749	1316.654785	1716.392822	1446.555664	32.496502
847.372925	1315.110840	1705.365479	1438.946899	31.732117
847.677979	1313.125977	1699.410889	1432.220337	30.830704
847.983032	1314.669922	1687.391235	1427.147827	30.177481
848.288025	1310.369263	1681.767456	1421.082886	29.809952
848.592957	1309.045898	1679.782349	1415.128052	28.613899
848.897888	1312.905518	1675.812744	1412.371338	27.408058
849.202759	1312.133667	1675.151001	1407.519409	26.275808
849.507507	1308.715210	1670.739990	1409.173462	27.748999
849.812317	1308.825439	1668.093506	1405.644775	26.949051
850.117004	1308.163818	1667.211182	1403.880371	26.658476
850.421631	1305.958374	1663.682617	1404.872803	27.651028
850.726257	1304.745361	1661.146240	1400.572021	26.887323
851.030823	1304.635010	1660.154053	1399.800171	26.767950
851.335327	1303.421875	1660.264282	1403.549438	28.059322
851.639771	1301.326782	1656.404785	1400.792603	28.012386
851.944153	1296.805664	1654.419800	1398.807617	28.522909
852.248535	1297.136353	1657.507446	1396.050903	27.447969
852.552856	1295.041260	1663.792725	1397.925537	27.900711
852.857056	1291.733032	1663.131104	1394.396729	27.642496
853.161255	1286.770874	1662.579834	1399.469360	29.988237
853.465393	1284.124268	1660.594727	1395.719971	29.642618
853.769531	1279.382568	1652.765381	1393.183838	30.478443
854.073547	1280.044189	1649.788086	1393.514648	30.688934
854.377563	1280.375000	1644.715576	1394.396851	31.295403
854.681580	1280.485474	1645.156616	1398.697510	32.416065
854.985474	1280.926392	1640.194336	1398.256470	32.658096
855.289307	1279.492920	1640.525269	1395.058472	32.009750
855.593140	1276.736084	1639.312134	1398.146118	33.485397
855.896851	1277.066895	1640.525269	1392.853027	31.856779
856.200623	1276.736084	1638.981445	1390.758057	31.476448
856.504272	1275.633423	1635.783691	1390.206665	31.812622
856.807922	1278.169678	1635.452759	1384.582642	29.783936
857.111389	1280.044312	1639.312256	1384.582642	29.097595
857.414978	1278.390259	1637.768555	1384.472534	29.518276
857.718445	1279.382568	1635.121826	1381.164307	28.611332
858.021790	1284.565308	1632.585693	1380.943848	27.693361
858.325195	1287.322144	1635.452881	1383.921265	27.747944
858.628479	1291.071655	1630.380371	1386.016357	27.981804
858.931763	1289.637817	1624.315308	1386.788330	29.028099
859.234985	1288.866089	1626.410522	1390.206787	30.022921
859.538147	1291.071533	1623.763916	1388.773193	29.366966
859.841248	1294.710571	1626.410522	1389.104004	28.457476
860.144287	1297.687866	1629.828857	1390.978516	28.087666
860.447266	1298.459717	1628.615723	1390.978638	28.022789
860.750305	1296.915894	1632.585571	1389.434692	27.562454
861.053223	1299.121338	1634.680786	1386.236694	25.961229
861.356018	1295.592651	1635.342407	1383.369751	25.835810
861.658813	1294.489746	1634.460205	1383.810791	26.273178
861.961609	1299.672607	1630.049316	1380.171753	24.365866
862.264343	1299.562256	1629.056885	1379.289429	24.196806
862.567017	1301.216309	1630.821289	1381.274414	24.289106
862.869629	1302.539673	1627.843994	1382.046265	24.440681
863.172180	1302.429443	1623.322754	1385.574951	25.910639
863.474670	1302.980713	1619.463135	1386.015991	26.236933
863.777161	1304.083496	1617.037231	1386.236572	26.250870
864.079590	1303.973267	1616.044800	1385.685181	26.183712
864.381958	1302.760254	1622.330322	1384.582520	25.603857
864.684265	1300.665161	1622.991943	1382.928589	25.521748
864.986511	1297.246704	1621.889160	1382.597656	26.290754
865.288757	1299.341797	1621.338013	1383.369507	26.095869
865.590942	1301.988281	1621.117432	1380.612671	24.637169
865.893066	1303.642578	1622.661133	1378.186768	23.366726
866.195068	1301.988403	1619.352905	1376.642944	23.523281
866.497131	1300.223999	1619.353027	1375.319702	23.531454
866.799133	1304.193848	1623.874023	1373.003906	21.524656
867.100952	1304.965698	1619.794067	1373.444946	21.751295
867.402832	1306.619751	1616.816650	1371.570190	20.938456
867.704651	1309.597168	1615.272827	1371.239502	20.165928
868.006409	1309.045898	1617.808960	1374.988770	21.357111
868.308105	1307.612305	1620.345459	1374.988892	21.544434
868.609802	1310.810303	1620.896973	1376.642944	21.230400
868.911438	1310.148682	1618.360474	1375.650513	21.252214
869.213013	1310.479370	1617.478394	1377.635376	21.874990
869.514465	1310.258911	1621.117432	1376.643066	21.355103
869.815979	1312.133545	1620.345459	1373.334839	19.856888
870.117371	1311.802734	1622.771362	1374.878662	20.283695
870.418701	1315.000610	1624.425537	1372.562988	18.603020
870.720093	1317.536987	1622.440674	1371.901367	17.830017
871.021301	1319.080811	1621.558350	1372.121826	17.535522
871.322571	1320.955322	1622.550781	1372.673218	17.148102
871.623718	1319.301392	1625.638550	1370.136963	16.594648
871.924805	1318.088379	1625.417969	1367.269775	16.002819
872.225891	1318.970581	1625.528442	1364.182129	14.748129
872.526917	1321.396484	1629.277588	1362.528076	13.359571
872.827881	1323.491699	1626.631104	1364.623291	13.568541
873.128784	1318.970459	1619.242920	1365.064209	15.350642
873.429626	1317.867798	1620.345581	1365.615723	15.785597
873.730408	1317.757568	1618.691406	1367.931396	16.672710
874.031189	1314.338989	1621.338013	1370.577881	18.318916
874.331848	1314.780151	1621.227661	1365.946655	16.696661
874.632568	1311.692627	1620.786499	1366.497925	17.730955
874.933167	1311.251343	1620.896973	1367.380249	18.126820
875.233704	1309.156250	1623.102295	1367.490479	18.580973
875.534241	1308.494629	1626.630981	1367.600708	18.578852
875.834717	1307.171509	1627.513184	1370.247437	19.690203
876.135071	1303.752930	1634.570679	1372.452759	20.766670
876.435425	1302.539917	1634.019165	1368.703369	19.960058
876.735779	1304.635132	1635.893799	1372.232178	20.406122
877.036011	1298.901001	1636.004150	1377.856079	23.421638
877.336182	1297.246948	1638.650635	1378.407471	23.772596
877.636353	1294.931152	1645.928589	1379.179321	24.002502
877.936462	1294.931030	1651.001099	1384.362183	25.116167
878.236511	1297.908447	1661.366821	1393.625122	26.334976
878.536560	1297.798218	1679.782349	1406.747437	28.521923
878.836487	1297.246826	1703.049805	1426.596436	31.874977
879.136414	1294.379639	1762.486816	1454.164673	34.134285
879.436279	1291.843506	1852.138428	1503.015381	37.689415
879.736084	1293.276855	1963.513550	1560.577515	39.881531
880.035828	1290.961182	2086.908691	1625.969116	42.089199
880.335510	1293.938477	2202.694824	1686.619263	43.210789
880.635193	1293.276855	2303.594238	1743.078857	44.520863
880.934753	1297.797852	2393.576904	1788.070068	44.741886
881.234314	1296.474854	2473.193359	1827.988892	45.169174
881.533752	1298.569946	2539.467529	1865.812256	45.712257
881.833252	1297.798096	2600.889404	1897.681030	46.035374
882.132629	1298.570068	2658.892822	1922.713013	45.881973
882.431946	1298.680298	2704.766113	1946.090820	46.043457
882.731323	1299.893433	2746.559326	1970.019897	46.322132
883.030579	1298.459839	2780.192627	1991.412964	46.766403
883.329712	1298.018677	2813.053955	1998.801392	46.255207
883.628845	1298.790527	2833.675049	2010.379883	46.361099
883.927979	1298.900879	2847.128174	2020.414429	46.602558
884.226990	1299.452148	2858.045166	2021.186401	46.306782
884.526001	1296.144043	2861.684082	2022.399414	46.390087
884.824951	1296.695435	2855.398682	2020.083496	46.409607
885.123840	1295.702881	2838.306396	2007.071411	46.114799
885.422729	1297.687744	2793.645996	1980.606079	45.650894
885.721497	1300.223999	2709.948975	1935.063477	45.032860
886.020203	1301.216553	2605.962158	1880.478394	44.396534
886.318909	1302.760376	2484.331299	1816.299805	43.462429
886.617554	1302.980835	2367.773193	1756.862915	42.626347
886.916138	1302.980957	2268.858643	1703.380615	41.454491
887.214661	1300.554932	2181.522705	1660.594849	40.868683
887.513184	1301.106323	2099.369629	1620.235107	39.977886
887.811523	1298.018677	2028.905518	1584.837646	39.242596
888.109924	1303.752808	1794.686401	1454.274902	30.660378
888.408264	1292.174194	1871.105347	1424.170532	22.800007
888.706543	1294.489868	1690.478760	1417.223267	30.994152
889.004761	1331.541504	1743.740479	1451.959229	29.213495
889.302979	1313.015747	1655.742920	1391.750366	22.972973
889.601135	1329.225830	1637.217163	1407.960449	25.563908
889.899170	1282.911255	1678.900146	1401.013306	29.824587
890.197205	1313.015747	1667.321533	1426.486206	32.026138
890.495178	1299.121338	1597.849854	1387.118896	29.457369
890.793091	1271.332642	1570.061157	1421.854736	50.387589
>>>>>End Processed Spectral Data<<<<<
