Jaz Data File
++++++++++++++++++++++++++++++++++++
Date: Fri Jun 21 02:56:31 2019
User: jaz
Dark Spectrum Present: Yes
Reference Spectrum Present: Yes
Processed Spectrum Present: Yes
Spectrometers: JAZA3541
Integration Time (usec): 119000 (JAZA3541)
Spectra Averaged: 1 (JAZA3541)
Boxcar Smoothing: 10 (JAZA3541)
Correct for Electrical Dark: No (JAZA3541)
Strobe/Lamp Enabled: Yes (JAZA3541)
Correct for Detector Non-linearity: No (JAZA3541)
Correct for Stray Light: No (JAZA3541)
Number of Pixels in Processed Spectrum: 2048
>>>>>Begin Processed Spectral Data<<<<<
W	D	R	S	P
190.543274	0.000000	0.000000	0.000000	0.000000
190.921555	0.000000	0.000000	0.000000	0.000000
191.299805	1558.482544	1405.644653	1669.637329	-72.727242
191.678024	1533.009521	1440.380615	1646.479980	-122.500053
192.056229	1539.956665	1535.325317	1648.795776	-2350.052734
192.434387	1519.115234	1551.535278	1627.954224	335.715118
192.812531	1604.796997	1597.849854	1695.110229	-1300.005249
193.190659	1556.166748	1542.272461	1704.373169	-1066.671631
193.568741	1623.322754	1530.693848	1704.373169	-87.500130
193.946793	0.000000	0.000000	0.000000	0.000000
194.324829	1410.165894	1403.770142	1525.511108	-1803.466064
194.702835	1483.938232	1477.322021	1608.436035	-1881.708496
195.080811	1555.725708	1551.645752	1689.927490	-3289.294678
195.458755	1552.307251	1560.467407	1690.258179	1690.542725
195.836685	1553.520386	1565.540039	1692.904785	1159.637451
196.214569	1554.953857	1568.627808	1696.984741	1038.696777
196.592422	1551.425171	1571.164063	1704.152344	773.737305
196.970261	1549.219727	1570.833130	1703.490723	713.774658
197.348068	1548.999146	1571.274170	1701.616089	685.148254
197.725861	1545.690796	1573.810425	1700.513428	550.585632
198.103622	1539.625854	1573.589844	1700.292969	473.051361
198.481323	1540.287598	1569.399536	1701.726807	554.546387
198.859039	1539.846436	1568.958374	1702.829224	559.848633
199.236694	1536.758789	1568.296631	1698.307983	512.239197
199.614334	1539.295166	1566.201660	1695.992554	582.377563
199.991959	1540.728760	1571.604858	1694.338379	497.503326
200.369553	1537.751465	1570.502075	1698.197876	489.903564
200.747101	1536.759033	1571.935669	1701.175415	467.402222
201.124619	1535.215210	1570.502197	1702.167725	473.127716
201.502136	1531.796631	1571.274048	1702.498657	432.404236
201.879623	1529.922119	1568.517334	1702.388184	446.858673
202.257065	1525.621216	1569.730225	1698.528687	392.000366
202.634476	1525.621216	1573.589600	1696.543701	356.323212
203.011871	1524.187744	1573.258911	1696.874390	351.910614
203.389221	1524.408203	1571.715088	1695.882080	362.471283
203.766571	1523.415649	1570.722656	1694.228027	361.072052
204.143875	1523.305542	1567.635010	1695.440796	388.308868
204.521164	1526.613770	1564.878296	1691.691772	431.412628
204.898392	1524.408203	1563.444702	1694.007568	434.463562
205.275620	1523.856812	1563.665405	1698.087646	437.671417
205.652817	1524.297852	1562.783081	1698.749268	453.294464
206.029984	1529.370483	1566.422241	1699.521240	459.224518
206.407135	1528.378052	1568.848267	1696.543701	415.529419
206.784225	1530.473389	1569.950928	1696.102661	419.553192
207.161301	1530.252808	1570.281616	1702.167725	429.477966
207.538376	1528.929443	1571.274170	1705.365479	416.665894
207.915405	1529.260376	1568.517456	1706.909424	452.527405
208.292404	1529.480835	1568.737671	1701.836914	439.047302
208.669373	1525.952148	1570.833008	1702.498291	393.366211
209.046310	1524.628784	1571.053589	1700.403320	378.622040
209.423218	1528.267822	1569.509644	1699.521240	415.242126
209.800095	1530.032227	1570.612549	1699.300781	417.119781
210.176956	1530.032227	1570.833130	1699.300781	414.864716
210.553787	1531.686279	1566.201660	1697.536255	480.510345
210.930603	1535.435425	1566.091553	1695.110352	520.858093
211.307358	1536.648438	1565.760620	1693.456299	538.633118
211.684113	1538.412842	1570.391968	1693.015015	483.447144
212.060837	1534.773804	1573.920776	1687.942505	391.265778
212.437531	1533.340210	1574.802856	1684.524170	364.626892
212.814178	1532.458130	1578.772705	1682.208374	323.332855
213.190826	1532.788940	1580.426758	1677.577026	303.935181
213.567413	1530.914307	1580.095947	1677.246338	297.533844
213.943985	1528.267822	1576.015869	1674.268921	305.773956
214.320541	1528.488281	1577.669800	1674.930664	297.758972
214.697052	1527.716431	1577.228760	1679.231201	306.014221
215.073563	1529.591064	1581.198486	1677.466919	286.539886
215.449997	1529.921875	1582.852661	1674.599854	273.334259
215.826431	1528.708862	1588.586670	1673.607178	241.990021
216.202850	1529.370483	1590.792236	1674.709961	236.625412
216.579224	1533.119751	1588.807495	1671.953125	249.306870
216.955582	1533.560791	1588.586914	1673.165894	253.706955
217.331894	1531.135010	1586.932861	1674.268555	256.521606
217.708191	1532.017090	1588.035400	1673.497070	252.560242
218.084442	1537.420532	1591.674438	1674.048218	251.830139
218.460678	1534.443115	1598.180420	1676.584473	223.011246
218.836899	1532.678711	1603.694214	1678.018066	204.658630
219.213074	1532.127563	1606.892090	1680.554321	198.525650
219.589233	1531.024658	1605.348389	1681.546509	202.521927
219.965347	1533.891846	1609.869385	1684.083008	197.678375
220.341431	1535.987061	1615.713867	1688.383545	191.148361
220.717499	1535.435669	1614.721558	1690.699463	195.827774
221.093552	1534.002075	1619.242554	1695.220581	189.133743
221.469543	1535.104858	1625.197510	1692.573975	174.785751
221.845535	1536.207642	1630.380249	1694.669067	168.266998
222.221466	1537.310303	1634.350098	1696.654053	164.204544
222.597397	1535.435547	1642.069214	1692.904785	147.673096
222.973297	1537.420532	1647.362183	1690.920044	139.619064
223.349167	1536.979492	1655.853271	1690.809570	129.406235
223.725006	1537.530640	1662.359375	1692.132813	123.851433
224.100800	1538.082153	1671.952881	1693.345825	115.980301
224.476578	1538.854004	1682.097900	1695.110352	109.084122
224.852325	1537.971680	1701.726563	1695.220459	96.026924
225.228058	1541.279907	1724.332397	1697.315674	85.240997
225.603760	1540.838867	1750.246460	1697.756714	74.934174
225.979416	1536.317749	1779.248169	1702.388428	68.361420
226.355057	1535.325195	1813.322388	1700.844482	59.539913
226.730652	1533.671143	1852.028076	1701.506104	52.719116
227.106232	1534.773926	1886.543335	1707.019775	48.965557
227.481796	1531.575928	1920.286865	1711.651001	46.326218
227.857315	1528.378052	1946.972900	1714.518188	44.467854
228.232788	1528.819214	1971.673950	1712.312744	41.434250
228.608246	1531.465698	1999.903687	1716.282349	39.453812
228.983704	1534.112305	2022.950684	1720.031860	38.032928
229.359100	1531.575928	2040.263428	1723.009155	37.632774
229.734482	1528.378052	2061.546143	1722.678345	36.442596
230.109833	1529.039795	2075.881592	1723.340088	35.531353
230.485153	1528.488403	2087.349609	1728.412598	35.773495
230.860443	1521.541260	2101.575195	1732.051514	36.292747
231.235703	1520.879517	2121.534668	1733.815796	35.450672
231.610931	1519.225464	2137.523926	1735.359741	34.956303
231.986145	1517.240479	2152.079834	1736.793335	34.584003
232.361313	1516.468506	2165.532959	1739.219360	34.318756
232.736465	1519.115112	2169.833984	1742.858276	34.383999
233.111572	1517.571289	2172.921387	1742.747925	34.359749
233.486664	1518.894653	2171.708252	1744.843140	34.611485
233.861725	1517.350586	2169.944092	1742.086548	34.437359
234.236755	1520.107422	2156.931885	1744.622559	35.255421
234.611771	1522.313110	2138.516357	1745.835571	36.274147
234.986740	1523.415771	2132.671875	1744.622559	36.307686
235.361679	1526.062256	2128.922607	1743.850586	36.125835
235.736588	1526.393188	2124.952881	1742.196411	36.053753
236.111496	1527.936890	2122.196045	1743.630005	36.296135
236.486343	1528.819092	2122.857666	1738.226807	35.251534
236.861160	1527.716309	2128.371582	1735.249390	34.551113
237.235962	1529.370483	2138.626465	1737.123901	34.099529
237.610733	1532.016968	2152.962158	1741.865723	33.795052
237.985474	1532.016968	2177.111572	1745.945923	33.162415
238.360199	1533.009521	2207.988037	1748.041260	31.857569
238.734879	1534.994385	2240.628662	1754.106079	31.051737
239.109543	1532.347900	2281.539551	1761.604370	30.600510
239.484177	1533.450562	2334.360352	1769.103027	29.423098
239.858749	1535.325195	2397.105469	1778.696777	28.240561
240.233322	1530.804199	2464.923096	1786.526245	27.375750
240.607864	1528.709106	2528.660889	1794.355469	26.565918
240.982391	1529.370728	2583.025391	1804.390259	26.101486
241.356857	1527.826904	2627.685547	1813.432617	25.967493
241.731308	1533.340454	2665.288574	1823.467407	25.630764
242.105728	1529.150024	2699.583252	1830.635254	25.758430
242.480118	1528.708984	2736.414307	1835.818115	25.429144
242.854492	1529.480957	2770.378418	1840.780273	25.086626
243.228836	1527.606323	2818.898193	1846.293945	24.679750
243.603134	1531.245361	2883.187256	1857.210693	24.110899
243.977402	1529.150146	2971.956787	1871.436035	23.723616
244.351654	1526.724121	3079.692871	1888.638550	23.304682
244.725861	1527.495972	3195.809814	1902.312256	22.466772
245.100067	1529.260376	3309.391113	1919.845581	21.941378
245.474213	1530.693970	3406.872070	1932.306396	21.405880
245.848343	1529.150146	3476.453857	1941.238525	21.161999
246.222443	1528.378174	3532.362061	1951.493652	21.113716
246.596512	1530.252808	3565.884766	1955.243164	20.877563
246.970566	1530.804077	3581.543457	1955.353394	20.702257
247.344574	1531.134888	3573.714355	1954.692017	20.736383
247.718567	1528.157471	3552.431641	1951.052856	20.891211
248.092529	1533.561035	3529.936035	1949.068115	20.813078
248.466431	1533.891724	3510.307617	1947.855103	20.945156
248.840332	1534.002197	3506.668945	1946.311157	20.901096
249.214203	1533.891846	3516.923828	1943.554443	20.658396
249.588043	1529.811768	3538.868408	1943.885254	20.610344
249.961838	1525.952148	3566.656982	1944.987915	20.533875
250.335617	1524.629028	3592.460938	1949.068115	20.525801
250.709381	1522.423584	3603.377930	1948.847290	20.491737
251.083084	1521.320801	3591.468262	1948.516357	20.635996
251.456787	1521.982422	3561.474365	1942.120483	20.600134
251.830460	1521.762085	3509.425293	1938.040527	20.943108
252.204071	1522.203125	3429.367188	1928.557251	21.306721
252.577667	1521.761963	3337.069092	1920.507568	21.965738
252.951248	1521.541260	3250.725830	1910.031616	22.466679
253.324799	1517.020142	3177.835449	1899.776245	23.046278
253.698303	1516.248169	3130.969482	1894.483032	23.424158
254.071793	1518.233032	3092.374268	1891.616089	23.719793
254.445236	1520.769287	3078.479736	1888.969482	23.637268
254.818665	1521.541260	3072.855957	1893.821289	23.997711
255.192062	1521.320801	3089.396729	1899.776001	24.135004
255.565430	1525.511108	3120.272949	1904.958740	23.793373
255.938782	1522.092651	3155.891113	1910.472412	23.771584
256.312103	1523.636475	3214.445801	1919.735352	23.426584
256.685364	1522.202881	3288.438721	1930.762695	23.131668
257.058594	1520.107666	3374.341064	1945.869995	22.961636
257.431793	1523.195435	3472.593750	1962.631470	22.542137
257.804993	1527.716431	3583.969238	1981.047241	22.046452
258.178162	1529.150024	3682.222412	1993.397705	21.562103
258.551270	1530.032227	3768.455322	2006.078857	21.267054
258.924377	1529.370483	3840.132080	2017.988525	21.145323
259.297485	1525.290405	3899.569580	2026.699585	21.118374
259.670502	1529.149780	3942.906982	2029.787354	20.741007
260.043518	1533.891602	3992.750732	2038.829834	20.535467
260.416473	1530.362793	4040.167725	2045.556396	20.527237
260.789459	1527.606079	4078.542725	2049.746582	20.468580
261.162354	1530.803955	4110.521484	2057.245117	20.406931
261.535278	1529.149902	4134.229980	2059.340332	20.352175
261.908142	1529.370483	4159.372070	2060.774170	20.205452
262.280975	1526.613647	4174.479004	2064.302979	20.306522
262.653717	1530.583374	4190.909668	2059.671631	19.888098
263.026520	1530.914307	4200.062012	2055.922363	19.669502
263.399261	1525.952148	4207.781250	2059.120117	19.880758
263.771973	1526.834351	4219.911133	2059.450928	19.777252
264.144653	1523.084961	4213.735840	2056.914551	19.840166
264.517334	1525.290405	4186.388184	2051.731689	19.782862
264.889954	1525.952148	4137.316406	2043.902100	19.834457
265.262543	1526.393188	4074.020508	2032.213379	19.854559
265.635071	1529.480835	3996.830078	2018.429443	19.816759
266.007599	1528.047363	3930.997070	2008.725464	20.003670
266.380127	1524.408325	3887.770752	2004.535156	20.315414
266.752594	1526.503418	3869.796143	2000.675537	20.235292
267.125031	1525.952148	3869.355225	2004.645264	20.427263
267.497437	1520.879517	3888.873535	2007.843140	20.564394
267.869843	1518.674072	3911.148438	2013.908325	20.699669
268.242218	1521.430908	3946.104980	2019.311523	20.533918
268.614532	1521.872070	4017.010498	2029.456787	20.342949
268.986816	1519.004883	4098.060547	2039.712036	20.189838
269.359100	1521.871948	4188.152832	2051.511230	19.864347
269.731354	1522.092407	4275.819824	2061.987061	19.605957
270.103516	1523.084961	4346.615234	2070.257568	19.379025
270.475708	1518.784424	4407.816406	2080.954102	19.458755
270.847839	1522.092529	4464.496094	2086.908936	19.195749
271.219971	1526.944702	4510.920898	2089.444824	18.850691
271.592041	1529.921875	4535.180664	2092.312012	18.713535
271.964081	1532.237671	4553.485840	2087.129395	18.366308
272.336151	1532.237671	4574.547852	2085.696045	18.192043
272.708130	1531.686279	4593.956055	2086.908936	18.131083
273.080109	1530.804077	4614.908203	2087.019043	18.034897
273.452026	1530.252686	4644.680664	2094.848389	18.128391
273.823914	1533.560913	4678.535156	2101.244141	18.050489
274.195770	1535.435425	4714.483887	2105.544678	17.933331
274.567627	1536.979126	4748.447754	2110.837646	17.869036
274.939423	1537.420288	4784.065918	2109.845459	17.631281
275.311249	1538.853882	4807.002441	2113.153564	17.572632
275.682983	1536.979370	4827.954590	2110.727539	17.433987
276.054688	1534.443115	4832.806641	2108.742676	17.411652
276.426422	1536.648560	4815.052734	2106.096191	17.369659
276.798065	1537.530640	4785.389648	2101.023926	17.349686
277.169708	1537.199951	4757.159668	2098.928467	17.445204
277.541321	1539.515625	4739.075195	2091.871094	17.263485
277.912903	1539.074585	4743.375977	2091.099121	17.227610
278.284424	1539.736206	4756.277344	2094.407471	17.244339
278.655945	1535.656250	4777.670410	2101.464844	17.452379
279.027435	1538.523315	4811.523926	2107.860596	17.394964
279.398865	1537.971924	4872.173828	2117.895264	17.393167
279.770294	1538.412964	4936.683105	2135.097900	17.558491
280.141663	1538.082275	4996.009766	2149.874268	17.692448
280.513031	1541.500610	5055.887695	2164.871338	17.737679
280.884369	1538.523193	5092.829102	2173.913574	17.876637
281.255676	1540.177368	5132.637207	2176.780762	17.720543
281.626953	1538.412964	5166.601074	2186.705078	17.868206
281.998199	1539.736206	5202.770996	2193.211426	17.839722
282.369385	1540.508057	5250.519043	2201.261475	17.810013
282.740540	1542.603271	5308.743164	2214.824951	17.849089
283.111694	1540.397827	5362.334961	2225.300781	17.920309
283.482819	1541.059326	5430.263184	2236.438232	17.879725
283.853912	1542.382813	5511.203613	2250.222168	17.835005
284.224945	1538.743774	5583.652832	2259.485107	17.818480
284.595978	1542.272461	5653.455566	2271.946289	17.748512
284.966980	1541.941650	5715.318359	2284.296631	17.787872
285.337952	1537.861450	5756.670410	2295.985840	17.970104
285.708893	1539.405273	5777.953613	2302.932861	18.013893
286.079803	1540.949097	5798.574219	2310.652100	18.078224
286.450684	1543.154785	5811.917480	2315.062744	18.082710
286.821533	1537.861572	5818.423340	2321.127686	18.298210
287.192322	1536.097412	5819.305176	2328.626221	18.503159
287.563110	1538.082275	5831.985840	2336.234863	18.588043
287.933868	1538.854126	5849.850098	2343.843750	18.672937
288.304596	1538.523315	5884.034668	2349.357422	18.659119
288.675262	1538.743896	5930.018555	2363.362061	18.778561
289.045929	1537.641113	5962.328613	2373.507080	18.890961
289.416565	1536.869141	5990.999023	2380.895508	18.949299
289.787170	1538.302734	5998.938477	2390.489502	19.104603
290.157745	1535.545898	6001.916016	2395.672363	19.257841
290.528259	1536.317749	5993.204102	2400.303711	19.385416
290.898773	1539.736084	6004.672852	2406.368652	19.409740
291.269226	1537.751221	6002.908691	2410.338623	19.542143
291.639679	1538.192261	5995.741211	2417.726563	19.731344
292.010101	1540.397827	6016.803223	2430.187256	19.877321
292.380463	1537.199829	6050.877441	2442.427734	20.055218
292.750824	1539.625854	6085.503418	2456.101563	20.160589
293.121155	1537.640869	6131.597168	2471.649658	20.331253
293.491455	1534.884155	6201.399414	2491.940186	20.509010
293.861725	1532.458130	6279.141602	2512.340332	20.643513
294.231964	1532.458130	6366.808594	2534.725586	20.732204
294.602142	1535.766235	6463.296875	2554.795410	20.680321
294.972321	1533.009399	6543.686035	2570.123291	20.698080
295.342468	1527.716309	6605.217773	2585.671875	20.836145
295.712555	1525.731445	6647.011230	2602.653564	21.028379
296.082672	1529.370483	6671.602051	2609.931396	21.013464
296.452728	1529.811523	6675.351074	2614.121826	21.072821
296.822693	1528.378052	6675.020020	2618.643311	21.184011
297.192657	1527.495850	6668.844727	2620.076660	21.250860
297.562622	1525.510986	6691.009766	2623.053711	21.247564
297.932556	1531.355469	6707.330566	2630.111328	21.227997
298.302460	1530.693848	6710.307129	2633.639893	21.293985
298.672333	1529.260376	6708.653320	2634.081055	21.331083
299.042145	1529.260376	6706.778809	2639.925293	21.451683
299.411957	1527.716553	6705.897461	2642.682373	21.532000
299.781677	1527.716553	6663.441406	2640.036133	21.658474
300.151428	1527.496094	6619.552734	2635.404541	21.757584
300.521149	1524.629028	6556.917969	2623.495117	21.836308
300.890839	1525.842041	6491.747559	2613.239746	21.897270
301.260468	1526.503662	6415.769531	2601.881592	21.994673
301.630096	1525.621338	6328.434570	2582.252930	22.000263
301.999695	1525.290527	6236.907715	2566.925049	22.107792
302.369232	1523.526245	6126.966309	2547.627441	22.246433
302.738739	1525.952148	6024.302246	2528.881104	22.295485
303.108246	1529.922119	5926.270020	2512.229980	22.343725
303.477692	1530.363159	5852.166504	2491.167725	22.231567
303.847137	1526.724121	5775.858398	2483.779541	22.523539
304.216553	1530.363037	5724.691406	2476.612061	22.560205
304.585876	1531.465820	5688.742188	2472.752686	22.641912
304.955231	1535.215088	5666.687988	2464.592529	22.495064
305.324493	1534.443115	5638.126953	2463.158936	22.631273
305.693787	1530.252686	5612.212891	2460.732910	22.794937
306.063049	1530.032227	5607.581055	2464.482178	22.916952
306.432251	1528.708740	5606.588379	2470.326416	23.090864
306.801422	1529.260132	5598.097656	2472.090820	23.171991
307.170593	1532.568481	5595.450684	2470.436523	23.083811
307.539673	1528.819092	5608.573730	2474.626953	23.182959
307.908783	1531.575928	5615.080078	2476.281250	23.134672
308.277832	1531.355347	5644.522949	2488.631592	23.273457
308.646851	1534.773926	5681.133301	2497.343262	23.214808
309.015839	1536.207520	5715.649414	2499.879639	23.057436
309.384796	1538.082153	5746.415039	2511.458252	23.129730
309.753723	1535.766357	5771.998047	2514.104492	23.094540
310.122620	1533.891724	5793.611816	2520.279785	23.156170
310.491486	1532.899292	5812.357422	2529.873535	23.296741
310.860352	1530.914307	5821.179199	2534.174072	23.384565
311.229126	1534.332886	5826.031250	2537.372070	23.371614
311.597931	1529.701416	5843.123535	2540.570068	23.435423
311.966675	1526.613892	5869.699219	2545.532471	23.460707
312.335388	1526.834351	5896.274414	2550.494873	23.427729
312.704071	1522.974854	5922.739746	2564.388916	23.669767
313.072723	1524.959717	5931.230957	2567.807373	23.667349
313.441345	1523.526245	5931.341309	2568.579590	23.709103
313.809875	1523.195313	5911.823242	2561.522217	23.659489
314.178436	1523.195190	5885.688477	2553.913574	23.626820
314.546967	1521.982178	5851.614258	2546.524902	23.663507
314.915466	1519.446045	5811.254883	2545.091309	23.897739
315.283936	1523.967163	5773.100586	2540.900635	23.932728
315.652374	1523.195557	5733.402344	2534.725342	24.025654
316.020752	1523.416016	5692.822266	2522.375244	23.959269
316.389130	1525.842041	5654.116699	2515.427979	23.970934
316.757416	1525.621460	5628.202637	2515.979248	24.139872
317.125732	1523.085205	5605.376465	2509.252686	24.157206
317.494019	1524.739258	5578.800781	2511.568359	24.341740
317.862274	1526.062378	5549.468262	2508.701172	24.423059
318.230469	1529.922119	5524.436523	2502.856689	24.356768
318.598663	1533.671265	5506.020996	2498.776855	24.295586
318.966797	1531.245239	5488.487793	2496.130615	24.382771
319.334930	1533.781494	5473.932129	2487.860107	24.214268
319.703003	1532.678711	5446.804688	2484.662109	24.321735
320.071045	1530.583374	5422.875000	2485.323730	24.529005
320.439056	1532.127197	5403.687988	2481.794922	24.529325
320.807037	1537.199829	5414.494629	2483.118408	24.396353
321.175049	1538.192261	5435.997559	2491.168213	24.449039
321.542969	1539.074463	5475.586426	2498.335938	24.368311
321.910828	1539.956665	5513.740234	2509.914551	24.408926
322.278717	1543.375122	5567.442871	2518.626221	24.235453
322.646515	1543.375122	5607.582031	2522.926514	24.101908
323.014313	1543.595581	5643.199707	2527.557861	24.001398
323.382111	1542.492798	5687.860352	2536.930908	23.989141
323.749817	1541.941650	5724.360840	2548.289307	24.061378
324.117523	1535.876587	5743.216797	2554.684814	24.215017
324.485199	1533.781372	5748.399414	2557.772217	24.296171
324.852814	1537.971680	5759.096191	2562.514160	24.271790
325.220428	1539.736084	5759.537598	2561.190918	24.206228
325.588013	1537.751221	5774.203125	2562.183350	24.181370
325.955536	1536.317627	5782.694336	2562.955322	24.176792
326.323059	1532.678711	5803.094727	2566.373779	24.205957
326.690552	1531.465698	5815.775879	2574.644043	24.348806
327.058014	1530.914307	5817.209473	2583.466064	24.556213
327.425415	1534.773804	5825.149414	2583.355957	24.440334
327.792816	1535.986938	5825.590332	2582.583984	24.398457
328.160187	1538.082031	5828.567871	2582.473633	24.342035
328.527496	1530.032227	5812.688477	2581.481201	24.551329
328.894775	1529.039673	5795.044434	2574.644287	24.510160
329.262054	1528.929443	5777.400879	2576.188232	24.650248
329.629303	1532.678711	5770.233398	2571.666992	24.518581
329.996490	1530.473267	5766.263672	2572.218262	24.593874
330.363647	1532.237549	5787.656738	2580.378418	24.630733
330.730774	1527.826660	5805.520996	2584.017578	24.690659
331.097839	1528.157593	5829.229004	2585.781738	24.589785
331.464935	1527.936890	5850.953125	2589.531006	24.556793
331.831970	1528.488159	5875.543457	2595.706543	24.550375
332.198975	1526.503296	5903.552734	2595.375488	24.419926
332.565948	1526.613647	5927.261230	2596.368164	24.309025
332.932892	1525.069824	5965.636719	2599.014404	24.184853
333.299744	1527.716431	5998.608398	2605.961670	24.117004
333.666656	1527.936890	6036.652344	2613.129395	24.068773
334.033478	1526.062256	6062.897461	2612.137207	23.939045
334.400299	1526.282837	6098.184570	2619.966553	23.921854
334.767090	1527.385620	6137.110352	2627.685547	23.869102
335.133850	1523.746704	6170.633301	2638.933105	23.998571
335.500549	1522.423462	6201.068848	2644.557373	23.984161
335.867218	1517.681763	6233.599121	2651.394043	24.040121
336.233917	1517.791992	6266.350586	2658.120605	24.014206
336.600525	1517.902222	6286.419434	2663.083008	24.015450
336.967102	1518.453491	6298.108398	2669.809570	24.088688
337.333649	1514.814697	6301.747070	2675.764404	24.252476
337.700195	1515.365967	6302.960449	2675.433594	24.230698
338.066681	1514.814697	6287.301270	2670.471436	24.214983
338.433136	1514.924805	6274.620605	2664.075439	24.143362
338.799591	1517.791992	6256.425781	2668.817139	24.290232
339.165985	1518.674072	6243.192871	2667.273438	24.311459
339.532318	1518.233032	6246.500977	2665.067627	24.254856
339.898651	1522.864380	6259.623535	2672.455811	24.269577
340.264954	1521.320679	6270.540039	2686.570801	24.535614
340.631226	1519.446045	6293.697754	2696.385254	24.651804
340.997467	1514.042603	6324.463379	2708.294678	24.826353
341.363678	1512.278320	6352.583984	2718.660400	24.923676
341.729828	1514.704224	6393.384766	2737.957764	25.073450
342.095947	1517.902100	6440.028809	2746.228516	24.955196
342.462067	1519.335693	6484.028320	2757.365967	24.936697
342.828156	1520.769165	6534.422852	2770.598877	24.928520
343.194183	1523.526001	6589.118164	2785.816162	24.918905
343.560211	1529.811523	6630.911621	2796.402588	24.829763
343.926178	1529.590942	6675.130859	2806.878174	24.823191
344.292114	1528.598511	6720.674316	2813.053467	24.738756
344.658020	1526.723877	6756.071289	2813.935547	24.615149
345.023926	1530.252563	6774.155273	2821.103271	24.616220
345.389771	1530.473267	6798.194824	2832.351318	24.714252
345.755585	1531.024414	6824.880859	2836.651855	24.663069
346.121368	1537.089478	6843.737305	2847.237793	24.688812
346.487122	1534.443115	6866.122559	2850.546387	24.684589
346.852844	1536.869019	6899.425781	2860.912109	24.690519
347.218536	1538.853882	6923.574219	2871.608398	24.750673
347.584167	1539.184814	6951.252930	2877.452637	24.727474
347.949768	1540.177246	6975.071289	2876.680908	24.591164
348.315369	1540.838867	6981.578125	2882.194580	24.653923
348.680939	1544.477905	6995.692871	2886.054199	24.610594
349.046448	1547.786133	7005.065430	2888.259766	24.563040
349.411957	1546.793701	7011.351074	2888.811035	24.558573
349.777435	1543.706055	7011.021484	2887.487549	24.578451
350.142792	1546.903931	7013.336914	2881.532959	24.414989
350.508209	1547.675903	7017.306641	2882.415039	24.402727
350.873566	1545.911499	7036.273926	2885.392090	24.396944
351.238892	1545.470459	7057.776855	2894.765381	24.477863
351.604187	1549.109253	7084.462891	2901.712891	24.435722
351.969482	1553.079102	7127.248535	2918.033203	24.487129
352.334717	1553.851196	7176.099609	2930.934814	24.493467
352.699890	1551.535400	7256.376465	2948.578857	24.488737
353.065063	1551.976318	7340.295410	2968.207031	24.467045
353.430237	1551.314819	7438.216309	2993.790527	24.503139
353.795319	1548.778442	7545.511719	3013.749512	24.429485
354.160370	1548.668213	7656.886230	3034.481201	24.324820
354.525421	1547.014282	7778.847656	3062.049316	24.311224
354.890442	1547.786133	7926.062500	3088.735107	24.159332
355.255402	1544.367676	8060.375000	3123.470947	24.234215
355.620331	1547.345093	8211.227539	3155.891357	24.138275
355.985260	1548.006714	8359.985352	3186.877686	24.058662
356.350098	1549.440186	8488.122070	3209.152832	23.919712
356.714935	1547.455322	8615.155273	3237.934082	23.918371
357.079742	1548.116943	8735.904297	3265.171143	23.888496
357.444519	1544.588135	8862.386719	3293.732178	23.902597
357.809296	1537.530762	9007.835938	3332.216797	24.024267
358.173981	1534.663574	9175.340820	3364.857910	23.953300
358.538605	1535.104736	9362.474609	3401.578613	23.845478
358.903259	1535.104736	9576.954102	3443.702393	23.733316
359.267914	1535.214966	9815.033203	3493.325195	23.649193
359.632477	1534.001831	10056.529297	3547.248535	23.622648
359.997009	1532.237549	10270.126953	3598.745605	23.649967
360.361542	1533.671021	10432.007813	3633.922607	23.602741
360.726013	1533.009399	10550.330078	3661.159912	23.600697
361.090485	1533.119751	10621.235352	3678.472900	23.606138
361.454895	1537.640869	10669.645508	3695.344971	23.627934
361.819244	1538.081787	10689.494141	3696.116455	23.581440
362.183594	1538.964233	10671.849609	3691.374512	23.567690
362.547913	1538.523071	10616.161133	3686.633301	23.663759
362.912201	1539.515625	10574.367188	3673.179688	23.615929
363.276489	1536.097168	10510.079102	3664.909668	23.722050
363.640686	1532.568359	10443.033203	3652.669189	23.793381
364.004883	1531.686279	10386.685547	3645.611572	23.872677
364.369049	1529.701416	10336.401367	3634.474365	23.899677
364.733154	1531.024780	10286.117188	3627.967529	23.951120
365.097198	1537.200073	10230.098633	3619.697510	23.956308
365.461273	1542.272461	10137.360352	3606.244385	24.013390
365.825287	1545.580688	10013.523438	3584.962158	24.083553
366.189270	1546.132080	9845.798828	3556.842529	24.226398
366.553223	1545.690796	9649.182617	3517.695801	24.335251
366.917114	1546.132080	9422.791992	3475.681885	24.497055
367.281006	1547.014282	9187.691406	3426.831055	24.602751
367.644867	1549.991577	8990.744141	3385.479248	24.668039
368.008698	1548.337524	8831.179688	3355.484863	24.813765
368.372498	1548.999146	8707.012695	3326.703613	24.835165
368.736237	1547.124634	8622.102539	3309.941895	24.916222
369.099976	1540.728760	8559.579102	3296.047607	25.008636
369.463654	1538.854126	8522.858398	3299.907471	25.215525
369.827332	1534.994629	8489.886719	3296.378418	25.325825
370.190948	1534.884277	8472.683594	3291.085205	25.313517
370.554535	1533.450684	8443.021484	3285.020020	25.349901
370.918091	1534.002075	8424.715820	3281.712158	25.363266
371.281647	1538.854126	8421.626953	3280.940186	25.310818
371.645111	1536.427979	8420.744141	3280.168213	25.329170
372.008575	1536.648560	8415.342773	3283.365967	25.393154
372.371979	1535.876465	8419.863281	3284.689453	25.404072
372.735382	1531.906738	8436.183594	3292.519043	25.500315
373.098724	1531.686157	8473.456055	3293.070801	25.373711
373.462067	1529.149902	8530.798828	3306.523926	25.385078
373.825348	1528.708740	8601.592773	3321.851563	25.352358
374.188599	1525.731445	8696.095703	3347.986328	25.413700
374.551819	1522.643677	8812.875000	3373.569580	25.389124
374.915009	1517.130005	8930.976563	3398.380859	25.374828
375.278168	1514.152588	9048.197266	3425.728516	25.372505
375.641266	1512.829468	9160.785156	3446.349609	25.281530
376.004395	1510.624023	9243.048828	3463.552002	25.256346
376.367462	1513.491211	9303.587891	3470.940186	25.127403
376.730469	1516.689209	9354.423828	3489.686279	25.173054
377.093475	1522.092529	9382.984375	3493.766357	25.082064
377.456421	1522.864380	9423.675781	3499.280029	25.015350
377.819336	1524.298096	9463.595703	3508.102295	24.987148
378.182281	1526.172607	9498.992188	3521.665527	25.028698
378.545135	1521.872070	9540.673828	3531.810547	25.065323
378.907928	1522.864502	9571.441406	3536.001465	25.012333
379.270752	1523.305542	9599.780273	3546.477051	25.050180
379.633484	1526.282959	9631.869141	3554.967529	25.028229
379.996246	1524.077393	9659.878906	3560.371338	25.028805
380.358948	1525.069824	9686.673828	3563.238525	24.972649
380.721558	1521.430786	9715.344727	3575.588867	25.069317
381.084198	1523.305298	9733.429688	3583.638428	25.095030
381.446747	1525.951782	9744.015625	3588.270020	25.094944
381.809326	1527.275146	9746.000977	3585.402832	25.041933
382.171875	1527.495850	9729.791016	3583.308105	25.063866
382.534363	1528.488403	9709.280273	3581.543457	25.096045
382.896790	1533.229858	9671.567383	3573.934814	25.075207
383.259247	1531.245117	9648.851563	3571.839600	25.137884
383.621613	1532.017090	9663.408203	3575.257813	25.127813
383.983948	1527.716431	9692.850586	3589.482910	25.250860
384.346283	1523.195068	9736.739258	3601.281982	25.300734
384.708588	1519.225342	9811.723633	3619.036133	25.321812
385.070831	1519.887085	9891.341797	3638.443848	25.306910
385.433075	1519.335693	9960.373047	3656.087891	25.313858
385.795258	1517.020142	10042.305664	3677.480713	25.341797
386.157440	1518.784424	10104.719727	3696.006348	25.358004
386.519531	1514.042603	10178.823242	3718.501953	25.441608
386.881622	1519.335815	10246.749023	3734.932617	25.386637
387.243683	1517.350830	10314.126953	3751.804688	25.400826
387.605713	1519.556274	10383.047852	3768.786377	25.376343
387.967682	1522.643921	10443.366211	3785.988770	25.371765
388.329651	1525.069824	10513.719727	3801.978516	25.330929
388.691559	1523.746704	10610.648438	3820.614258	25.276688
389.053467	1521.431030	10715.627930	3846.528320	25.288746
389.415314	1519.887085	10810.132813	3881.595215	25.421371
389.777130	1518.784180	10914.560547	3905.193848	25.398748
390.138885	1520.328125	10994.397461	3935.408203	25.491476
390.500641	1518.012329	11088.901367	3953.823242	25.450207
390.862366	1521.872070	11165.982422	3966.945801	25.353025
391.224060	1525.510864	11220.676758	3987.677490	25.395815
391.585693	1529.921875	11295.551758	4005.431152	25.349203
391.947296	1536.317749	11367.119141	4018.113037	25.245096
392.308868	1535.766235	11409.905273	4033.992188	25.300699
392.670441	1535.656006	11454.014648	4049.761230	25.347998
393.031952	1533.119751	11484.449219	4063.324707	25.425800
393.393433	1537.310059	11495.697266	4061.891357	25.351309
393.754883	1537.089600	11506.393555	4061.009277	25.316910
394.116302	1538.523071	11496.689453	4061.119385	25.331936
394.477692	1529.701294	11492.830078	4060.677734	25.403431
394.839020	1527.936890	11479.376953	4061.890625	25.463184
395.200348	1526.834229	11463.718750	4065.198730	25.544872
395.561646	1529.480835	11443.759766	4060.787842	25.531933
395.922882	1529.150024	11409.354492	4056.266113	25.577572
396.284088	1529.480835	11337.236328	4047.885498	25.677687
396.645264	1527.275513	11269.638672	4031.676025	25.706293
397.006409	1530.914429	11181.641602	4006.423340	25.651007
397.367523	1533.450684	11090.887695	3993.631592	25.741009
397.728577	1538.964355	11024.392578	3973.782715	25.669041
398.089600	1539.074707	10949.627930	3969.592529	25.827578
398.450592	1539.625977	10886.000000	3969.482422	25.997852
398.811584	1539.074463	10829.209961	3967.608154	26.140993
399.172546	1537.971680	10760.399414	3955.809082	26.216930
399.533447	1528.819214	10692.691406	3944.230713	26.357981
399.894318	1532.127441	10638.768555	3940.481445	26.446131
400.255127	1532.237671	10596.091797	3934.195801	26.500404
400.615936	1531.355469	10585.175781	3935.739258	26.556566
400.976685	1529.150146	10593.115234	3950.845947	26.717842
401.337433	1531.575928	10626.307617	3973.562012	26.850557
401.698151	1531.355591	10702.835938	3999.917480	26.915632
402.058807	1537.861572	10785.099609	4025.169922	26.897850
402.419434	1539.736206	10877.398438	4049.209473	26.874748
402.780060	1538.633423	10977.195313	4074.240967	26.864342
403.140594	1534.663696	11064.090820	4100.265625	26.922941
403.501129	1535.986938	11144.919922	4122.099121	26.913628
403.861633	1537.420532	11224.757813	4145.808594	26.925751
404.222076	1539.625977	11293.236328	4175.361816	27.023182
404.582550	1535.986938	11374.728516	4194.107910	27.016882
404.942932	1535.656128	11422.916992	4211.199707	27.060513
405.303284	1530.804077	11480.369141	4231.931152	27.148190
405.663605	1531.245117	11533.189453	4245.714844	27.139420
406.023895	1532.568481	11582.260742	4257.403809	27.113621
406.384125	1530.914307	11629.016602	4265.674316	27.081919
406.744354	1529.811523	11684.814453	4285.192871	27.133240
407.104553	1536.317627	11746.566406	4302.174805	27.089027
407.464691	1536.868896	11813.392578	4318.826172	27.070995
407.824829	1537.420288	11876.467773	4336.359375	27.071535
408.184906	1538.522949	11926.201172	4354.554688	27.109348
408.544922	1538.633423	11974.169922	4364.368652	27.078009
408.904938	1537.971680	12007.030273	4366.794922	27.020798
409.264923	1536.317627	11999.752930	4364.809570	27.032154
409.624847	1534.112183	11979.573242	4362.273438	27.075504
409.984802	1533.560791	11956.416016	4350.804199	27.029478
410.344666	1535.656006	11935.685547	4345.731934	27.019884
410.704529	1534.774048	11906.352539	4342.203613	27.068491
411.064331	1531.355591	11896.317383	4341.541504	27.112362
411.424133	1532.017090	11892.458008	4343.416992	27.135908
411.783875	1531.245117	11887.385742	4344.409180	27.164213
412.143555	1536.317749	11895.656250	4352.680176	27.186699
412.503235	1535.986938	11932.376953	4359.295898	27.156630
412.862885	1536.317749	11957.078125	4359.626953	27.093119
413.222473	1535.876587	12000.966797	4369.992188	27.081619
413.582062	1530.473267	12055.992188	4388.518066	27.153482
413.941559	1529.480713	12132.080078	4408.477539	27.153688
414.301086	1532.237549	12203.647461	4428.877441	27.143929
414.660522	1531.796509	12282.932617	4454.019531	27.180599
415.019958	1529.150024	12364.093750	4472.655273	27.166780
415.379364	1530.142456	12462.125977	4497.136230	27.140488
415.738708	1528.708984	12566.443359	4522.058105	27.119234
416.098053	1529.591187	12702.960938	4563.851563	27.156178
416.457336	1526.503540	12866.385742	4609.614746	27.188213
416.816559	1528.047363	13056.165039	4664.750977	27.209158
417.175812	1526.834351	13278.144531	4729.040039	27.249775
417.535004	1528.488525	13530.667969	4807.223633	27.317831
417.894135	1528.157715	13808.997070	4886.619629	27.347168
418.253265	1528.047363	14142.681641	4977.814941	27.347343
418.612335	1530.583618	14503.713867	5073.532227	27.309900
418.971405	1528.378174	14871.801758	5170.130371	27.292486
419.330414	1527.054810	15239.122070	5255.922363	27.194059
419.689423	1521.871948	15591.002930	5348.550781	27.199112
420.048370	1521.210327	15940.676758	5441.621094	27.188318
420.407257	1519.997314	16263.223633	5535.021484	27.233009
420.766144	1519.887085	16600.767578	5622.357910	27.203123
421.125000	1524.518555	16922.103516	5704.400879	27.146351
421.483795	1525.180176	17245.310547	5794.493164	27.158253
421.842560	1520.769287	17599.064453	5884.696289	27.141726
422.201324	1520.328125	17935.947266	5974.017090	27.130800
422.560028	1519.887085	18241.623047	6065.764160	27.185436
422.918671	1520.769287	18531.310547	6150.784180	27.218504
423.277283	1524.077515	18778.761719	6214.081055	27.181046
423.635925	1525.841919	18955.306641	6259.954102	27.161547
423.994476	1527.385742	19096.347656	6294.579590	27.134182
424.353027	1529.921997	19197.578125	6316.083496	27.089964
424.711487	1530.914429	19260.099609	6335.601074	27.100435
425.069946	1529.701416	19272.009766	6339.240234	27.107740
425.428375	1529.701538	19241.906250	6340.674316	27.161907
425.786743	1531.576050	19143.101563	6317.186035	27.173170
426.145081	1531.796509	18994.343750	6280.244629	27.192186
426.503418	1530.914307	18822.097656	6231.283691	27.183617
426.861725	1533.561035	18640.148438	6192.357422	27.233931
427.219971	1537.751343	18467.904297	6147.917969	27.230509
427.578186	1539.405396	18302.933594	6107.227051	27.248571
427.936371	1542.051880	18152.521484	6065.654297	27.233442
428.294495	1545.249756	17946.314453	6023.530273	27.304815
428.652618	1543.485352	17745.066406	5977.656738	27.368757
429.010712	1544.477905	17538.191406	5923.292480	27.378347
429.368744	1549.991455	17290.296875	5863.083496	27.401575
429.726746	1550.432617	17043.066406	5797.802246	27.415413
430.084717	1548.999023	16817.117188	5732.189941	27.398209
430.442688	1548.337280	16581.134766	5669.113281	27.411901
430.800568	1549.660645	16415.947266	5627.209961	27.428162
431.158417	1548.668213	16272.815430	5596.002930	27.487736
431.516235	1546.903809	16145.229492	5572.404785	27.575087
431.874023	1542.492920	16049.514648	5552.444824	27.641455
432.231812	1543.816162	15953.795898	5531.824219	27.675322
432.589508	1543.706055	15895.242188	5517.047363	27.685825
432.947205	1543.595825	15808.457031	5489.920410	27.664656
433.304840	1542.052002	15756.189453	5476.356934	27.678816
433.662476	1541.831421	15700.720703	5470.622559	27.747875
434.020050	1545.029541	15676.790039	5469.079102	27.767591
434.377594	1544.147339	15649.995117	5466.984375	27.810005
434.735138	1536.869263	15624.854492	5467.755859	27.902405
435.092621	1536.648682	15592.102539	5466.874023	27.962280
435.450043	1536.979492	15602.911133	5476.688477	28.008873
435.807465	1532.789063	15644.480469	5487.274414	28.022760
436.164856	1532.017090	15690.354492	5497.199219	28.005985
436.522156	1531.576050	15735.567383	5508.888184	28.001369
436.879486	1527.936890	15802.060547	5529.067871	28.030659
437.236755	1525.510986	15877.817383	5565.899414	28.151491
437.593994	1529.701416	15964.602539	5589.938477	28.127916
437.951172	1528.267822	16095.165039	5629.526367	28.154648
438.308380	1526.944458	16181.729492	5671.760742	28.283024
438.665497	1526.503296	16304.906250	5706.386230	28.283724
439.022583	1530.252686	16441.642578	5746.305176	28.274044
439.379608	1531.906860	16545.410156	5780.048340	28.295473
439.736633	1532.568604	16637.816406	5808.278320	28.306122
440.093628	1535.104736	16715.669922	5835.625977	28.329126
440.450562	1534.773926	16800.359375	5861.319336	28.341824
440.807495	1534.222534	16869.169922	5887.233398	28.386213
441.164368	1534.773926	16950.664063	5913.698730	28.405266
441.521210	1534.773926	17015.833984	5938.619629	28.446667
441.878021	1532.899292	17084.865234	5956.594727	28.444605
442.234833	1536.979492	17175.837891	5985.816406	28.447325
442.591522	1538.854126	17250.492188	6015.038086	28.489609
442.948242	1535.766479	17338.599609	6042.055176	28.515701
443.304901	1538.082275	17434.316406	6072.490723	28.525045
443.661530	1541.169800	17547.126953	6113.071289	28.563749
444.018127	1542.382935	17676.144531	6156.077637	28.596523
444.374664	1544.367798	17807.478516	6194.893555	28.595551
444.731201	1552.197021	17927.343750	6222.241211	28.519096
445.087738	1551.535400	18043.792969	6259.844727	28.548605
445.444183	1552.307251	18093.746094	6278.700684	28.573050
445.800598	1548.888794	18151.085938	6291.051270	28.563463
446.156982	1546.352539	18172.921875	6293.697754	28.552763
446.513336	1545.359985	18160.902344	6296.674805	28.595604
446.869598	1546.793579	18160.683594	6304.614746	28.637611
447.225891	1546.021606	18175.570313	6306.599609	28.627224
447.582153	1546.352417	18179.318359	6311.782227	28.650509
447.938354	1548.999023	18181.964844	6326.227539	28.721449
448.294495	1548.006592	18183.066406	6326.889160	28.727776
448.650665	1544.147095	18170.828125	6329.425781	28.780722
449.006775	1537.971924	18154.617188	6332.183105	28.851860
449.362823	1539.405396	18162.666016	6340.233398	28.880184
449.718842	1541.610718	18152.962891	6344.974609	28.916153
450.074860	1540.838867	18172.703125	6343.872070	28.878504
450.430817	1544.918945	18136.753906	6338.137695	28.889019
450.786713	1541.831299	18068.271484	6319.391602	28.908590
451.142578	1537.861450	17979.615234	6291.933594	28.914629
451.498444	1534.001831	17847.619141	6254.992676	28.938957
451.854248	1533.119629	17694.558594	6221.800293	29.011528
452.210022	1529.039551	17510.074219	6176.036621	29.078197
452.565765	1527.385376	17293.279297	6123.657227	29.153259
452.921478	1529.370361	17109.785156	6072.270020	29.157757
453.277191	1531.796387	16919.673828	6025.955566	29.205843
453.632813	1531.906738	16753.052734	5990.117188	29.289583
453.988434	1531.245117	16601.978516	5955.602051	29.357277
454.343964	1528.819214	16476.490234	5919.653320	29.374702
454.699524	1529.591187	16350.117188	5889.328125	29.416882
455.054993	1527.385742	16251.754883	5867.273926	29.474188
455.410400	1526.282959	16187.574219	5840.256836	29.424242
455.765839	1523.636475	16166.403320	5844.667969	29.509665
456.121216	1525.400879	16186.471680	5842.572754	29.446499
456.476593	1529.591187	16245.579102	5868.486816	29.484228
456.831909	1529.480957	16359.379883	5903.443359	29.494217
457.187195	1528.267822	16504.277344	5946.229004	29.500254
457.542450	1528.157593	16688.544922	5999.931641	29.496435
457.897644	1528.267944	16878.652344	6056.722168	29.500589
458.252808	1531.024780	17079.128906	6112.079102	29.463747
458.607971	1536.317749	17244.759766	6169.420410	29.494347
458.963013	1539.956787	17343.453125	6206.472656	29.528376
459.318085	1542.934204	17441.373047	6229.408691	29.477577
459.673096	1541.831421	17513.933594	6255.764160	29.513538
460.028076	1541.610718	17581.533203	6280.244629	29.542747
460.383057	1541.059570	17632.478516	6304.504395	29.602392
460.737976	1542.272461	17654.751953	6307.041016	29.571915
461.092865	1543.265015	17668.205078	6311.672852	29.571630
461.447723	1543.375244	17674.822266	6311.672852	29.559021
461.802551	1546.573120	17650.451172	6312.555176	29.595243
462.157288	1547.786133	17647.472656	6318.950195	29.635136
462.512054	1548.337646	17629.390625	6325.677246	29.707880
462.866760	1545.911621	17608.216797	6318.067871	29.710283
463.221405	1547.676025	17561.681641	6301.416504	29.684891
463.576019	1547.896484	17482.503906	6288.956055	29.753225
463.930603	1548.447876	17383.810547	6256.094727	29.728697
464.285156	1546.242432	17249.832031	6224.777344	29.792774
464.639709	1547.345093	17084.640625	6178.793945	29.808590
464.994171	1543.706055	16863.326172	6123.326660	29.893826
465.348633	1542.603271	16613.998047	6050.877441	29.912788
465.703033	1539.295044	16373.494141	5991.661621	30.014204
466.057434	1532.899170	16159.786133	5936.635742	30.107134
466.411774	1530.032104	16020.070313	5894.731934	30.122072
466.766083	1522.864380	15879.141602	5864.407227	30.241426
467.120331	1521.100098	15783.867188	5834.633301	30.243311
467.474548	1521.430908	15706.787109	5815.445313	30.270756
467.828735	1519.997314	15633.897461	5794.162598	30.283373
468.182922	1520.438232	15605.998047	5793.500977	30.336477
468.537048	1521.871704	15567.403320	5791.957031	30.401737
468.891144	1520.879272	15539.833008	5782.473633	30.398804
469.245178	1517.571289	15543.692383	5783.796387	30.416286
469.599213	1514.483398	15538.730469	5780.598633	30.419567
469.953186	1512.278076	15543.582031	5771.777344	30.357115
470.307129	1512.719116	15539.062500	5783.355469	30.447252
470.661041	1515.255493	15572.252930	5790.303223	30.412241
471.014923	1517.019775	15620.001953	5805.741211	30.410034
471.368713	1514.483521	15633.895508	5810.262695	30.424633
471.722504	1516.799194	15624.414063	5805.961914	30.403173
472.076294	1515.696533	15594.748047	5794.052734	30.388102
472.429993	1517.571167	15538.951172	5778.835449	30.391190
472.783722	1517.681396	15533.877930	5785.121094	30.446487
473.137329	1521.210205	15559.459961	5794.273438	30.438719
473.490967	1524.628662	15589.895508	5805.521973	30.435923
473.844543	1525.069702	15655.178711	5831.876953	30.479645
474.198090	1525.731445	15736.008789	5855.805664	30.471426
474.551605	1524.849243	15840.216797	5892.747559	30.511955
474.905060	1525.400635	15973.979492	5935.863770	30.525236
475.258484	1526.834229	16111.156250	5979.531738	30.530710
475.611877	1525.180176	16262.120117	6023.199219	30.522070
475.965240	1522.974731	16434.146484	6074.807129	30.526323
476.318573	1525.731445	16599.001953	6135.236328	30.580656
476.671844	1529.149902	16778.083984	6190.924316	30.571150
477.025116	1531.024536	16965.107422	6252.014648	30.588083
477.378326	1533.340210	17172.417969	6316.523926	30.584818
477.731506	1535.435425	17399.578125	6391.950684	30.613159
478.084656	1534.773926	17628.064453	6469.141602	30.661022
478.437744	1532.788940	17876.400391	6546.772949	30.678556
478.790833	1532.347900	18179.759766	6643.702148	30.703598
479.143890	1529.149902	18532.742188	6755.409180	30.736208
479.496826	1527.606079	18959.386719	6886.853516	30.744120
479.849823	1528.488281	19549.675781	7071.339355	30.757414
480.202728	1529.039673	20281.115234	7288.025879	30.711193
480.555603	1525.952148	21176.748047	7563.045410	30.721874
480.908478	1522.974731	22400.552734	7930.914551	30.692928
481.261292	1522.974731	23963.777344	8409.828125	30.688980
481.614075	1524.628906	25732.109375	8968.689453	30.751076
481.966797	1526.834229	27496.359375	9527.551758	30.808102
482.319489	1527.606079	29080.205078	9984.190430	30.692509
482.672150	1526.393188	30462.691406	10395.286133	30.649714
483.024780	1524.739014	31572.472656	10711.989258	30.575516
483.377350	1523.636353	32530.302734	10983.149414	30.507998
483.729919	1522.313110	33403.109375	11223.985352	30.431084
484.082428	1523.856812	34220.453125	11452.580078	30.366230
484.434937	1524.187622	35104.066406	11709.845703	30.332623
484.787384	1523.636230	36042.925781	11992.254883	30.326868
485.139771	1526.503296	37078.054688	12290.982422	30.278509
485.492157	1529.921753	38098.410156	12599.635742	30.271183
485.844482	1531.355347	39044.769531	12882.044922	30.257681
486.196777	1530.693726	39872.480469	13124.974609	30.239285
486.549072	1531.796509	40529.593750	13324.568359	30.239584
486.901276	1531.134888	40987.113281	13465.827148	30.248123
487.253448	1530.363037	41207.882813	13521.403320	30.221245
487.605591	1528.047241	41187.921875	13516.221680	30.227465
487.957703	1529.039917	40949.730469	13447.411133	30.233795
488.309784	1533.450806	40448.871094	13292.917969	30.218012
488.661835	1533.450806	39685.007813	13052.416992	30.192648
489.013855	1533.560913	38832.492188	12773.645508	30.135141
489.365814	1533.340454	38064.773438	12505.132813	30.033838
489.717743	1533.009521	37422.546875	12330.460938	30.085232
490.069611	1532.017090	36896.214844	12168.361328	30.076586
490.421509	1533.561035	36463.058594	12050.258789	30.108356
490.773315	1538.633545	36034.433594	11934.693359	30.137175
491.125092	1539.625977	35581.214844	11806.004883	30.158342
491.476807	1534.553345	35043.742188	11658.460938	30.212334
491.828522	1536.317749	34357.406250	11462.726563	30.243996
492.180176	1533.230225	33541.167969	11224.978516	30.279202
492.531830	1530.804199	32589.628906	10950.620117	30.328953
492.883423	1527.495972	31597.392578	10650.347656	30.338820
493.234985	1525.290405	30630.853516	10370.254883	30.389259
493.586487	1528.047363	29768.414063	10132.506836	30.468651
493.937988	1528.929443	29037.640625	9913.285156	30.478910
494.289429	1532.788818	28473.484375	9745.009766	30.482586
494.640869	1531.686157	28000.085938	9617.644531	30.549479
494.992218	1531.686157	27623.722656	9510.128906	30.578075
495.343567	1529.149902	27261.039063	9399.526367	30.586082
495.694855	1530.362915	26811.238281	9267.198242	30.603512
496.046112	1533.230103	26245.205078	9104.656250	30.638695
496.397339	1532.899292	25526.890625	8899.218750	30.700682
496.748535	1534.663574	24699.515625	8654.193359	30.734192
497.099670	1534.994385	23875.558594	8407.623047	30.763004
497.450806	1536.097046	23117.435547	8193.694336	30.848862
497.801880	1540.177124	22517.664063	8024.425781	30.910513
498.152924	1536.648560	22015.919922	7891.877930	31.032497
498.503937	1535.766357	21626.441406	7795.058594	31.155209
498.854889	1541.279907	21339.951172	7718.529785	31.200325
499.205841	1537.089600	21112.789063	7661.850586	31.287571
499.556702	1541.941650	20926.869141	7613.770996	31.322424
499.907562	1539.956787	20761.572266	7572.087891	31.382019
500.258362	1540.838867	20609.949219	7539.998535	31.460094
500.609161	1544.588257	20483.576172	7506.917480	31.481771
500.959900	1543.926636	20330.847656	7451.229980	31.443699
501.310608	1543.595703	20167.863281	7414.288574	31.521738
501.661255	1540.949097	19978.414063	7366.540039	31.596485
502.011902	1544.257324	19809.808594	7322.320801	31.633667
502.362488	1545.249756	19609.330078	7269.719727	31.689795
502.713043	1546.352539	19430.138672	7217.892090	31.713306
503.063568	1541.279907	19261.421875	7181.061035	31.826952
503.414063	1538.523071	19106.378906	7140.260254	31.886290
503.764496	1541.059204	18964.458984	7095.600586	31.879778
504.114899	1539.295166	18838.527344	7073.214844	31.989395
504.465271	1538.743774	18744.794922	7051.821289	32.041504
504.815613	1535.656128	18675.433594	7038.038086	32.102993
505.165894	1529.701416	18602.212891	7029.877930	32.216564
505.516174	1527.716553	18584.128906	7017.637695	32.186844
505.866394	1527.937012	18570.455078	7019.181641	32.220852
506.216583	1523.305664	18563.177734	7030.870605	32.321636
506.566711	1523.856934	18600.339844	7032.634766	32.259441
506.916840	1523.085083	18640.369141	7039.251465	32.225712
507.266907	1521.872070	18704.107422	7060.423340	32.234173
507.616882	1518.674072	18761.666016	7082.808105	32.268959
507.966858	1516.689209	18802.027344	7098.025879	32.289429
508.316803	1516.248169	18854.185547	7118.756836	32.313583
508.666748	1516.579102	18909.541016	7138.495605	32.322941
509.016632	1515.145508	18965.890625	7155.587891	32.322071
509.366486	1513.932373	19011.984375	7167.607910	32.310314
509.716309	1512.940063	19094.466797	7196.389160	32.326256
510.066040	1512.609253	19168.130859	7227.485840	32.368778
510.415771	1515.476318	19257.892578	7247.444824	32.306583
510.765503	1514.263428	19336.626953	7274.461426	32.320057
511.115173	1516.248169	19421.427734	7300.816895	32.306679
511.464752	1516.578979	19503.468750	7330.260254	32.321770
511.814270	1518.012451	19575.478516	7360.255371	32.353615
512.163818	1518.563843	19630.283203	7378.669434	32.355324
512.513306	1516.578857	19691.484375	7387.712891	32.303516
512.862793	1520.328003	19720.816406	7403.701660	32.325359
513.212219	1519.887085	19769.556641	7408.664551	32.267857
513.561646	1518.563721	19808.925781	7416.272949	32.244900
513.911011	1515.255615	19836.164063	7433.696289	32.304295
514.260315	1513.932251	19890.197266	7451.229980	32.309601
514.609558	1514.593994	19954.156250	7463.247559	32.260273
514.958801	1517.460938	20057.042969	7487.508301	32.201630
515.308044	1517.019897	20201.500000	7526.985840	32.165550
515.657227	1518.894531	20392.933594	7571.866699	32.070358
516.006348	1520.989746	20606.861328	7630.973145	32.013123
516.355408	1523.415771	20836.009766	7698.349609	31.973612
516.704529	1523.856812	21066.146484	7769.035156	31.957251
517.053467	1523.415649	21249.308594	7827.479004	31.958319
517.402466	1526.062256	21397.183594	7880.741211	31.979467
517.751404	1523.084961	21517.271484	7923.747070	32.012615
518.100281	1525.290405	21624.896484	7947.897461	31.953896
518.449219	1520.548950	21691.941406	7980.427734	32.024952
518.798035	1517.571411	21757.333984	7997.849609	32.017563
519.146851	1516.689331	21826.916016	8015.824219	31.999321
519.495544	1517.020020	21905.869141	8039.092285	31.988426
519.844299	1522.313110	21994.197266	8069.747559	31.982569
520.192932	1520.218018	22093.333984	8111.872070	32.040138
520.541626	1522.313110	22156.630859	8144.402344	32.092602
520.890198	1527.937012	22260.949219	8178.697754	32.078121
521.238770	1530.583496	22355.783203	8212.442383	32.085449
521.587280	1531.796387	22446.537109	8251.479492	32.128933
521.935791	1530.693726	22546.884766	8282.133789	32.124947
522.284180	1532.788940	22645.027344	8317.751953	32.137581
522.632629	1534.994385	22760.375000	8362.743164	32.167850
522.981018	1530.693726	22887.296875	8422.951172	32.272255
523.329346	1530.693848	23058.660156	8486.248047	32.309387
523.677551	1525.731567	23236.419922	8552.191406	32.364059
524.025818	1523.415771	23458.398438	8614.274414	32.326710
524.374023	1521.100098	23722.173828	8693.450195	32.306320
524.722229	1520.438477	24090.261719	8792.584961	32.220661
525.070374	1520.548584	24555.941406	8940.901367	32.212833
525.418457	1519.556274	25200.154297	9153.396484	32.236687
525.766541	1524.849365	26106.705078	9431.503906	32.164597
526.114563	1525.621338	27271.955078	9802.460938	32.147644
526.462585	1522.974854	28579.017578	10209.476563	32.105591
526.810547	1526.172729	29825.097656	10609.104492	32.096382
527.158447	1526.172607	30890.884766	10947.420898	32.083569
527.506348	1528.157593	31764.574219	11202.481445	31.995605
527.854065	1528.598633	32475.056641	11414.755859	31.946007
528.201904	1522.202759	33035.906250	11589.539063	31.945900
528.549622	1520.879639	33462.882813	11721.645508	31.935272
528.897339	1520.879517	33790.281250	11822.213867	31.922915
529.245056	1519.997314	34014.574219	11898.191406	31.938236
529.592712	1516.027466	34193.992188	11962.701172	31.968557
529.940369	1515.365845	34378.804688	12015.189453	31.949863
530.287903	1517.571289	34558.000000	12066.908203	31.928570
530.635437	1514.704346	34745.679688	12132.520508	31.951563
530.982910	1517.020020	35013.753906	12217.320313	31.944311
531.330383	1518.233032	35248.523438	12306.972656	31.985315
531.677795	1521.651489	35370.593750	12361.335938	32.023705
532.025208	1522.643921	35337.398438	12364.865234	32.063583
532.372498	1521.320801	35142.769531	12295.172852	32.044579
532.719788	1522.643921	34723.730469	12162.956055	32.048084
533.067078	1520.659180	34028.792969	11953.769531	32.093845
533.414307	1523.195435	33081.554688	11661.326172	32.125027
533.761536	1525.290649	32011.136719	11329.625977	32.160286
534.108643	1523.085083	31022.433594	11019.870117	32.193203
534.455811	1523.856934	30247.216797	10785.541992	32.244438
534.802856	1527.275635	29614.585938	10595.873047	32.287170
535.149902	1524.408447	29126.521484	10444.248047	32.315784
535.496887	1523.195313	28710.240234	10315.669922	32.340679
535.843811	1522.864624	28364.095703	10203.963867	32.342407
536.190796	1520.328247	28066.687500	10115.855469	32.379307
536.537659	1526.613892	27817.033203	10036.680664	32.369457
536.884460	1527.826782	27578.732422	9958.497070	32.362289
537.231323	1525.180298	27296.324219	9886.489258	32.444458
537.578064	1525.952148	27017.113281	9799.594727	32.456909
537.924805	1524.518677	26697.654297	9701.892578	32.484528
538.271423	1526.062500	26405.654297	9611.138672	32.496819
538.618164	1527.275391	26236.941406	9555.007813	32.488228
538.964783	1526.062378	26303.761719	9570.006836	32.464451
539.311279	1525.290405	26509.308594	9628.892578	32.435143
539.657776	1529.811523	26777.714844	9719.647461	32.437687
540.004333	1534.001831	27009.066406	9794.521484	32.425903
540.350769	1530.914307	27213.953125	9863.773438	32.444988
540.697144	1534.773926	27352.234375	9919.460938	32.476810
541.043518	1534.773926	27429.089844	9951.219727	32.503059
541.389893	1532.788940	27431.296875	9936.883789	32.450111
541.736145	1533.009521	27319.259766	9891.121094	32.413055
542.082458	1531.465698	27184.619141	9853.077148	32.438938
542.428711	1530.032104	27028.029297	9811.834961	32.480209
542.774902	1534.443115	26874.091797	9772.135742	32.509102
543.121033	1534.001953	26771.865234	9747.104492	32.542782
543.467102	1535.766357	26708.130859	9725.601563	32.535023
543.813171	1530.473389	26658.839844	9717.551758	32.581020
544.159180	1527.826782	26623.990234	9704.428711	32.581081
544.505127	1527.275269	26580.546875	9681.933594	32.549274
544.851135	1525.510986	26465.642578	9655.688477	32.598778
545.197021	1529.039673	26279.062500	9591.399414	32.575161
545.542908	1529.811523	25915.710938	9491.162109	32.647354
545.888733	1528.598633	25382.431641	9333.361328	32.719116
546.234558	1529.701416	24666.982422	9112.595703	32.773491
546.580322	1529.370483	23875.119141	8874.185547	32.868961
546.926025	1522.754150	23061.306641	8631.255859	33.003620
547.271667	1516.799438	22344.753906	8416.554688	33.127377
547.617371	1515.917236	21688.521484	8205.273438	33.160599
547.962952	1510.513916	21087.759766	8006.340820	33.180496
548.308533	1506.985229	20539.593750	7835.639160	33.251637
548.654053	1510.513916	20035.978516	7694.820801	33.382732
548.999573	1510.072876	19574.046875	7560.508789	33.494488
549.344971	1509.631836	19205.074219	7458.066406	33.615631
549.690430	1511.727051	18895.871094	7370.069336	33.699341
550.035767	1514.704468	18655.806641	7295.415039	33.724266
550.381104	1517.461182	18424.896484	7231.014648	33.793140
550.726440	1517.350952	18201.921875	7163.637695	33.841366
551.071655	1521.872070	17961.861328	7092.622070	33.885365
551.416931	1523.305664	17699.191406	7025.796875	34.016628
551.762085	1523.305664	17417.554688	6948.716309	34.134426
552.107178	1526.393188	17137.240234	6867.886719	34.216553
552.452332	1527.937012	16865.531250	6784.410645	34.271828
552.797424	1528.488281	16617.859375	6702.147461	34.286777
553.142395	1529.039551	16403.378906	6638.851074	34.353199
553.487366	1531.906494	16235.324219	6587.905273	34.386555
553.832336	1533.450439	16092.630859	6541.481445	34.397755
554.177185	1538.192261	15982.911133	6501.893066	34.363430
554.522095	1537.199707	15885.650391	6474.655273	34.411072
554.866943	1540.508057	15797.429688	6448.961914	34.428570
555.211731	1540.177246	15707.779297	6431.208496	34.522648
555.556396	1542.162109	15630.037109	6409.924805	34.552853
555.901123	1536.758667	15550.971680	6389.304199	34.625885
556.245789	1533.891602	15491.977539	6371.550781	34.658470
556.590454	1533.340454	15421.841797	6341.225586	34.617741
556.934998	1535.656006	15336.601563	6314.208984	34.624821
557.279541	1531.135010	15230.741211	6279.142090	34.657978
557.624023	1529.260376	15136.675781	6244.295898	34.650486
557.968567	1528.488403	15005.562500	6213.199219	34.760593
558.312988	1526.393188	14903.338867	6181.771973	34.801510
558.657349	1528.267822	14807.733398	6149.792969	34.802044
559.001770	1528.708862	14752.045898	6126.083984	34.767132
559.346069	1524.628784	14695.036133	6103.257324	34.764515
559.690308	1524.187622	14652.139648	6088.039551	34.764385
560.034485	1519.445923	14622.696289	6078.445801	34.792896
560.378723	1517.681519	14593.473633	6065.764648	34.782467
560.722900	1515.365845	14547.491211	6054.186035	34.827938
561.067017	1513.380981	14502.721680	6047.459473	34.906147
561.411072	1513.932251	14474.269531	6038.968262	34.914494
561.755127	1513.380859	14445.488281	6027.500000	34.906292
562.099182	1512.057617	14444.275391	6031.580078	34.947777
562.443115	1513.711914	14463.792969	6031.469727	34.885941
562.787048	1512.609131	14476.474609	6040.402344	34.926258
563.130920	1517.020142	14514.077148	6051.429199	34.887970
563.474792	1519.997437	14593.033203	6077.013184	34.858128
563.818604	1519.887085	14671.437500	6106.345703	34.873898
564.162354	1516.689209	14778.511719	6139.647949	34.859154
564.506042	1522.202881	14880.733398	6176.699219	34.842876
564.849731	1525.290405	14948.110352	6201.951660	34.841122
565.193420	1526.723999	15022.654297	6213.750977	34.729187
565.537048	1527.054688	15072.498047	6228.857910	34.711327
565.880615	1524.959595	15111.315430	6244.627441	34.738293
566.224121	1526.723877	15117.048828	6247.163574	34.733822
566.567627	1533.781372	15125.760742	6248.817871	34.689846
566.911072	1532.788940	15127.083008	6252.787109	34.720436
567.254517	1536.758789	15147.593750	6260.836914	34.708218
567.597839	1535.104858	15172.957031	6271.313477	34.728405
567.941223	1534.002075	15221.255859	6281.788574	34.687649
568.284485	1532.678833	15281.576172	6293.587891	34.627571
568.627808	1534.663696	15341.895508	6312.444336	34.603466
568.970947	1535.876709	15414.675781	6333.616699	34.568844
569.314148	1538.633545	15486.792969	6348.502930	34.483898
569.657288	1534.774048	15551.301758	6366.477539	34.471474
570.000366	1534.112305	15612.943359	6384.562500	34.452080
570.343445	1532.348022	15662.568359	6404.411621	34.479740
570.686462	1528.378174	15679.879883	6413.232910	34.518276
571.029419	1526.723999	15675.358398	6408.933105	34.506573
571.372314	1526.613770	15632.462891	6395.700195	34.518208
571.715210	1521.651367	15592.434570	6373.866211	34.484325
572.058105	1520.989990	15575.562500	6356.222656	34.403271
572.400879	1521.872070	15552.845703	6353.355469	34.434414
572.743713	1518.563843	15550.087891	6347.841309	34.417339
573.086426	1520.328125	15549.425781	6339.681641	34.352554
573.429077	1521.982178	15559.351563	6339.681641	34.320530
573.771790	1517.902100	15557.585938	6343.761230	34.372993
574.114441	1517.571289	15556.593750	6351.370605	34.431168
574.457031	1516.248047	15535.863281	6340.342285	34.409607
574.799561	1519.115112	15488.666992	6323.360840	34.390835
575.142029	1518.674072	15425.588867	6304.173340	34.410931
575.484436	1520.438477	15341.343750	6279.582520	34.434387
575.826904	1518.674194	15231.954102	6247.824219	34.485912
576.169250	1519.666626	15101.721680	6214.521484	34.566605
576.511597	1518.012573	14939.840820	6171.957031	34.674446
576.853943	1521.320679	14764.176758	6120.459473	34.729206
577.196167	1524.518555	14579.801758	6064.992188	34.778820
577.538391	1523.526123	14387.044922	5998.057129	34.784660
577.880554	1526.503296	14197.925781	5937.848145	34.813335
578.222717	1527.606079	14013.992188	5873.889648	34.808182
578.564819	1527.936890	13843.730469	5819.525879	34.846222
578.906860	1531.906860	13668.176758	5770.344238	34.923725
579.248901	1529.039795	13486.114258	5721.824219	35.065304
579.590942	1528.488525	13311.665039	5668.672363	35.136395
579.932861	1530.473267	13130.047852	5620.924316	35.263805
580.274780	1531.576050	12965.851563	5566.560059	35.288498
580.616638	1528.929443	12799.669922	5514.291504	35.360252
580.958496	1528.267822	12642.088867	5460.147461	35.378288
581.300232	1525.400757	12493.443359	5409.091309	35.409145
581.641968	1525.841919	12354.940430	5364.319824	35.445961
581.983704	1524.187744	12222.283203	5320.431641	35.485229
582.325317	1525.841919	12101.534180	5287.239746	35.566444
582.666992	1527.275391	11995.232422	5256.032715	35.620678
583.008606	1529.591187	11896.317383	5229.567383	35.690880
583.350098	1530.693970	11814.714844	5197.588379	35.656235
583.691589	1529.039917	11735.871094	5173.879883	35.709808
584.033081	1530.473511	11675.662109	5150.722656	35.684395
584.374512	1529.150146	11635.742188	5123.264648	35.562084
584.715881	1530.804199	11580.606445	5110.252930	35.617104
585.057190	1531.245361	11526.683594	5090.292969	35.606720
585.398499	1526.613770	11487.756836	5085.331543	35.725998
585.739807	1531.355469	11463.937500	5079.707520	35.724365
586.081055	1531.134888	11458.313477	5070.114258	35.649399
586.422180	1532.347900	11440.449219	5071.327148	35.718037
586.763367	1531.134888	11435.597656	5067.797852	35.707771
587.104431	1532.237671	11436.257813	5067.908203	35.699345
587.445496	1529.370483	11437.471680	5071.547363	35.750309
587.786499	1529.039795	11440.559570	5071.216309	35.737976
588.127502	1532.237671	11449.160156	5075.627441	35.730736
588.468445	1533.340332	11450.815430	5071.105469	35.672035
588.809326	1533.560913	11456.659180	5074.854980	35.687382
589.150208	1536.207520	11464.377930	5079.596680	35.690254
589.491028	1537.751343	11463.717773	5071.877441	35.604855
589.831848	1533.450562	11459.858398	5065.922852	35.586609
590.172546	1529.591187	11462.835938	5061.291504	35.554344
590.513245	1527.385620	11457.653320	5056.108398	35.535023
590.853943	1526.723999	11469.452148	5057.321289	35.509338
591.194458	1523.084961	11473.973633	5065.922363	35.603226
591.535095	1526.282837	11476.620117	5076.619141	35.680565
591.875610	1528.819214	11484.891602	5085.551270	35.724247
592.216125	1524.739014	11512.017578	5096.688965	35.764999
592.556580	1528.819214	11542.123047	5096.799316	35.632397
592.897034	1527.385620	11559.435547	5102.532715	35.637253
593.237366	1524.408203	11564.838867	5112.457520	35.736012
593.577698	1529.260254	11603.103516	5118.743164	35.631710
593.918030	1530.252686	11650.410156	5133.960938	35.609211
594.258301	1531.686401	11705.215820	5151.383789	35.579563
594.598511	1533.450684	11771.158203	5176.856934	35.588108
594.938721	1535.325317	11857.501953	5207.182129	35.572506
595.278809	1534.443115	11935.464844	5231.662598	35.546696
595.618958	1537.861328	11997.327148	5250.740234	35.497787
595.958984	1535.876587	12031.291016	5262.649414	35.508583
596.299011	1534.663574	12048.934570	5271.030273	35.536144
596.638977	1534.112305	12065.916992	5281.616211	35.582733
596.978943	1536.317749	12067.018555	5289.334961	35.638813
597.318848	1538.302490	12054.998047	5284.041992	35.617077
597.658630	1541.720947	12036.031250	5285.034668	35.669933
597.998474	1541.941650	12002.398438	5277.977539	35.715801
598.338257	1541.610718	11959.060547	5260.774414	35.701286
598.677979	1536.648438	11904.476563	5247.100586	35.788132
599.017700	1535.986938	11873.490234	5239.270996	35.823780
599.357361	1536.317749	11823.316406	5222.068359	35.829208
599.696960	1537.530640	11767.958984	5213.025879	35.927090
600.036560	1535.104736	11732.892578	5203.983398	35.977200
600.376038	1537.420532	11709.957031	5197.367188	35.978706
600.715576	1535.215088	11680.955078	5191.963379	36.042202
601.055054	1530.473267	11653.055664	5187.883789	36.131203
601.394409	1530.142456	11614.680664	5181.598633	36.208462
601.733826	1529.260376	11593.729492	5165.167969	36.126175
602.073120	1523.195435	11560.426758	5158.330566	36.216515
602.412415	1519.335693	11560.868164	5157.778809	36.233944
602.751587	1515.366089	11583.473633	5165.277832	36.252213
603.090820	1516.578979	11618.099609	5186.450195	36.329887
603.429993	1518.563843	11665.185547	5204.093750	36.322727
603.769104	1517.902100	11700.142578	5215.010742	36.309383
604.108154	1517.240479	11724.841797	5223.060547	36.304512
604.447205	1517.571289	11761.012695	5239.601563	36.335739
604.786194	1516.358276	11777.001953	5250.739746	36.395195
605.125183	1519.666504	11801.591797	5253.827148	36.317715
605.464111	1522.423340	11833.351563	5259.561523	36.244442
605.802979	1524.849121	11869.520508	5269.265625	36.196571
606.141846	1523.415527	11894.111328	5275.661621	36.181240
606.480652	1525.621338	11927.525391	5290.106934	36.190350
606.819336	1524.187622	11986.520508	5309.625488	36.181587
607.158020	1522.202759	12036.363281	5326.607422	36.183628
607.496765	1518.453491	12074.296875	5341.824707	36.220421
607.835388	1515.255615	12102.967773	5349.654297	36.215557
608.173950	1520.328369	12105.945313	5352.631836	36.202930
608.512512	1522.313110	12089.955078	5342.155762	36.146595
608.851013	1523.415771	12038.128906	5335.759766	36.257233
609.189514	1528.708862	11961.158203	5317.013672	36.312706
609.527893	1531.575928	11846.584961	5286.578125	36.403286
609.866333	1536.428101	11725.615234	5255.812500	36.503246
610.204712	1538.082153	11597.809570	5209.497559	36.496174
610.542969	1536.317749	11477.282227	5168.366211	36.536175
610.881226	1535.545898	11375.941406	5135.835449	36.586838
611.219482	1536.538330	11296.544922	5107.605957	36.588783
611.557678	1534.774048	11222.221680	5083.015137	36.627205
611.895813	1534.001953	11170.172852	5055.998535	36.549751
612.233948	1529.370605	11119.116211	5036.479980	36.571453
612.571960	1530.693848	11067.949219	5028.099609	36.670986
612.910034	1530.693848	11004.432617	5011.889648	36.745747
613.247986	1530.032227	10945.435547	4988.511719	36.732143
613.585938	1525.510986	10878.611328	4969.324219	36.820019
613.923828	1526.723877	10775.286133	4939.770996	36.903542
614.261658	1528.708740	10655.861328	4896.874512	36.902702
614.599487	1530.583374	10533.898438	4861.366699	36.995075
614.937317	1532.899170	10426.493164	4823.322754	36.997681
615.275024	1529.921753	10327.688477	4790.461914	37.060997
615.612732	1525.951904	10242.007813	4761.459961	37.121243
615.950378	1524.297852	10159.083008	4734.553711	37.178177
616.288025	1523.856812	10087.185547	4709.631836	37.202526
616.625549	1523.415649	10036.679688	4689.121582	37.185574
616.963074	1522.092407	9979.669922	4668.831543	37.206154
617.300537	1521.761597	9949.125000	4659.017090	37.227009
617.638000	1521.761597	9913.396484	4655.046875	37.338196
617.975464	1523.636230	9882.080078	4647.769043	37.376968
618.312744	1525.952026	9843.483398	4644.901855	37.498505
618.650024	1523.746582	9816.908203	4642.475586	37.606030
618.987305	1523.526001	9787.244141	4638.505859	37.694656
619.324585	1529.370483	9754.933594	4631.118164	37.708633
619.661743	1528.267822	9729.902344	4619.649414	37.692261
619.998901	1531.465820	9711.817383	4606.968750	37.596218
620.336060	1534.001953	9686.896484	4596.382813	37.561886
620.673096	1539.184814	9661.203125	4583.811035	37.486076
621.010193	1538.633423	9631.980469	4574.548340	37.511242
621.347168	1535.766357	9616.762695	4572.122559	37.574036
621.684082	1534.773926	9601.544922	4560.543457	37.509056
622.020996	1535.545898	9580.703125	4555.250000	37.534431
622.357849	1540.397827	9554.568359	4541.686523	37.449772
622.694641	1540.397827	9528.212891	4540.363281	37.556770
623.031433	1541.941650	9508.142578	4538.488770	37.615761
623.368164	1542.162231	9502.850586	4533.306641	37.573944
623.704895	1541.059570	9505.497070	4531.541992	37.547943
624.041504	1537.971924	9534.609375	4536.614746	37.498795
624.378174	1534.663818	9550.929688	4545.877441	37.563797
624.714783	1534.994629	9583.019531	4547.862305	37.436111
625.051331	1531.906982	9605.955078	4556.022461	37.454762
625.387756	1531.024780	9641.573242	4562.638672	37.378654
625.724304	1531.906860	9667.598633	4562.969727	37.256363
626.060669	1535.656128	9673.332031	4573.996582	37.336708
626.397034	1532.678955	9680.831055	4578.627930	37.382080
626.733337	1532.568604	9681.161133	4577.415039	37.366531
627.069641	1527.716553	9676.640625	4573.334961	37.374485
627.405884	1528.267944	9668.479492	4573.775879	37.413128
627.742126	1527.937012	9663.517578	4571.791504	37.414104
628.078308	1523.526123	9658.775391	4569.254883	37.438667
628.414429	1523.526123	9645.101563	4561.425781	37.405300
628.750488	1524.959595	9631.758789	4556.904297	37.400024
629.086548	1526.062256	9595.479492	4548.303223	37.453026
629.422546	1523.526123	9564.051758	4542.128418	37.542351
629.758545	1525.069824	9526.228516	4528.895020	37.542377
630.094421	1524.187744	9472.195313	4512.685059	37.600582
630.430298	1525.290405	9417.831055	4497.025879	37.652454
630.766113	1526.282959	9351.777344	4483.131836	37.784821
631.101929	1529.260254	9271.388672	4460.747070	37.864094
631.437622	1531.575928	9189.014648	4422.702148	37.755787
631.773376	1529.149902	9111.272461	4397.560059	37.831230
632.109070	1529.149902	9044.116211	4371.645996	37.824471
632.444641	1525.510864	8975.857422	4350.363281	37.915718
632.780273	1528.378052	8906.606445	4336.469238	38.059155
633.115784	1525.069946	8849.706055	4313.201660	38.065125
633.451294	1521.872070	8788.946289	4292.691406	38.128403
633.786682	1520.438477	8727.304688	4273.062988	38.194473
634.122131	1521.982178	8668.307617	4254.978516	38.243382
634.457458	1520.107666	8613.833008	4240.863770	38.354404
634.792847	1519.997314	8549.323242	4221.125000	38.426552
635.128113	1524.739136	8485.807617	4201.496582	38.453255
635.463318	1526.613770	8434.750000	4183.080566	38.454174
635.798584	1525.841919	8377.078125	4166.760254	38.546597
636.133728	1525.952148	8329.109375	4151.652832	38.595325
636.468872	1525.290527	8283.125000	4137.979004	38.661621
636.803955	1524.739136	8240.559570	4122.651367	38.683468
637.139038	1526.613770	8204.279297	4102.912109	38.580822
637.473999	1525.069946	8163.147949	4090.230713	38.643124
637.808899	1525.400757	8111.651855	4070.933105	38.649185
638.143799	1522.202759	8053.869141	4050.312500	38.705433
638.478638	1523.415771	7994.541504	4038.072266	38.859642
638.813538	1528.047363	7933.230469	4015.797363	38.839638
639.148315	1530.252808	7868.169434	3997.602051	38.929974
639.483032	1530.583496	7802.336914	3978.966064	39.038246
639.817749	1529.150024	7742.680176	3952.500732	39.001186
640.152405	1527.165161	7685.999023	3928.240234	38.985874
640.487000	1529.480835	7628.216309	3915.007813	39.115108
640.821594	1528.819214	7575.727539	3902.656982	39.257053
641.156128	1528.598511	7530.735840	3891.078613	39.360645
641.490662	1528.267822	7483.979980	3870.347168	39.324928
641.825134	1524.959595	7437.886230	3855.570801	39.415527
642.159546	1522.092651	7393.886719	3843.220215	39.530125
642.493896	1519.666626	7349.887695	3833.626953	39.689068
642.828186	1517.902222	7319.563477	3824.584473	39.758995
643.162537	1516.358398	7284.606934	3818.077637	39.903259
643.496765	1515.696777	7244.688477	3803.632324	39.936096
643.830994	1516.027588	7218.002441	3789.076660	39.864243
644.165100	1513.380981	7196.499023	3782.350098	39.924725
644.499268	1510.293457	7173.011230	3771.433105	39.930290
644.833313	1509.301025	7158.014160	3761.397949	39.869205
645.167358	1515.035156	7139.157715	3760.736572	39.929810
645.501343	1513.491211	7132.981934	3754.009766	39.870491
645.835327	1509.962524	7123.058105	3753.568359	39.970921
646.169189	1508.529053	7114.456055	3747.613770	39.941383
646.503052	1512.057617	7104.311035	3736.917480	39.784676
646.836914	1513.932251	7088.541504	3734.050537	39.825539
647.170654	1516.578979	7080.492676	3728.426270	39.753441
647.504395	1517.461182	7083.359375	3724.015137	39.644165
647.838074	1520.107666	7085.785156	3720.817383	39.540733
648.171753	1518.563965	7084.130859	3719.714600	39.549442
648.505371	1519.666626	7081.926270	3722.581787	39.604679
648.838928	1519.666626	7087.440430	3726.441650	39.634781
649.172424	1521.982300	7097.144531	3725.008301	39.515011
649.505920	1522.754150	7098.687500	3728.536377	39.558975
649.839294	1523.526245	7092.181641	3726.441162	39.559193
650.172729	1525.070068	7090.195801	3720.927734	39.457466
650.506104	1525.731567	7093.063965	3724.566895	39.495316
650.839355	1524.959595	7090.638184	3723.905029	39.509022
651.172668	1528.157593	7082.256836	3724.566895	39.545731
651.505859	1533.671265	7068.252441	3722.141357	39.541752
651.839111	1538.082153	7056.342773	3723.574707	39.604736
652.172241	1535.876709	7041.786621	3718.392090	39.639503
652.505371	1535.435547	7022.710449	3719.494873	39.802258
652.838379	1536.648560	7007.603516	3720.597168	39.918968
653.171387	1536.758789	6991.062500	3714.201172	39.921547
653.504333	1537.310181	6964.927734	3711.665283	40.060947
653.837280	1534.001953	6946.622559	3706.813232	40.143425
654.170227	1533.781494	6934.712891	3703.945801	40.181297
654.503052	1535.214966	6922.582520	3694.462402	40.079826
654.835876	1537.751221	6907.695801	3690.272217	40.084606
655.168579	1542.713379	6891.927246	3683.766357	40.025562
655.501343	1541.279907	6883.436035	3681.340332	40.059864
655.833984	1544.477783	6877.039551	3676.818848	39.987183
656.166626	1543.044312	6878.804199	3675.054199	39.957005
656.499268	1544.588013	6896.999023	3675.936768	39.820347
656.831787	1545.580444	6924.126465	3685.751221	39.790882
657.164307	1540.287598	6959.083496	3699.645020	39.849396
657.496765	1539.625854	6995.473145	3709.900635	39.778881
657.829224	1541.059448	7031.642090	3725.890625	39.792336
658.161621	1538.302612	7066.819336	3734.602051	39.726738
658.493958	1535.986938	7092.732910	3743.423828	39.725353
658.826233	1532.568604	7112.912109	3742.320801	39.598854
659.158508	1530.032227	7145.002441	3752.024658	39.572647
659.490723	1530.914429	7156.470215	3753.127686	39.502113
659.822876	1531.576050	7165.181641	3754.781738	39.463280
660.154968	1531.245239	7168.710449	3761.177734	39.555588
660.487061	1529.921875	7173.231934	3757.428223	39.471626
660.819153	1531.906860	7170.034180	3757.979248	39.482475
661.151123	1530.473267	7159.007324	3757.538330	39.567406
661.483093	1531.134888	7142.245605	3757.538330	39.678478
661.815002	1528.708740	7124.049805	3749.047363	39.681919
662.146851	1524.077393	7100.892090	3744.856689	39.821648
662.478760	1521.320557	7082.146484	3731.293457	39.741810
662.810486	1519.666504	7055.461426	3725.228027	39.841820
663.142212	1519.004883	7017.968750	3717.399658	39.978344
663.473938	1521.430908	6967.243164	3702.401855	40.048588
663.805603	1521.320557	6898.985352	3679.575928	40.133690
664.137207	1523.967041	6828.961914	3660.498779	40.273964
664.468689	1525.400635	6759.269531	3632.379150	40.256615
664.800293	1526.172607	6684.834961	3609.001221	40.375362
665.131775	1529.921875	6612.826660	3584.851563	40.428253
665.463196	1529.480713	6554.823730	3562.797363	40.461254
665.794617	1531.906860	6497.812500	3551.438965	40.667950
666.125916	1537.530640	6446.314941	3533.134033	40.653721
666.457275	1537.971802	6413.785156	3526.517578	40.783878
666.788574	1536.979370	6383.789551	3514.608154	40.802689
667.119812	1539.295044	6353.906250	3504.572998	40.819035
667.450928	1540.397827	6330.308105	3502.367920	40.960480
667.782104	1540.177368	6313.988281	3495.089600	40.950768
668.113159	1540.397827	6295.461914	3488.472900	40.968430
668.444214	1535.876709	6287.633301	3484.613525	41.010868
668.775208	1536.758789	6277.928711	3487.921875	41.153622
669.106201	1540.067017	6267.453125	3484.834473	41.138325
669.437134	1543.044312	6245.729004	3486.598633	41.328613
669.768005	1546.904053	6219.263184	3476.233154	41.292397
670.098877	1548.999146	6209.559570	3467.080811	41.155602
670.429688	1548.227295	6190.813477	3463.220703	41.248421
670.760437	1550.101929	6188.717773	3454.288574	41.050751
671.091187	1550.542969	6176.477539	3442.379395	40.896309
671.421814	1549.109375	6162.472656	3442.820801	41.048393
671.752441	1546.573120	6143.506836	3436.093750	41.103935
672.083008	1542.934204	6130.383789	3430.800537	41.152851
672.413574	1544.367798	6119.577148	3428.705322	41.185822
672.744080	1539.846558	6102.816406	3421.096680	41.228634
673.074524	1536.758911	6089.362793	3416.906250	41.298283
673.404968	1535.876709	6066.977539	3408.305176	41.323921
673.735352	1536.869019	6040.401855	3397.608643	41.317333
674.065613	1533.560913	6016.141602	3389.228027	41.397297
674.395935	1531.355469	6001.144531	3380.626953	41.372681
674.726196	1528.819214	5980.192871	3367.724609	41.310966
675.056335	1529.150024	5964.313965	3362.762695	41.342613
675.386536	1531.796509	5940.384766	3357.028320	41.401730
675.716614	1528.929443	5925.387695	3347.875732	41.372993
676.046692	1526.503296	5913.808594	3342.472412	41.391449
676.376770	1526.834229	5913.698730	3334.642822	41.209587
676.706726	1523.856812	5920.866699	3334.863037	41.187222
677.036621	1524.518555	5919.323242	3341.148926	41.335861
677.366516	1525.290405	5932.114746	3341.148926	41.205605
677.696411	1521.210327	5936.635254	3347.434570	41.360104
678.026184	1518.343384	5951.631836	3356.918213	41.472031
678.355957	1517.902100	5965.967285	3356.146240	41.326824
678.685669	1519.997314	5992.542969	3358.902832	41.115410
679.015320	1519.666626	6014.707520	3367.394043	41.105907
679.344971	1521.210449	6027.168945	3376.215820	41.167831
679.674561	1522.313232	6048.010254	3384.706543	41.151524
680.004150	1517.240723	6064.110352	3389.448730	41.175758
680.333618	1518.453735	6078.115234	3391.874512	41.086838
680.663086	1517.791992	6094.435059	3398.821533	41.100639
680.992493	1519.997437	6107.778320	3401.468262	41.010479
681.321899	1521.761719	6110.093750	3401.578613	40.969505
681.651184	1523.746704	6108.219238	3408.746338	41.117043
681.980530	1526.393188	6103.146973	3404.997070	41.046642
682.309753	1526.723999	6094.655762	3407.312500	41.169365
682.638977	1527.385498	6081.533691	3404.886475	41.226170
682.968079	1528.929199	6066.426270	3398.601563	41.204926
683.297241	1531.024414	6046.797852	3396.837158	41.317677
683.626343	1532.678589	6027.499512	3388.676758	41.291927
683.955383	1530.803955	5996.403320	3375.333740	41.305309
684.284363	1533.340332	5959.351563	3367.173340	41.433086
684.613281	1533.119751	5924.835938	3353.058838	41.440269
684.942139	1531.355469	5886.681641	3340.046143	41.528248
685.271057	1532.348022	5854.041016	3331.996582	41.642212
685.599792	1529.260376	5815.224121	3322.623535	41.842705
685.928589	1530.363037	5784.348633	3307.626953	41.778797
686.257324	1527.716553	5753.692871	3290.424072	41.711246
686.585999	1528.488525	5724.580566	3275.537109	41.635136
686.914612	1531.024780	5680.582031	3261.201660	41.695457
687.243164	1531.024780	5642.647949	3245.653320	41.701988
687.571777	1531.245117	5601.516602	3227.347900	41.670509
687.900269	1530.363037	5560.385254	3215.218018	41.807587
688.228699	1528.378052	5526.420898	3202.757080	41.879967
688.557129	1530.362915	5496.758301	3190.737305	41.861038
688.885498	1526.393188	5467.314941	3177.504395	41.896572
689.213867	1525.510986	5442.834473	3161.735596	41.768944
689.542114	1524.628906	5421.772461	3151.149658	41.736229
689.870361	1523.636475	5396.079102	3142.437988	41.803112
690.198608	1522.313110	5375.126465	3132.733887	41.798565
690.526794	1522.533813	5343.258301	3124.353027	41.924488
690.854858	1522.313110	5320.982910	3115.972656	41.953094
691.182922	1516.248169	5299.259277	3104.945313	41.995571
691.510986	1516.358398	5276.433105	3092.815430	41.926216
691.838928	1521.320679	5241.477051	3074.069092	41.738796
692.166931	1522.974731	5200.455566	3060.064453	41.797352
692.494812	1526.282837	5167.484375	3050.029541	41.847359
692.822632	1525.841797	5120.288086	3041.318115	42.161606
693.150452	1527.495850	5083.236328	3034.480957	42.381752
693.478149	1525.952148	5042.655762	3030.180664	42.773823
693.805908	1527.826782	5017.734375	3023.123047	42.846298
694.133606	1527.606079	4996.671875	3015.514160	42.890739
694.461243	1529.039673	4976.712402	3012.206055	43.019348
694.788818	1530.583496	4963.038086	3011.103027	43.132969
695.116333	1532.458130	4961.714844	3011.323730	43.124958
695.443848	1532.347900	4954.547363	3014.301270	43.304119
695.771301	1534.663452	4967.780273	3028.305908	43.506893
696.098755	1536.869019	4989.614258	3038.450684	43.489502
696.426147	1538.302612	5020.049316	3051.904053	43.472477
696.753418	1537.751343	5064.489258	3066.349609	43.343121
697.080688	1537.530640	5103.635742	3082.890625	43.334675
697.407898	1537.199829	5152.597168	3096.784668	43.137299
697.735107	1537.310059	5187.553223	3116.082520	43.251160
698.062317	1540.066895	5222.729980	3127.440918	43.103970
698.389404	1541.831421	5252.503906	3143.319580	43.158974
698.716492	1540.949097	5280.292480	3157.655518	43.235035
699.043457	1536.427979	5295.730957	3165.926025	43.345749
699.370483	1534.884155	5303.449219	3171.329346	43.423565
699.697388	1536.207397	5314.476563	3172.101074	43.297436
700.024292	1536.648438	5318.777832	3170.777832	43.206596
700.351135	1538.192261	5310.507324	3164.823730	43.120247
700.677917	1537.309937	5302.567383	3158.647949	43.060482
701.004639	1538.192139	5290.989258	3157.545410	43.150566
701.331299	1538.853760	5274.338379	3152.914063	43.208858
701.658020	1535.876465	5256.915039	3146.408203	43.281780
701.984619	1535.435303	5223.171387	3136.262939	43.409496
702.311218	1537.640747	5193.177246	3123.912109	43.393665
702.637756	1539.074341	5146.642578	3100.865234	43.292065
702.964233	1536.207275	5091.506348	3085.647461	43.581150
703.290649	1532.678711	5023.027344	3059.402832	43.741306
703.617065	1532.237671	4950.688477	3038.561279	44.064510
703.943481	1531.024658	4864.344727	3006.471680	44.263588
704.269775	1528.708862	4791.344238	2984.748047	44.627705
704.596008	1528.267822	4730.583984	2958.062012	44.648750
704.922241	1525.510986	4663.869141	2937.000000	44.975395
705.248474	1526.503418	4603.991211	2919.136230	45.252262
705.574585	1524.959717	4556.352539	2908.439697	45.638428
705.900696	1525.400757	4518.529297	2900.830811	45.952927
706.226746	1526.503540	4489.969238	2892.891113	46.107754
706.552734	1525.621338	4460.085449	2887.928955	46.424408
706.878723	1523.526245	4434.391602	2878.776123	46.558319
707.204651	1522.533813	4421.049316	2877.342773	46.741474
707.530518	1526.282959	4410.683105	2878.114746	46.867001
707.856323	1523.526123	4401.089844	2881.643311	47.196774
708.182068	1521.761719	4400.096680	2888.590820	47.486797
708.507813	1526.282837	4397.781250	2888.369873	47.434711
708.833496	1525.841797	4395.465332	2892.781006	47.634792
709.159180	1522.092407	4407.264648	2895.647949	47.607399
709.484802	1519.335693	4415.645020	2904.359375	47.820297
709.810303	1521.982178	4421.489746	2907.226563	47.775162
710.135864	1522.643799	4431.855469	2917.592041	47.949356
710.461304	1523.415771	4434.281738	2924.539063	48.134243
710.786743	1522.754150	4447.514648	2937.330811	48.365555
711.112122	1522.974731	4447.183594	2940.969971	48.491585
711.437500	1524.739136	4451.043457	2947.145020	48.607590
711.762817	1526.723999	4454.351074	2955.966797	48.819157
712.088013	1525.952148	4456.335938	2960.047363	48.938820
712.413269	1532.017090	4455.343262	2961.370605	48.894768
712.738403	1533.009521	4461.628906	2959.275391	48.700962
713.063538	1530.142578	4457.989746	2953.872070	48.627178
713.388611	1526.282959	4458.431152	2954.092529	48.695000
713.713623	1523.085083	4456.666992	2958.172852	48.919300
714.038574	1522.533691	4455.343750	2956.077637	48.879536
714.363525	1517.571411	4444.757813	2950.232910	48.943295
714.688477	1518.784424	4438.692871	2941.521484	48.725399
715.013306	1518.233032	4424.467285	2935.235840	48.757347
715.338135	1517.240479	4405.832031	2925.421387	48.749741
715.662842	1516.799438	4392.268066	2916.930420	48.692268
715.987549	1514.704346	4365.250977	2908.439453	48.893608
716.312195	1515.586548	4337.020996	2894.324951	48.866573
716.636841	1510.072876	4309.893555	2883.076904	49.038998
716.961426	1512.940063	4277.473633	2865.764160	48.934982
717.285950	1510.624390	4246.596680	2848.892090	48.913792
717.610474	1510.513916	4219.910645	2832.572266	48.795303
717.934937	1511.616699	4188.042480	2820.883301	48.918472
718.259277	1510.293579	4158.048828	2806.658203	48.960892
718.583679	1511.065308	4126.400391	2791.550781	48.960667
718.908020	1511.506470	4098.060059	2783.942139	49.194248
719.232239	1507.205811	4065.860107	2772.032715	49.433285
719.556519	1505.882568	4031.344971	2763.652100	49.803535
719.880737	1508.529053	4001.350830	2757.587158	50.106194
720.204834	1513.270752	3963.527588	2749.867676	50.468052
720.528931	1516.248047	3929.343262	2739.943115	50.710602
720.852966	1519.335693	3900.341797	2730.569824	50.870686
721.176941	1523.305542	3871.340088	2725.166260	51.185818
721.500916	1525.069824	3841.566650	2719.322266	51.554245
721.824829	1525.510986	3815.542480	2706.089355	51.552933
722.148743	1523.967041	3794.039063	2706.861328	52.108227
722.472534	1524.849243	3771.322266	2703.222168	52.454353
722.796326	1528.047241	3750.590820	2692.415771	52.389011
723.119995	1527.716553	3727.654297	2687.232910	52.706779
723.443665	1531.796631	3714.201172	2683.704346	52.781586
723.767334	1531.686279	3707.695801	2688.225342	53.149540
724.090942	1534.774048	3705.820801	2690.099854	53.215149
724.414551	1535.435547	3699.424561	2690.761475	53.388714
724.737976	1536.207520	3699.755615	2692.856934	53.460766
725.061462	1539.405396	3692.477783	2698.370605	53.828442
725.384888	1539.405518	3692.257324	2700.906738	53.951752
725.708252	1540.949341	3693.801270	2701.347900	53.900524
726.031616	1539.736206	3705.379883	2698.149902	53.490505
726.354858	1541.390381	3719.053223	2703.663574	53.372505
726.678162	1537.751343	3719.604980	2707.192383	53.598515
727.001404	1536.317749	3735.263428	2710.059570	53.377480
727.324463	1538.964355	3741.769775	2714.690918	53.374054
727.647583	1536.758911	3746.511230	2720.094238	53.550583
727.970642	1536.648682	3750.922363	2723.181885	53.585663
728.293701	1536.758789	3754.451172	2731.121582	53.856106
728.616699	1534.002075	3762.831543	2740.384277	54.126266
728.939575	1531.465820	3774.961670	2742.589844	53.983788
729.262512	1528.929443	3786.760742	2751.742432	54.158741
729.585266	1530.473267	3800.875732	2765.526367	54.397984
729.908142	1531.796631	3818.629883	2782.839355	54.706337
730.230896	1532.678711	3826.128418	2794.748779	55.029331
730.553467	1533.450562	3835.611572	2807.871338	55.357582
730.876160	1534.773926	3837.927002	2816.803223	55.664093
731.198792	1536.097290	3846.527832	2827.720215	55.903992
731.521362	1536.758911	3854.026855	2833.674805	55.967453
731.843872	1535.656128	3861.084473	2839.960205	56.088768
732.166321	1532.678711	3866.487793	2847.348877	56.331520
732.488770	1532.017212	3865.495117	2854.295654	56.665562
732.811157	1530.032227	3856.783447	2864.440918	57.350723
733.133484	1528.378174	3843.440918	2868.190186	57.873680
733.455811	1530.693848	3832.854248	2868.300537	58.102238
733.778015	1531.576172	3824.032715	2865.212891	58.175007
734.100281	1528.157593	3820.725098	2870.615967	58.556988
734.422424	1527.385742	3806.279053	2876.681152	59.208363
734.744507	1525.511108	3792.605713	2879.327637	59.715923
735.066589	1524.077515	3784.444824	2878.114746	59.903419
735.388611	1525.511108	3774.409912	2872.601074	59.899979
735.710571	1528.598755	3754.340820	2871.718994	60.344826
736.032532	1531.576172	3740.666748	2866.977295	60.450264
736.354431	1531.024780	3725.558838	2869.623779	60.996952
736.676270	1527.165161	3713.097900	2867.087402	61.297508
736.998108	1525.070068	3704.386475	2865.984863	61.529148
737.319824	1523.967407	3695.013428	2859.809814	61.529903
737.641541	1519.225586	3684.647949	2860.581543	61.944309
737.963135	1520.107788	3675.936768	2860.030029	62.153454
738.284790	1520.218018	3657.190430	2863.669189	62.867035
738.606323	1518.894775	3644.950439	2859.809814	63.070553
738.927856	1519.776978	3628.299072	2857.273193	63.432880
739.249390	1520.659180	3611.537598	2855.177734	63.825737
739.570740	1524.518677	3597.863770	2854.847168	64.163383
739.892212	1525.731567	3585.733643	2849.995117	64.284576
740.213562	1527.385620	3582.977051	2850.105225	64.347404
740.534790	1527.054810	3572.390625	2860.470947	65.193016
740.856079	1529.701416	3558.496582	2857.383301	65.441887
741.177246	1532.458130	3555.850098	2851.318359	65.180656
741.498413	1534.222534	3552.652588	2849.664307	65.171532
741.819580	1531.245117	3538.096436	2848.451172	65.635460
742.140625	1531.796509	3528.392578	2851.979980	66.121712
742.461670	1531.796509	3519.239502	2851.318359	66.392944
742.782654	1530.032104	3500.052002	2851.648926	67.086472
743.103577	1527.275146	3486.708984	2844.040283	67.201309
743.424438	1528.488159	3469.396484	2835.108154	67.320023
743.745300	1528.929443	3453.737305	2827.499512	67.464920
744.066101	1529.260132	3436.093750	2826.617432	68.037254
744.386902	1534.442871	3418.780762	2816.803223	68.053627
744.707581	1532.899048	3395.182617	2809.966064	68.575325
745.028198	1531.906616	3382.722168	2802.026367	68.624870
745.348816	1530.693726	3369.268555	2797.836182	68.919823
745.669373	1530.583374	3360.998535	2797.174561	69.196938
745.989929	1529.921753	3352.176758	2789.455322	69.119499
746.310364	1530.804077	3345.119141	2783.169922	69.026924
746.630798	1530.583496	3336.958740	2785.264893	69.458511
746.951172	1528.378052	3327.034180	2787.139404	69.983437
747.271545	1526.393066	3320.858887	2780.082031	69.864189
747.591858	1525.621216	3316.999268	2778.428223	69.935379
747.912109	1525.621216	3315.676025	2777.104980	69.913155
748.232300	1522.533569	3319.976563	2777.876953	69.840515
748.552429	1526.834229	3321.961426	2775.891846	69.580452
748.872559	1528.267822	3316.889160	2778.097168	69.876686
749.192627	1528.488403	3319.645752	2777.876709	69.753128
749.512695	1530.362915	3321.299805	2777.876709	69.657051
749.832642	1533.781494	3316.337891	2779.972168	69.910309
750.152588	1536.538208	3315.455322	2779.861572	69.892143
750.472473	1537.310181	3308.948975	2778.538330	70.061020
750.792358	1538.854126	3300.789551	2773.135254	70.052574
751.112122	1539.515747	3296.157715	2772.914551	70.213440
751.431824	1540.397827	3291.968018	2769.385986	70.164940
751.751587	1542.162109	3293.952393	2771.591553	70.181313
752.071228	1546.021606	3284.909912	2776.333252	70.752769
752.390869	1547.786133	3282.925537	2775.781982	70.772171
752.710327	1550.542847	3281.712402	2777.105225	70.851662
753.029846	1546.793579	3276.198730	2780.082520	71.312897
753.349304	1546.793579	3271.787598	2777.766602	71.361000
753.668762	1546.793579	3271.125732	2777.656250	71.381996
753.988098	1547.786011	3263.627197	2776.663818	71.619553
754.307434	1547.786011	3258.113770	2773.135254	71.644119
754.626770	1548.006470	3243.006348	2770.157715	72.103325
754.946045	1548.557861	3226.465820	2762.549072	72.351479
755.265259	1546.462646	3212.791748	2761.115234	72.893921
755.584351	1544.698242	3212.901855	2758.027832	72.732704
755.903442	1543.816162	3206.836670	2758.027832	73.012428
756.222534	1541.059204	3204.521484	2752.624512	72.833954
756.541565	1536.097046	3203.859863	2748.544189	72.699013
756.860535	1534.553223	3199.559082	2744.353760	72.660439
757.179443	1535.104614	3201.985107	2740.053467	72.287659
757.498291	1532.237549	3200.220703	2726.489502	71.598564
757.817139	1529.260254	3202.977295	2718.219238	71.037033
758.135925	1529.811523	3206.947510	2711.382324	70.451698
758.454651	1529.370483	3203.639160	2696.716309	69.722733
758.773376	1526.944580	3206.837158	2678.521484	68.550629
759.092041	1526.282959	3200.110596	2658.120850	67.619743
759.410645	1522.864502	3200.110596	2642.241699	66.738998
759.729187	1524.628784	3204.411133	2624.928711	65.502533
760.047607	1525.841797	3205.844971	2608.057129	64.417458
760.366089	1527.716431	3206.396240	2590.744141	63.325222
760.684509	1528.047119	3214.887207	2575.636963	62.103683
761.002869	1528.157471	3226.245117	2565.381592	61.081894
761.321228	1526.834229	3258.114258	2562.624512	59.828003
761.639465	1523.415771	3301.450928	2567.807617	58.738537
761.957642	1524.628784	3355.594971	2570.784912	57.136833
762.275879	1524.297974	3392.095215	2572.218262	56.104607
762.593994	1528.047241	3424.294678	2574.424072	55.181450
762.912109	1529.811646	3457.266357	2578.393799	54.402428
763.230103	1533.781494	3481.416016	2581.040283	53.770805
763.548157	1530.914429	3510.197266	2586.002197	53.306568
763.866150	1530.142578	3521.555176	2591.405762	53.291981
764.184021	1533.671265	3534.346680	2607.726074	53.684612
764.501892	1533.561157	3543.609863	2617.209717	53.911556
764.819702	1535.545898	3548.902832	2622.833740	54.003731
765.137451	1534.443115	3551.218262	2631.104004	54.376953
765.455200	1535.215088	3557.062988	2641.690186	54.725933
765.772888	1536.317749	3558.386230	2659.995361	55.570702
766.090515	1535.215088	3556.290527	2675.102783	56.400055
766.408081	1536.758789	3554.195313	2690.430908	57.185051
766.725586	1537.310181	3549.674805	2706.089600	58.079903
767.043091	1536.207397	3542.837891	2715.572754	58.773418
767.360535	1533.671143	3533.905518	2726.710449	59.644978
767.677917	1533.560791	3512.953613	2734.870605	60.690823
767.995239	1531.686157	3482.959473	2736.965820	61.768879
768.312500	1535.104614	3428.705322	2735.863037	63.411385
768.629822	1532.678711	3368.716797	2734.539795	65.459488
768.947021	1531.576050	3315.345703	2732.334473	67.315781
769.264160	1528.378174	3279.175537	2727.702637	68.501617
769.581299	1528.488281	3238.375000	2722.409668	69.824593
769.898376	1523.856812	3201.103027	2721.748047	71.420120
770.215393	1529.260132	3163.059082	2719.211914	72.833427
770.532349	1530.252563	3136.483643	2715.131836	73.767670
770.849304	1527.495850	3109.136230	2710.720703	74.809982
771.166199	1529.590942	3082.450195	2712.154297	76.153931
771.483032	1529.921753	3060.395264	2711.713135	77.217369
771.799866	1530.031982	3043.634033	2710.831055	78.012520
772.116577	1529.590942	3022.461670	2712.595215	79.243584
772.433350	1529.591064	3013.529541	2708.184326	79.423325
772.749939	1528.929443	2994.341797	2703.773438	80.171562
773.066589	1530.583374	2978.242188	2701.457764	80.880547
773.383057	1531.245117	2968.758545	2695.613281	80.998764
773.699646	1533.671021	2958.282959	2695.613037	81.562004
774.016113	1537.089478	2946.924561	2693.297363	82.010155
774.332520	1537.971680	2943.947266	2693.958984	82.219589
774.648804	1539.625610	2932.699463	2690.320313	82.601128
774.965149	1537.751099	2931.486328	2686.350586	82.411598
775.281433	1539.956543	2928.178223	2684.034668	82.413216
775.597656	1539.846313	2922.885010	2680.726807	82.490860
775.913879	1540.838867	2908.549561	2675.654297	82.971893
776.229980	1539.625854	2895.647949	2675.323242	83.752129
776.546082	1542.603149	2887.598145	2674.330811	84.143631
776.862122	1539.515503	2881.974121	2670.250732	84.228683
777.178162	1536.979248	2869.513428	2669.368408	84.980118
777.494141	1540.728516	2869.292725	2663.744629	84.528557
777.809998	1537.971680	2867.638672	2658.341309	84.259415
778.125854	1533.340332	2864.220215	2657.128174	84.439461
778.441711	1534.332642	2860.581299	2657.569092	84.692749
778.757446	1531.796509	2852.420898	2652.717529	84.878113
779.073181	1534.112183	2842.276123	2653.819824	85.593834
779.388855	1534.222412	2846.466309	2653.378662	85.285690
779.704468	1531.465576	2844.040283	2647.754639	85.045753
780.020020	1532.568359	2835.549561	2646.210938	85.468811
780.335571	1528.488403	2833.233887	2645.218750	85.589897
780.651062	1527.385620	2824.853271	2642.903320	85.976532
780.966553	1523.856934	2813.605225	2641.800293	86.679192
781.281860	1524.298096	2804.231934	2641.028564	87.249077
781.597290	1525.511108	2792.984131	2631.765869	87.280342
781.912476	1522.754272	2783.169922	2626.693359	87.585320
782.227722	1523.746704	2773.355713	2620.958984	87.804443
782.542908	1521.651611	2765.857178	2616.989258	88.035103
782.858093	1520.769409	2761.225586	2611.585693	87.936707
783.173218	1522.313232	2755.491455	2605.300293	87.820808
783.488281	1521.982422	2742.258789	2601.992188	88.505341
783.803345	1523.305664	2738.840332	2594.272949	88.106682
784.118225	1517.902100	2726.930908	2586.663818	88.398369
784.433167	1519.335693	2714.801025	2578.834717	88.626495
784.748047	1521.761719	2708.625732	2569.792480	88.302513
785.062866	1518.674072	2699.252441	2560.419434	88.240257
785.377686	1521.210327	2698.039551	2552.700195	87.649918
785.692444	1517.791870	2690.100098	2543.547607	87.498810
786.007141	1519.114990	2681.057861	2538.805908	87.757408
786.321716	1519.666504	2675.654297	2534.946045	87.827881
786.636353	1516.358276	2677.639160	2530.094238	87.294640
786.950928	1516.137695	2676.205566	2524.580811	86.929665
787.265442	1519.115112	2677.087891	2522.044189	86.610764
787.579834	1520.659058	2684.365967	2516.420410	85.568054
787.894226	1519.776978	2687.784424	2512.671143	85.007523
788.208618	1517.681885	2688.776611	2518.405273	85.451958
788.522949	1519.887207	2689.327881	2509.142334	84.592163
788.837219	1519.556396	2690.871582	2502.856689	83.948395
789.151367	1519.887329	2689.438232	2496.791992	83.528183
789.465515	1520.218140	2688.004639	2491.719482	83.191689
789.779602	1521.100220	2684.806641	2485.875000	82.905342
790.093689	1523.967407	2684.475830	2482.566895	82.601685
790.407776	1522.644043	2679.623779	2479.258789	82.682068
790.721741	1523.636475	2679.403076	2476.060791	82.406288
791.035645	1523.415771	2679.072266	2470.767822	81.975227
791.349548	1525.510986	2671.573730	2468.341797	82.266945
791.663391	1529.921875	2665.619141	2467.018311	82.512871
791.977173	1531.134888	2654.701904	2462.166260	82.863892
792.290894	1533.560791	2648.195801	2455.549805	82.716675
792.604614	1532.899170	2638.381592	2449.705322	82.932678
792.918274	1532.127319	2627.244141	2443.971191	83.264526
793.231812	1534.112305	2614.783447	2435.811035	83.438774
793.545410	1535.876587	2603.315186	2433.495361	84.090904
793.858948	1531.796387	2591.957275	2426.989258	84.439339
794.172363	1531.575928	2579.827148	2417.836426	84.546577
794.485840	1531.906738	2572.990234	2411.881836	84.524933
794.799194	1533.009521	2566.925293	2405.816895	84.417648
795.112488	1534.442871	2563.065674	2407.030029	84.830627
795.425781	1536.427856	2558.434326	2406.478760	85.131645
795.738953	1536.538086	2551.928223	2409.125488	85.936172
796.052185	1540.177124	2545.752930	2406.258301	86.127884
796.365234	1536.868896	2541.672852	2404.052734	86.303787
796.678284	1533.671143	2542.995850	2400.523926	85.884430
796.991333	1533.671021	2542.113770	2397.325684	85.642410
797.304382	1533.009521	2535.828369	2394.899658	85.946739
797.617310	1534.553345	2533.402588	2392.143066	85.857773
797.930115	1532.678711	2533.733154	2390.268311	85.668625
798.242981	1527.054810	2533.402588	2387.070801	85.459122
798.555786	1524.849365	2534.505127	2385.747559	85.266510
798.868530	1521.430908	2532.189697	2385.968262	85.533501
799.181213	1523.084961	2532.300293	2382.108643	85.117981
799.493896	1520.879517	2529.984619	2381.777832	85.313049
799.806519	1518.343262	2528.661377	2380.344482	85.319786
800.119080	1519.004883	2524.360596	2373.176514	84.962128
800.431580	1520.989868	2521.603516	2367.552246	84.604324
800.744080	1523.526123	2519.287842	2363.472412	84.352135
801.056458	1525.180298	2511.678955	2357.738037	84.395226
801.368835	1527.716309	2504.952393	2355.201660	84.676094
801.681152	1525.731567	2493.814697	2347.703125	84.907127
801.993408	1522.423218	2482.677002	2343.182129	85.473122
802.305664	1521.982178	2479.148193	2333.698730	84.804153
802.617798	1516.909668	2470.877930	2331.823975	85.423630
802.929993	1518.673950	2462.607422	2327.854492	85.724319
803.242065	1518.012329	2452.241943	2324.436035	86.319649
803.554016	1519.886963	2452.241699	2322.781982	86.114754
803.865967	1521.541138	2451.249512	2324.325928	86.348022
804.177979	1520.438477	2448.823730	2322.451172	86.387917
804.489807	1519.887207	2439.670898	2318.371094	86.812141
804.801697	1522.202881	2436.583252	2318.260986	87.059845
805.113464	1522.974854	2436.031738	2315.062988	86.751236
805.425232	1525.952148	2434.598145	2317.268311	87.087402
805.736938	1523.526123	2427.981689	2319.142822	87.966370
806.048584	1525.400879	2424.673584	2312.306152	87.504631
806.360168	1529.150146	2425.004395	2311.975342	87.383095
806.671753	1527.937134	2423.239990	2310.982910	87.461555
806.983276	1526.172729	2419.160156	2308.666992	87.626572
807.294739	1525.290405	2412.654053	2309.218506	88.343498
807.606140	1521.431030	2407.360840	2309.659668	88.971909
807.917542	1521.541260	2403.611816	2303.153564	88.611084
808.228760	1522.864624	2400.524170	2304.917725	89.106659
808.540100	1523.526245	2402.068115	2301.168457	88.515099
808.851318	1523.967407	2397.877686	2299.624512	88.757065
809.162476	1525.952148	2394.900146	2294.882813	88.489838
809.473633	1524.849487	2395.230957	2290.582031	87.976662
809.784668	1525.731689	2395.010498	2287.163574	87.593521
810.095703	1526.503540	2388.614502	2277.900635	87.157814
810.406738	1527.165161	2381.226074	2269.851074	86.959358
810.717590	1526.282959	2371.742676	2265.439941	87.426636
811.028503	1521.761841	2368.103760	2264.557861	87.765480
811.339294	1521.761841	2361.046387	2258.492920	87.780846
811.650085	1522.423462	2352.776123	2256.728516	88.432915
811.960876	1523.085083	2351.121826	2247.245117	87.455063
812.271545	1523.415894	2351.232178	2237.871826	86.306099
812.582153	1522.202881	2341.197266	2234.563721	86.979942
812.892761	1516.689209	2333.809326	2226.954834	86.923035
813.203308	1519.556396	2328.626221	2218.905029	86.438599
813.513855	1520.218018	2325.428467	2214.935303	86.277725
813.824280	1516.248291	2323.884766	2209.311279	85.813728
814.134705	1519.446045	2318.701904	2206.333984	85.940933
814.445068	1518.233032	2317.819580	2201.371582	85.436470
814.755371	1517.350952	2321.458740	2193.762939	84.119568
815.065613	1516.689209	2320.466064	2192.880615	84.126755
815.375854	1513.932373	2315.172852	2190.233887	84.406807
815.686035	1514.263184	2316.496094	2186.043457	83.738808
815.996155	1515.255737	2312.085205	2181.412354	83.600899
816.306152	1518.674194	2304.807373	2180.089355	84.135254
816.616211	1516.579102	2302.822266	2184.500000	84.950935
816.926208	1518.674316	2306.020508	2186.705811	84.845970
817.236145	1520.659058	2308.997803	2187.918457	84.641205
817.546021	1525.841797	2317.157959	2183.728027	83.138229
817.855774	1526.503540	2324.105225	2186.374512	82.731895
818.165588	1525.400879	2339.763916	2188.249023	81.394676
818.475281	1524.629028	2349.908936	2192.659912	80.945976
818.784973	1525.290527	2366.339600	2201.812988	80.437927
819.094604	1526.062500	2396.885010	2215.376221	79.156624
819.404175	1527.275513	2419.821533	2232.027588	78.959747
819.713684	1526.172729	2456.762939	2253.530762	78.160934
820.023254	1524.298096	2534.284180	2282.312012	75.051918
820.332642	1524.187866	2684.475342	2342.079590	70.490440
820.642090	1523.636475	2922.443848	2430.848877	64.856133
820.951416	1522.974854	3194.376465	2554.354248	61.707455
821.260681	1523.967285	3454.178467	2662.972656	59.009365
821.569946	1525.400879	3665.019775	2750.749512	57.269482
821.879150	1529.150024	3838.809082	2829.153320	56.285503
822.188293	1528.929443	3977.311768	2893.221680	55.722191
822.497437	1528.708862	4100.045410	2944.278076	55.051888
822.806458	1526.613647	4208.553711	2986.071289	54.417984
823.115479	1529.480835	4293.243164	3020.586426	53.952023
823.424438	1529.370483	4370.543945	3053.558105	53.646416
823.733337	1527.165039	4440.566895	3084.875732	53.467072
824.042236	1525.952148	4501.988770	3112.554199	53.312584
824.351013	1526.944458	4551.832031	3133.395752	53.107800
824.659790	1526.944458	4587.119141	3146.958984	52.938625
824.968445	1522.202881	4637.402832	3165.374512	52.746906
825.277100	1523.195313	4701.140625	3187.428955	52.368229
825.585693	1521.871826	4773.699707	3215.328125	52.077057
825.894287	1523.084961	4851.772949	3243.998779	51.699463
826.202820	1521.100098	4899.300781	3263.517090	51.578255
826.511292	1524.959595	4891.250977	3263.186279	51.636250
826.819702	1528.488281	4792.556641	3229.773926	52.121632
827.128113	1529.260376	4605.093750	3160.081543	53.020462
827.436401	1532.678711	4370.654297	3052.345215	53.547554
827.744751	1533.230103	4138.199707	2960.267578	54.781345
828.052917	1533.340210	3952.059082	2878.004395	55.594070
828.361145	1528.819092	3805.065918	2809.304688	56.254250
828.669312	1527.054688	3683.545410	2753.175537	56.857227
828.977356	1525.400635	3573.272705	2710.279785	57.859043
829.285400	1525.841675	3477.335938	2670.250732	58.642708
829.593384	1523.856812	3398.711426	2633.088867	59.163631
829.901306	1522.312988	3322.182373	2596.147705	59.661812
830.209167	1524.849243	3253.482178	2563.176025	60.066353
830.517029	1525.731323	3192.501465	2536.489990	60.641754
830.824829	1524.518311	3135.821533	2514.876465	61.463177
831.132568	1527.606079	3096.564453	2500.981934	62.039623
831.440247	1530.252563	3047.713623	2480.140381	62.597179
831.747925	1528.157471	2990.372070	2461.835449	63.853691
832.055481	1528.488159	2934.133301	2437.795898	64.689705
832.363037	1530.693604	2880.430176	2418.498291	65.776146
832.670532	1532.678589	2841.614502	2397.326172	66.057289
832.977966	1532.568359	2810.517578	2385.968018	66.778839
833.285400	1533.009521	2791.440674	2375.933594	66.982140
833.592712	1533.009399	2771.150391	2365.457520	67.233711
833.900085	1531.355347	2757.917725	2357.958984	67.391899
834.207275	1529.811523	2743.692627	2348.034668	67.405540
834.514526	1529.811523	2728.254395	2344.505859	67.979408
834.821716	1531.465576	2712.705811	2341.307861	68.558647
835.128784	1532.678711	2701.347900	2341.197510	69.182861
835.435852	1535.986816	2698.260254	2336.786621	68.899429
835.742798	1532.568359	2687.894531	2331.272949	69.132393
836.049805	1535.545776	2679.734131	2330.170166	69.448738
836.356750	1536.207520	2666.501465	2328.846924	70.126839
836.663574	1530.031982	2653.048096	2328.074951	71.062469
836.970398	1527.495850	2640.036133	2326.531006	71.820786
837.277161	1529.039673	2629.339355	2317.598877	71.667679
837.583923	1527.385498	2611.916504	2307.343506	71.916618
837.890564	1527.937012	2592.287842	2299.955322	72.534195
838.197205	1528.267822	2561.301270	2285.178955	73.270729
838.503784	1532.237671	2521.272217	2268.858398	74.478767
838.810303	1530.693970	2469.223633	2243.275391	75.925293
839.116699	1530.252808	2421.255127	2228.829346	78.403450
839.423096	1531.024658	2384.203613	2211.737061	79.785416
839.729492	1529.591064	2343.182373	2191.005859	81.295708
840.035828	1528.929443	2307.123535	2177.773193	83.378136
840.342102	1526.723999	2272.056641	2162.334961	85.278831
840.648315	1525.952148	2245.150391	2148.992188	86.629807
840.954529	1526.613892	2223.205811	2137.082520	87.636482
841.260620	1527.606201	2202.033203	2118.998047	87.688042
841.566711	1527.385620	2181.963867	2102.567627	87.870628
841.872803	1526.944458	2162.004395	2098.046387	89.928825
842.178772	1525.731445	2151.308105	2093.194336	90.710365
842.484680	1522.974609	2137.193115	2089.445068	92.226212
842.790588	1521.872070	2127.158203	2082.497803	92.621605
843.096436	1525.841675	2118.667236	2077.535645	93.061775
843.402222	1526.944458	2110.837891	2071.250000	93.220016
843.707947	1523.415771	2102.346924	2069.595947	94.342857
844.013611	1522.423218	2091.429932	2067.611084	95.813957
844.319275	1526.172485	2078.527832	2061.215332	96.865692
844.624817	1527.936890	2068.162598	2054.929932	97.550529
844.930359	1527.826538	2049.857422	2046.328491	99.323997
845.235901	1526.613647	2036.955566	2040.042969	100.604965
845.541321	1525.841797	2020.855713	2029.015869	101.648468
845.846680	1525.510864	2005.638062	2020.965942	103.192459
846.152039	1528.047119	1993.287598	2017.547485	105.214485
846.457275	1528.378052	1981.929443	2012.805664	106.807655
846.762512	1530.032104	1968.806885	2013.356934	110.153282
847.067749	1533.891602	1959.543945	2015.782959	113.212425
847.372925	1534.332764	1948.736938	2009.827881	114.741875
847.677979	1535.325317	1941.789795	2011.592407	117.173119
847.983032	1537.861572	1936.937866	2011.261719	118.623970
848.288025	1535.656006	1930.211548	2007.953491	119.703674
848.592957	1541.390259	1925.138916	2006.850830	121.293083
848.897888	1539.956665	1923.926025	2003.542725	120.735168
849.202759	1540.618286	1920.617798	2004.424805	122.054504
849.507507	1541.831299	1917.199463	1999.572876	121.944702
849.812317	1539.295044	1913.560303	1995.823608	121.979950
850.117004	1541.169678	1907.936401	1993.177124	123.241127
850.421631	1541.941650	1902.863892	1989.648193	124.045151
850.726257	1541.390137	1901.540527	1985.347412	123.269966
851.030823	1540.397827	1898.673584	1982.921509	123.514824
851.335327	1539.736084	1893.821411	1980.716187	124.540634
851.639771	1540.177246	1885.881836	1979.392700	127.049355
851.944153	1540.177124	1881.470825	1979.172119	128.626755
852.248535	1538.964233	1874.854492	1977.518066	130.564621
852.552856	1535.325317	1873.641602	1975.422974	130.084686
852.857056	1534.663696	1873.089844	1968.916870	128.315491
853.161255	1537.861572	1875.515991	1968.806763	127.629066
853.465393	1536.317749	1874.192505	1963.844727	126.534157
853.769531	1532.568359	1873.310669	1968.696777	127.993622
854.073547	1527.165039	1870.884644	1968.917236	128.521088
854.377563	1524.408203	1868.458496	1968.034912	128.942398
854.681580	1520.548828	1865.150269	1966.049805	129.280075
854.985474	1517.681519	1855.446411	1964.947144	132.419220
855.289307	1517.571289	1853.020264	1962.300537	132.577316
855.593140	1517.791870	1852.910156	1960.977295	132.247467
855.896851	1516.137817	1852.469116	1959.654053	131.868851
856.200623	1517.902100	1850.153687	1961.639282	133.554565
856.504272	1518.453613	1852.800049	1962.631714	132.849655
856.807922	1515.917358	1854.454102	1962.301025	131.856781
857.111389	1513.711914	1852.579468	1965.609009	133.355072
857.414978	1516.248169	1844.419312	1963.183228	136.189621
857.718445	1516.358398	1844.419434	1963.844727	136.403381
858.021790	1517.350952	1843.978394	1963.182861	136.495544
858.325195	1517.681763	1841.993530	1958.661621	135.974060
858.628479	1515.917358	1841.000977	1960.205322	136.668823
858.931763	1516.468750	1837.141357	1958.330688	137.792236
859.234985	1515.476318	1831.297119	1961.859375	141.340607
859.538147	1512.609131	1827.547607	1960.315796	142.156860
859.841248	1511.065308	1827.988647	1956.235474	140.466202
860.144287	1514.924927	1826.996094	1950.832275	139.682037
860.447266	1520.989990	1828.098755	1951.162964	140.071869
860.750305	1525.180298	1825.121460	1947.854736	140.919113
861.053223	1529.150146	1825.011353	1945.098022	140.588852
861.356018	1530.804199	1831.076294	1942.782349	137.201614
861.658813	1531.245239	1826.555054	1940.246094	138.498901
861.961609	1528.378296	1823.247070	1939.033081	139.266968
862.264343	1529.370605	1821.813599	1940.577026	140.610794
862.567017	1529.701416	1819.718384	1941.128174	141.862991
862.869629	1529.480957	1819.608032	1937.819946	140.744873
863.172180	1532.017212	1819.497803	1939.253662	141.657028
863.474670	1527.385742	1816.961304	1940.687256	142.726654
863.777161	1522.643921	1821.151733	1941.018066	140.155182
864.079590	1521.541138	1821.151733	1939.253662	139.418472
864.381958	1521.982300	1821.703369	1938.371460	138.925552
864.684265	1520.107666	1823.688110	1937.158691	137.377441
864.986511	1518.784302	1824.680420	1933.850464	135.688599
865.288757	1520.217896	1824.901001	1935.394165	136.264954
865.590942	1520.438477	1827.106445	1934.401978	134.987518
865.893066	1519.556396	1829.532593	1933.740356	133.617996
866.195068	1517.791992	1828.429932	1934.512085	134.149780
866.497131	1518.894775	1829.311890	1936.827881	134.635971
866.799133	1514.263062	1824.459961	1939.143555	136.971222
867.100952	1509.852295	1821.703125	1942.341553	138.684662
867.402832	1512.939819	1822.364746	1939.915527	137.990082
867.704651	1513.491211	1821.372192	1940.246094	138.610336
868.006409	1515.696533	1822.364624	1941.679688	138.906906
868.308105	1519.335571	1826.775635	1937.709839	136.083191
868.609802	1517.681519	1830.524902	1932.968018	132.745819
868.911438	1515.696655	1832.620361	1929.329102	130.514832
869.213013	1517.571411	1829.863281	1929.108398	131.779602
869.514465	1518.343384	1829.311768	1928.336670	131.844040
869.815979	1522.423340	1833.281616	1928.998291	130.791092
870.117371	1526.834351	1834.825562	1931.313965	131.328293
870.418701	1529.370605	1835.487183	1932.747559	131.772339
870.720093	1530.914429	1839.015991	1929.439575	129.348633
871.021301	1533.671265	1839.787964	1926.572388	128.350113
871.322571	1535.656128	1838.133911	1927.344482	129.493271
871.623718	1534.553467	1840.339233	1924.477539	127.515442
871.924805	1534.222656	1845.191406	1924.697876	125.567352
872.225891	1536.207397	1847.837769	1917.640015	122.399048
872.526917	1541.279907	1846.845459	1918.522339	123.457123
872.827881	1541.831299	1848.389282	1915.434692	121.870384
873.128784	1544.808594	1851.476807	1906.502808	117.943169
873.429626	1546.462646	1858.203491	1903.635620	114.573685
873.730408	1542.603149	1858.313599	1906.392456	115.228783
874.031189	1541.279907	1857.651978	1904.186890	114.708916
874.331848	1539.956543	1858.534180	1904.517822	114.434044
874.632568	1537.530640	1857.431396	1908.598022	115.994530
874.933167	1537.640869	1854.123169	1911.134155	118.013954
875.233704	1539.956665	1853.130737	1910.913696	118.450745
875.534241	1538.082031	1853.902710	1910.031616	117.772400
875.834717	1537.751221	1853.351318	1910.913696	118.239021
876.135071	1536.427979	1851.256104	1909.590454	118.528954
876.435425	1533.450684	1851.035767	1909.480103	118.402733
876.735779	1531.355469	1852.579468	1904.518066	116.168968
877.036011	1528.488403	1853.240845	1907.826416	116.808365
877.336182	1526.172729	1851.586914	1916.207031	119.857803
877.636353	1526.944580	1856.659424	1912.898682	117.056938
877.936462	1525.841797	1863.276001	1913.560303	114.901955
878.236511	1527.937012	1868.348633	1918.743164	114.804001
878.536560	1527.165161	1875.295776	1925.138916	114.317368
878.836487	1523.415771	1889.961914	1931.203857	111.251503
879.136414	1521.431030	1918.963745	1944.215942	106.352234
879.436279	1522.313232	1970.460938	1970.019897	99.901588
879.736084	1522.313110	2053.055176	2006.520142	91.232079
880.035828	1522.864502	2156.711426	2049.857422	83.141983
880.335510	1523.967285	2274.923584	2102.677734	77.063133
880.635193	1523.305664	2391.922607	2150.866699	72.248306
880.934753	1524.518555	2499.879639	2191.557373	68.388908
881.234314	1524.959717	2592.508545	2229.490967	65.995224
881.533752	1523.415771	2675.213135	2264.888672	64.375290
881.833252	1523.085083	2748.654541	2297.750000	63.208569
882.132629	1521.320679	2812.833252	2321.017578	61.919403
882.431946	1519.776855	2872.160156	2346.601074	61.138306
882.731323	1522.864502	2918.805176	2366.229492	60.415531
883.030579	1526.613647	2956.518555	2386.740234	60.152714
883.329712	1526.723877	2991.364746	2400.744873	59.674767
883.628845	1526.282837	3021.027832	2408.243408	59.004082
883.927979	1529.480713	3040.325439	2421.476074	59.039513
884.226990	1530.693604	3058.410156	2430.518311	58.899979
884.526001	1530.803833	3066.460205	2431.620605	58.660049
884.824951	1530.142212	3073.297119	2435.369873	58.660843
885.123840	1530.473145	3074.620361	2435.259766	58.594582
885.422729	1530.473145	3053.227539	2427.099609	58.881882
885.721497	1530.914307	3009.008301	2407.030029	59.273342
886.020203	1532.899292	2928.619141	2376.484375	60.440861
886.318909	1532.678711	2828.602051	2333.919189	61.827766
886.617554	1529.149902	2714.249512	2282.532471	63.571243
886.916138	1528.047241	2597.140137	2231.476074	65.796791
887.214661	1524.408203	2491.829590	2190.675293	68.870415
887.513184	1524.518677	2402.067871	2153.844238	71.713989
887.811523	1527.495850	2321.127686	2118.115967	74.419914
888.109924	1514.483765	2151.307861	2040.153198	82.545471
888.408264	1528.378052	2035.521729	1979.944336	89.041092
888.706543	1546.903931	1977.628662	1968.365723	97.849449
889.004761	1565.429688	1931.314087	2012.364502	122.151917
889.302979	1509.852295	1919.735474	1977.628662	114.124313
889.601135	1470.484985	1905.841187	1928.998413	105.319145
889.899170	1489.010742	1859.526611	1861.842407	100.625023
890.197205	1468.169312	1882.683960	1935.945557	112.849144
890.495178	1528.378052	1875.736694	1935.945557	117.333344
890.793091	1560.798218	1901.209717	1905.841187	101.360550
>>>>>End Processed Spectral Data<<<<<
