Jaz Data File
++++++++++++++++++++++++++++++++++++
Date: Fri Jun 21 02:56:19 2019
User: jaz
Dark Spectrum Present: Yes
Reference Spectrum Present: Yes
Processed Spectrum Present: Yes
Spectrometers: JAZA3541
Integration Time (usec): 119000 (JAZA3541)
Spectra Averaged: 1 (JAZA3541)
Boxcar Smoothing: 10 (JAZA3541)
Correct for Electrical Dark: No (JAZA3541)
Strobe/Lamp Enabled: Yes (JAZA3541)
Correct for Detector Non-linearity: No (JAZA3541)
Correct for Stray Light: No (JAZA3541)
Number of Pixels in Processed Spectrum: 2048
>>>>>Begin Processed Spectral Data<<<<<
W	D	R	S	P
190.543274	0.000000	0.000000	0.000000	0.000000
190.921555	0.000000	0.000000	0.000000	0.000000
191.299805	1558.482544	1405.644653	1685.847290	-83.333229
191.678024	1533.009521	1440.380615	1627.954224	-102.500076
192.056229	1539.956665	1535.325317	1655.742920	-2500.055420
192.434387	1519.115234	1551.535278	1667.321533	457.144043
192.812531	1604.796997	1597.849854	1757.634766	-2200.008789
193.190659	1556.166748	1542.272461	1646.479980	-650.002625
193.568741	1623.322754	1530.693848	1720.583252	-105.000160
193.946793	0.000000	0.000000	0.000000	0.000000
194.324829	1410.165894	1403.770142	1534.773804	-1948.291748
194.702835	1483.938232	1477.322021	1616.044678	-1996.708496
195.080811	1555.725708	1551.645752	1696.874390	-3459.563721
195.458755	1552.307251	1560.467407	1695.992432	1760.814087
195.836685	1553.520386	1565.540039	1699.521240	1214.684448
196.214569	1554.953857	1568.627808	1701.726563	1073.374634
196.592422	1551.425171	1571.164063	1705.255371	779.325439
196.970261	1549.219727	1570.833130	1702.498535	709.184021
197.348068	1548.999146	1571.274170	1706.137329	705.445618
197.725861	1545.690796	1573.810425	1704.814209	565.880188
198.103622	1539.625854	1573.589844	1705.475830	488.311249
198.481323	1540.287598	1569.399536	1703.380615	560.227295
198.859039	1539.846436	1568.958374	1703.490845	562.121338
199.236694	1536.758789	1568.296631	1705.806763	536.016296
199.614334	1539.295166	1566.201660	1707.130005	623.770752
199.991959	1540.728760	1571.604858	1706.137451	535.717590
200.369553	1537.751465	1570.502075	1701.616211	500.341034
200.747101	1536.759033	1571.935669	1697.977295	458.310638
201.124619	1535.215210	1570.502197	1692.022705	444.377686
201.502136	1531.796631	1571.274048	1693.345947	409.219574
201.879623	1529.922119	1568.517334	1690.258545	415.430847
202.257065	1525.621216	1569.730225	1690.148071	373.000580
202.634476	1525.621216	1573.589600	1689.486206	341.610413
203.011871	1524.187744	1573.258911	1692.243286	342.473083
203.389221	1524.408203	1571.715088	1693.676758	357.809570
203.766571	1523.415649	1570.722656	1693.015259	358.508423
204.143875	1523.305542	1567.635010	1692.132813	380.846588
204.521164	1526.613770	1564.878296	1687.170776	419.597534
204.898392	1524.408203	1563.444702	1685.516357	412.711578
205.275620	1523.856812	1563.665405	1683.862305	401.937073
205.652817	1524.297852	1562.783081	1680.774780	406.589569
206.029984	1529.370483	1566.422241	1677.797241	400.593018
206.407135	1528.378052	1568.848267	1680.774780	376.565155
206.784225	1530.473389	1569.950928	1679.451416	377.374146
207.161301	1530.252808	1570.281616	1676.694702	365.841248
207.538376	1528.929443	1571.274170	1678.238647	352.604004
207.915405	1529.260376	1568.517456	1682.208496	389.606445
208.292404	1529.480835	1568.737671	1681.877563	388.204315
208.669373	1525.952148	1570.833008	1682.759644	349.386139
209.046310	1524.628784	1571.053589	1684.193237	343.705170
209.423218	1528.267822	1569.509644	1681.987671	372.728088
209.800095	1530.032227	1570.612549	1684.083008	379.619415
210.176956	1530.032227	1570.833130	1684.965210	379.729309
210.553787	1531.686279	1566.201660	1684.413818	442.491241
210.930603	1535.435425	1566.091553	1681.215942	475.534668
211.307358	1536.648438	1565.760620	1682.098267	499.618439
211.684113	1538.412842	1570.391968	1679.341309	440.688934
212.060837	1534.773804	1573.920776	1678.018066	365.914032
212.437531	1533.340210	1574.802856	1680.664429	355.317932
212.814178	1532.458130	1578.772705	1684.854736	329.046753
213.190826	1532.788940	1580.426758	1684.083008	317.592346
213.567413	1530.914307	1580.095947	1686.177979	315.694366
213.943985	1528.267822	1576.015869	1687.611572	333.717834
214.320541	1528.488281	1577.669800	1684.524170	317.265289
214.697052	1527.716431	1577.228760	1686.729492	321.158508
215.073563	1529.591064	1581.198486	1689.486206	309.829742
215.449997	1529.921875	1582.852661	1683.531616	290.208679
215.826431	1528.708862	1588.586670	1681.105713	254.513077
216.202850	1529.370483	1590.792236	1684.744629	252.962738
216.579224	1533.119751	1588.807495	1684.854858	272.474854
216.955582	1533.560791	1588.586914	1686.950195	278.757416
217.331894	1531.135010	1586.932861	1690.037720	284.782837
217.708191	1532.017090	1588.035400	1686.729370	276.181610
218.084442	1537.420532	1591.674438	1688.493896	278.456207
218.460678	1534.443115	1598.180420	1688.162964	241.177200
218.836899	1532.678711	1603.694214	1687.280884	217.702011
219.213074	1532.127563	1606.892090	1681.767334	200.148087
219.589233	1531.024658	1605.348389	1686.729492	209.495453
219.965347	1533.891846	1609.869385	1688.824829	203.919449
220.341431	1535.987061	1615.713867	1687.060425	189.488800
220.717499	1535.435669	1614.721558	1683.972900	187.343842
221.093552	1534.002075	1619.242554	1686.068115	178.396515
221.469543	1535.104858	1625.197510	1689.045410	170.869156
221.845535	1536.207642	1630.380249	1692.243164	165.690994
222.221466	1537.310303	1634.350098	1693.566650	161.022964
222.597397	1535.435547	1642.069214	1695.441040	150.051575
222.973297	1537.420532	1647.362183	1699.080200	147.041336
223.349167	1536.979492	1655.853271	1703.821777	140.352463
223.725006	1537.530640	1662.359375	1704.483398	133.745453
224.100800	1538.082153	1671.952881	1704.703857	124.464630
224.476578	1538.854004	1682.097900	1706.468140	117.013107
224.852325	1537.971680	1701.726563	1708.894287	104.377106
225.228058	1541.279907	1724.332397	1709.445679	91.867516
225.603760	1540.838867	1750.246460	1711.761475	81.621971
225.979416	1536.317749	1779.248169	1710.107178	71.538765
226.355057	1535.325195	1813.322388	1713.415405	64.061874
226.730652	1533.671143	1852.028076	1716.061890	57.291275
227.106232	1534.773926	1886.543335	1724.773682	54.012585
227.481796	1531.575928	1920.286865	1724.332642	49.588703
227.857315	1528.378052	1946.972900	1726.979126	47.444702
228.232788	1528.819214	1971.673950	1730.948608	45.642368
228.608246	1531.465698	1999.903687	1733.926025	43.220306
228.983704	1534.112305	2022.950684	1736.241821	41.348946
229.359100	1531.575928	2040.263428	1737.895996	40.559296
229.734482	1528.378052	2061.546143	1734.036499	38.572910
230.109833	1529.039795	2075.881592	1734.146729	37.507545
230.485153	1528.488403	2087.349609	1736.021362	37.134972
230.860443	1521.541260	2101.575195	1732.933838	36.444862
231.235703	1520.879517	2121.534668	1736.352295	35.872959
231.610931	1519.225464	2137.523926	1736.462646	35.134678
231.986145	1517.240479	2152.079834	1734.367554	34.201893
232.361313	1516.468506	2165.532959	1731.941406	33.197456
232.736465	1519.115112	2169.833984	1728.743652	32.214916
233.111572	1517.571289	2172.921387	1729.625610	32.357410
233.486664	1518.894653	2171.708252	1735.911133	33.243252
233.861725	1517.350586	2169.944092	1738.668213	33.913551
234.236755	1520.107422	2156.931885	1738.116577	34.233791
234.611771	1522.313110	2138.516357	1738.778320	35.128864
234.986740	1523.415771	2132.671875	1736.352173	34.950230
235.361679	1526.062256	2128.922607	1738.226807	35.192986
235.736588	1526.393188	2124.952881	1736.572754	35.114220
236.111496	1527.936890	2122.196045	1736.021606	35.015820
236.486343	1528.819092	2122.857666	1735.139282	34.731785
236.861160	1527.716309	2128.371582	1737.234619	34.881622
237.235962	1529.370483	2138.626465	1737.896240	34.226295
237.610733	1532.016968	2152.962158	1743.740723	34.097012
237.985474	1532.016968	2177.111572	1751.900879	34.085529
238.360199	1533.009521	2207.988037	1754.877930	32.870441
238.734879	1534.994385	2240.628662	1757.193604	31.489288
239.109543	1532.347900	2281.539551	1761.273804	30.556387
239.484177	1533.450562	2334.360352	1770.647095	29.615887
239.858749	1535.325195	2397.105469	1781.674316	28.586071
240.233322	1530.804199	2464.923096	1796.009644	28.390972
240.607864	1528.709106	2528.660889	1807.588135	27.889248
240.982391	1529.370728	2583.025391	1811.888916	26.813168
241.356857	1527.826904	2627.685547	1812.440308	25.877272
241.731308	1533.340454	2665.288574	1818.725830	25.211878
242.105728	1529.150024	2699.583252	1827.106445	25.456934
242.480118	1528.708984	2736.414307	1833.612549	25.246519
242.854492	1529.480957	2770.378418	1839.898071	25.015533
243.228836	1527.606323	2818.898193	1847.176025	24.748062
243.603134	1531.245361	2883.187256	1859.416260	24.274038
243.977402	1529.150146	2971.956787	1873.861938	23.891752
244.351654	1526.724121	3079.692871	1894.372803	23.673927
244.725861	1527.495972	3195.809814	1909.810791	22.916241
245.100067	1529.260376	3309.391113	1929.218994	22.467936
245.474213	1530.693970	3406.872070	1945.428955	22.105310
245.848343	1529.150146	3476.453857	1951.824829	21.705637
246.222443	1528.378174	3532.362061	1956.566650	21.366861
246.596512	1530.252808	3565.884766	1963.403442	21.278435
246.970566	1530.804077	3581.543457	1966.711670	21.256121
247.344574	1531.134888	3573.714355	1967.704102	21.373426
247.718567	1528.157471	3552.431641	1965.608765	21.610279
248.092529	1533.561035	3529.936035	1959.543945	21.337820
248.466431	1533.891724	3510.307617	1958.441040	21.480768
248.840332	1534.002197	3506.668945	1959.654419	21.577503
249.214203	1533.891846	3516.923828	1965.939941	21.787249
249.588043	1529.811768	3538.868408	1969.358398	21.878260
249.961838	1525.952148	3566.656982	1972.776733	21.895601
250.335617	1524.629028	3592.460938	1976.195313	21.837667
250.709381	1522.423584	3603.377930	1983.031982	22.134480
251.083084	1521.320801	3591.468262	1983.803955	22.340590
251.456787	1521.982422	3561.474365	1978.731445	22.395235
251.830460	1521.762085	3509.425293	1970.240112	22.563080
252.204071	1522.203125	3429.367188	1956.786865	22.786909
252.577667	1521.761963	3337.069092	1944.436401	23.283907
252.951248	1521.541260	3250.725830	1929.990845	23.620935
253.324799	1517.020142	3177.835449	1914.663086	23.942635
253.698303	1516.248169	3130.969482	1913.119263	24.578302
254.071793	1518.233032	3092.374268	1912.788452	25.064804
254.445236	1520.769287	3078.479736	1911.795776	25.102642
254.818665	1521.541260	3072.855957	1910.362183	25.063961
255.192062	1521.320801	3089.396729	1910.913452	24.845266
255.565430	1525.511108	3120.272949	1919.404541	24.699202
255.938782	1522.092651	3155.891113	1929.990845	24.966249
256.312103	1523.636475	3214.445801	1935.725098	24.372271
256.685364	1522.202881	3288.438721	1947.744751	24.093151
257.058594	1520.107666	3374.341064	1961.198120	23.788292
257.431793	1523.195435	3472.593750	1978.180054	23.339746
257.804993	1527.716431	3583.969238	1990.861572	22.523745
258.178162	1529.150024	3682.222412	2005.638062	22.130611
258.551270	1530.032227	3768.455322	2013.798218	21.611910
258.924377	1529.370483	3840.132080	2018.650146	21.173956
259.297485	1525.290405	3899.569580	2028.905640	21.211288
259.670502	1529.149780	3942.906982	2036.293945	21.010571
260.043518	1533.891602	3992.750732	2046.990112	20.867340
260.416473	1530.362793	4040.167725	2054.599121	20.887533
260.789459	1527.606079	4078.542725	2059.230469	20.840361
261.162354	1530.803955	4110.521484	2066.177490	20.753185
261.535278	1529.149902	4134.229980	2066.177490	20.614630
261.908142	1529.370483	4159.372070	2064.633789	20.352205
262.280975	1526.613647	4174.479004	2069.485596	20.502251
262.653717	1530.583374	4190.909668	2074.337891	20.439392
263.026520	1530.914307	4200.062012	2077.204834	20.466852
263.399261	1525.952148	4207.781250	2076.102051	20.513981
263.771973	1526.834351	4219.911133	2076.102295	20.395555
264.144653	1523.084961	4213.735840	2079.630859	20.684433
264.517334	1525.290405	4186.388184	2078.197266	20.777399
264.889954	1525.952148	4137.316406	2069.485596	20.814157
265.262543	1526.393188	4074.020508	2057.906982	20.863089
265.635071	1529.480835	3996.830078	2049.085205	21.059216
266.007599	1528.047363	3930.997070	2040.042725	21.306953
266.380127	1524.408325	3887.770752	2034.419067	21.579880
266.752594	1526.503418	3869.796143	2034.198608	21.665888
267.125031	1525.952148	3869.355225	2034.308960	21.693102
267.497437	1520.879517	3888.873535	2038.278687	21.849682
267.869843	1518.674072	3911.148438	2037.175781	21.672195
268.242218	1521.430908	3946.104980	2040.042725	21.388929
268.614532	1521.872070	4017.010498	2049.857178	21.160553
268.986816	1519.004883	4098.060547	2060.002197	20.976566
269.359100	1521.871948	4188.152832	2073.676025	20.695648
269.731354	1522.092407	4275.819824	2091.650391	20.683165
270.103516	1523.084961	4346.615234	2102.126465	20.507713
270.475708	1518.784424	4407.816406	2109.735107	20.454971
270.847839	1522.092529	4464.496094	2118.998047	20.286324
271.219971	1526.944702	4510.920898	2123.298584	19.985210
271.592041	1529.921875	4535.180664	2125.062988	19.803324
271.964081	1532.237671	4553.485840	2121.975342	19.519670
272.336151	1532.237671	4574.547852	2124.511475	19.467897
272.708130	1531.686279	4593.956055	2129.915039	19.535469
273.080109	1530.804077	4614.908203	2133.223145	19.533033
273.452026	1530.252686	4644.680664	2134.987549	19.417206
273.823914	1533.560913	4678.535156	2138.406006	19.232117
274.195770	1535.435425	4714.483887	2142.816895	19.105764
274.567627	1536.979126	4748.447754	2146.235596	18.971272
274.939423	1537.420288	4784.065918	2149.984863	18.867615
275.311249	1538.853882	4807.002441	2152.520996	18.777210
275.682983	1536.979370	4827.954590	2157.152588	18.844664
276.054688	1534.443115	4832.806641	2160.129883	18.969612
276.426422	1536.648560	4815.052734	2156.380371	18.903460
276.798065	1537.530640	4785.389648	2151.308105	18.897911
277.169708	1537.199951	4757.159668	2145.904785	18.904114
277.541321	1539.515625	4739.075195	2142.816895	18.855761
277.912903	1539.074585	4743.375977	2140.170654	18.759037
278.284424	1539.736206	4756.277344	2147.337891	18.889910
278.655945	1535.656250	4777.670410	2150.425537	18.962572
279.027435	1538.523315	4811.523926	2156.821533	18.890869
279.398865	1537.971924	4872.173828	2166.305176	18.845087
279.770294	1538.412964	4936.683105	2180.971191	18.908392
280.141663	1538.082275	4996.009766	2186.925781	18.763943
280.513031	1541.500610	5055.887695	2194.975830	18.594286
280.884369	1538.523193	5092.829102	2200.709961	18.630550
281.255676	1540.177368	5132.637207	2209.421387	18.629129
281.626953	1538.412964	5166.601074	2214.383789	18.631086
281.998199	1539.736206	5202.770996	2223.205566	18.658556
282.369385	1540.508057	5250.519043	2234.784180	18.713587
282.740540	1542.603271	5308.743164	2240.959717	18.543030
283.111694	1540.397827	5362.334961	2250.773926	18.586807
283.482819	1541.059326	5430.263184	2259.816162	18.480822
283.853912	1542.382813	5511.203613	2274.702881	18.451830
284.224945	1538.743774	5583.652832	2293.780029	18.666334
284.595978	1542.272461	5653.455566	2308.115479	18.628288
284.966980	1541.941650	5715.318359	2321.127686	18.670397
285.337952	1537.861450	5756.670410	2332.485596	18.835272
285.708893	1539.405273	5777.953613	2341.858887	18.932274
286.079803	1540.949097	5798.574219	2346.270020	18.914793
286.450684	1543.154785	5811.917480	2348.695801	18.870598
286.821533	1537.861572	5818.423340	2355.642822	19.104532
287.192322	1536.097412	5819.305176	2359.281738	19.218874
287.563110	1538.082275	5831.985840	2364.465088	19.245491
287.933868	1538.854126	5849.850098	2379.131104	19.491482
288.304596	1538.523315	5884.034668	2387.732422	19.542213
288.675262	1538.743896	5930.018555	2405.265625	19.732807
289.045929	1537.641113	5962.328613	2416.403076	19.860430
289.416565	1536.869141	5990.999023	2428.422852	20.016338
289.787170	1538.302734	5998.938477	2435.039307	20.103336
290.157745	1535.545898	6001.916016	2439.670654	20.242943
290.528259	1536.317749	5993.204102	2450.036377	20.501278
290.898773	1539.736084	6004.672852	2457.755371	20.560635
291.269226	1537.751221	6002.908691	2462.827637	20.717667
291.639679	1538.192261	5995.741211	2469.554443	20.894043
292.010101	1540.397827	6016.803223	2483.007568	21.057293
292.380463	1537.199829	6050.877441	2500.430908	21.340271
292.750824	1539.625854	6085.503418	2515.096924	21.458366
293.121155	1537.640869	6131.597168	2527.006348	21.536242
293.491455	1534.884155	6201.399414	2541.782959	21.577103
293.861725	1532.458130	6279.141602	2562.734863	21.705191
294.231964	1532.458130	6366.808594	2584.348145	21.758661
294.602142	1535.766235	6463.296875	2609.490479	21.790310
294.972321	1533.009399	6543.686035	2629.890869	21.890884
295.342468	1527.716309	6605.217773	2646.873047	22.041485
295.712555	1525.731445	6647.011230	2658.120605	22.111448
296.082672	1529.370483	6671.602051	2666.942627	22.122150
296.452728	1529.811523	6675.351074	2670.250732	22.163647
296.822693	1528.378052	6675.020020	2673.228271	22.244606
297.192657	1527.495850	6668.844727	2675.543945	22.329708
297.562622	1525.510986	6691.009766	2681.167480	22.372601
297.932556	1531.355469	6707.330566	2692.525635	22.433844
298.302460	1530.693848	6710.307129	2690.430664	22.390413
298.672333	1529.260376	6708.653320	2692.195068	22.453108
299.042145	1529.260376	6706.778809	2696.495605	22.544298
299.411957	1527.716553	6705.897461	2695.282715	22.547806
299.781677	1527.716553	6663.441406	2685.358154	22.540960
300.151428	1527.496094	6619.552734	2671.133057	22.459234
300.521149	1524.629028	6556.917969	2660.657227	22.574780
300.890839	1525.842041	6491.747559	2653.158691	22.701130
301.260468	1526.503662	6415.769531	2647.755127	22.932922
301.630096	1525.621338	6328.434570	2634.081543	23.079393
301.999695	1525.290527	6236.907715	2619.966797	23.233557
302.369232	1523.526245	6126.966309	2600.117676	23.386673
302.738739	1525.952148	6024.302246	2584.127930	23.523642
303.108246	1529.922119	5926.270020	2567.256104	23.595358
303.477692	1530.363159	5852.166504	2550.273926	23.599195
303.847137	1526.724121	5775.858398	2540.018799	23.847086
304.216553	1530.363037	5724.691406	2527.668213	23.777472
304.585876	1531.465820	5688.742188	2523.698242	23.867367
304.955231	1535.215088	5666.687988	2519.177002	23.816252
305.324493	1534.443115	5638.126953	2517.302246	23.950655
305.693787	1530.252686	5612.212891	2516.861328	24.169971
306.063049	1530.032227	5607.581055	2525.242188	24.407064
306.432251	1528.708740	5606.588379	2528.770996	24.524075
306.801422	1529.260132	5598.097656	2527.999268	24.546057
307.170593	1532.568481	5595.450684	2533.071533	24.625450
307.539673	1528.819092	5608.573730	2535.497559	24.674976
307.908783	1531.575928	5615.080078	2545.863281	24.838652
308.277832	1531.355347	5644.522949	2552.700195	24.831102
308.646851	1534.773926	5681.133301	2555.016113	24.605734
309.015839	1536.207520	5715.649414	2556.449707	24.410967
309.384796	1538.082153	5746.415039	2561.301514	24.314125
309.753723	1535.766357	5771.998047	2569.020508	24.390881
310.122620	1533.891724	5793.611816	2571.556641	24.359932
310.491486	1532.899292	5812.357422	2578.503662	24.433104
310.860352	1530.914307	5821.179199	2583.024902	24.523211
311.229126	1534.332886	5826.031250	2586.994873	24.527866
311.597931	1529.701416	5843.123535	2595.155029	24.700890
311.966675	1526.613892	5869.699219	2604.858887	24.826704
312.335388	1526.834351	5896.274414	2613.129395	24.861197
312.704071	1522.974854	5922.739746	2627.795654	25.110907
313.072723	1524.959717	5931.230957	2629.339600	25.063818
313.441345	1523.526245	5931.341309	2625.039063	24.989996
313.809875	1523.195313	5911.823242	2621.179688	25.018852
314.178436	1523.195190	5885.688477	2615.886475	25.047403
314.546967	1521.982178	5851.614258	2610.262695	25.135637
314.915466	1519.446045	5811.254883	2602.102539	25.226112
315.283936	1523.967163	5773.100586	2596.478516	25.240709
315.652374	1523.195557	5733.402344	2589.421143	25.324778
316.020752	1523.416016	5692.822266	2583.576660	25.427137
316.389130	1525.842041	5654.116699	2577.511719	25.474800
316.757416	1525.621460	5628.202637	2572.659668	25.521450
317.125732	1523.085205	5605.376465	2570.454102	25.656399
317.494019	1524.739258	5578.800781	2564.389160	25.644650
317.862274	1526.062378	5549.468262	2560.419189	25.708488
318.230469	1529.922119	5524.436523	2554.464600	25.648737
318.598663	1533.671265	5506.020996	2551.266602	25.616962
318.966797	1531.245239	5488.487793	2548.950928	25.717546
319.334930	1533.781494	5473.932129	2540.570068	25.552032
319.703003	1532.678711	5446.804688	2536.048828	25.634590
320.071045	1530.583374	5422.875000	2529.763672	25.670748
320.439056	1532.127197	5403.687988	2521.162354	25.546162
320.807037	1537.199829	5414.494629	2523.257324	25.431583
321.175049	1538.192261	5435.997559	2527.006592	25.368490
321.542969	1539.074463	5475.586426	2537.482666	25.362762
321.910828	1539.956665	5513.740234	2545.973633	25.316349
322.278717	1543.375122	5567.442871	2558.875244	25.235661
322.646515	1543.375122	5607.582031	2564.278564	25.119375
323.014313	1543.595581	5643.199707	2573.762207	25.128443
323.382111	1542.492798	5687.860352	2580.819336	25.047876
323.749817	1541.941650	5724.360840	2589.751221	25.052717
324.117523	1535.876587	5743.216797	2596.698486	25.213598
324.485199	1533.781372	5748.399414	2603.315186	25.376766
324.852814	1537.971680	5759.096191	2602.543213	25.220093
325.220428	1539.736084	5759.537598	2606.292480	25.275036
325.588013	1537.751221	5774.203125	2609.821289	25.305847
325.955536	1536.317627	5782.694336	2606.072266	25.192173
326.323059	1532.678711	5803.094727	2608.608398	25.194962
326.690552	1531.465698	5815.775879	2611.916748	25.218788
327.058014	1530.914307	5817.209473	2614.452881	25.279142
327.425415	1534.773804	5825.149414	2613.791016	25.149715
327.792816	1535.986938	5825.590332	2613.901367	25.128532
328.160187	1538.082031	5828.567871	2610.262207	24.989716
328.527496	1530.032227	5812.688477	2611.144531	25.243967
328.894775	1529.039673	5795.044434	2610.924072	25.360600
329.262054	1528.929443	5777.400879	2603.645752	25.296539
329.629303	1532.678711	5770.233398	2604.087158	25.283649
329.996490	1530.473267	5766.263672	2607.615723	25.429550
330.363647	1532.237549	5787.656738	2615.224609	25.449598
330.730774	1527.826660	5805.520996	2615.224609	25.420189
331.097839	1528.157593	5829.229004	2618.201904	25.343554
331.464935	1527.936890	5850.953125	2621.841064	25.304190
331.831970	1528.488159	5875.543457	2636.948242	25.499104
332.198975	1526.503296	5903.552734	2643.454590	25.518362
332.565948	1526.613647	5927.261230	2650.511963	25.539385
332.932892	1525.069824	5965.636719	2659.443848	25.545702
333.299744	1527.716431	5998.608398	2665.509033	25.448895
333.666656	1527.936890	6036.652344	2681.498291	25.585146
334.033478	1526.062256	6062.897461	2690.981934	25.676924
334.400299	1526.282837	6098.184570	2696.274902	25.590927
334.767090	1527.385620	6137.110352	2703.442627	25.512522
335.133850	1523.746704	6170.633301	2715.352051	25.643089
335.500549	1522.423462	6201.068848	2724.835449	25.700003
335.867218	1517.681763	6233.599121	2741.817627	25.957533
336.233917	1517.791992	6266.350586	2746.779785	25.881281
336.600525	1517.902222	6286.419434	2748.544434	25.807650
336.967102	1518.453491	6298.108398	2756.483887	25.902088
337.333649	1514.814697	6301.747070	2760.564209	26.023962
337.700195	1515.365967	6302.960449	2755.712158	25.907501
338.066681	1514.814697	6287.301270	2753.396240	25.952543
338.433136	1514.924805	6274.620605	2756.704346	26.089474
338.799591	1517.791992	6256.425781	2761.446289	26.244997
339.165985	1518.674072	6243.192871	2764.864502	26.377089
339.532318	1518.233032	6246.500977	2759.791992	26.258219
339.898651	1522.864380	6259.623535	2764.423340	26.211147
340.264954	1521.320679	6270.540039	2769.495605	26.281687
340.631226	1519.446045	6293.697754	2774.788818	26.294020
340.997467	1514.042603	6324.463379	2783.169678	26.382870
341.363678	1512.278320	6352.583984	2786.809082	26.331617
341.729828	1514.704224	6393.384766	2795.079346	26.244291
342.095947	1517.902100	6440.028809	2810.407471	26.259083
342.462067	1519.335693	6484.028320	2828.381592	26.367109
342.828156	1520.769165	6534.422852	2843.268311	26.377951
343.194183	1523.526001	6589.118164	2858.816895	26.360016
343.560211	1529.811523	6630.911621	2863.889648	26.152754
343.926178	1529.590942	6675.130859	2874.806641	26.143333
344.292114	1528.598511	6720.674316	2884.620850	26.117153
344.658020	1526.723877	6756.071289	2891.237061	26.093372
345.023926	1530.252563	6774.155273	2900.059082	26.121889
345.389771	1530.473267	6798.194824	2909.983398	26.187984
345.755585	1531.024414	6824.880859	2918.804932	26.214926
346.121368	1537.089478	6843.737305	2922.444092	26.106020
346.487122	1534.443115	6866.122559	2924.098389	26.064117
346.852844	1536.869019	6899.425781	2930.935059	25.996294
347.218536	1538.853882	6923.574219	2937.551758	25.975311
347.584167	1539.184814	6951.252930	2937.220703	25.831823
347.949768	1540.177246	6975.071289	2939.867188	25.753767
348.315369	1540.838867	6981.578125	2943.726807	25.784878
348.680939	1544.477905	6995.692871	2947.586426	25.739372
349.046448	1547.786133	7005.065430	2954.092285	25.769363
349.411957	1546.793701	7011.351074	2953.099609	25.735037
349.777435	1543.706055	7011.021484	2952.768799	25.772480
350.142792	1546.903931	7013.336914	2952.658691	25.716125
350.508209	1547.675903	7017.306641	2952.548096	25.684954
350.873566	1545.911499	7036.273926	2951.555908	25.602034
351.238892	1545.470459	7057.776855	2958.282715	25.630146
351.604187	1549.109253	7084.462891	2966.884033	25.613085
351.969482	1553.079102	7127.248535	2980.557861	25.608816
352.334717	1553.851196	7176.099609	2993.680420	25.609491
352.699890	1551.535400	7256.376465	3005.479492	25.486147
353.065063	1551.976318	7340.295410	3027.313477	25.488178
353.430237	1551.314819	7438.216309	3047.603516	25.417253
353.795319	1548.778442	7545.511719	3073.076416	25.418804
354.160370	1548.668213	7656.886230	3099.652100	25.391758
354.525421	1547.014282	7778.847656	3126.007324	25.337536
354.890442	1547.786133	7926.062500	3155.670410	25.208759
355.255402	1544.367676	8060.375000	3195.809814	25.344387
355.620331	1547.345093	8211.227539	3238.154785	25.372742
355.985260	1548.006714	8359.985352	3269.361572	25.269529
356.350098	1549.440186	8488.122070	3300.458252	25.235601
356.714935	1547.455322	8615.155273	3329.791016	25.218042
357.079742	1548.116943	8735.904297	3360.667480	25.217087
357.444519	1544.588135	8862.386719	3392.756592	25.255798
357.809296	1537.530762	9007.835938	3426.720703	25.289328
358.173981	1534.663574	9175.340820	3467.301025	25.294060
358.538605	1535.104736	9362.474609	3510.858154	25.241600
358.903259	1535.104736	9576.954102	3568.530762	25.285551
359.267914	1535.214966	9815.033203	3626.534668	25.258039
359.632477	1534.001831	10056.529297	3683.104492	25.216728
359.997009	1532.237549	10270.126953	3736.256348	25.223698
360.361542	1533.671021	10432.007813	3775.733887	25.196426
360.726013	1533.009399	10550.330078	3802.640137	25.169682
361.090485	1533.119751	10621.235352	3820.724609	25.171391
361.454895	1537.640869	10669.645508	3833.296143	25.138569
361.819244	1538.081787	10689.494141	3843.441162	25.191298
362.183594	1538.964233	10671.849609	3839.030029	25.184437
362.547913	1538.523071	10616.161133	3831.200928	25.256325
362.912201	1539.515625	10574.367188	3818.739990	25.227026
363.276489	1536.097168	10510.079102	3804.073730	25.272799
363.640686	1532.568359	10443.033203	3795.472168	25.396025
364.004883	1531.686279	10386.685547	3781.908936	25.411890
364.369049	1529.701416	10336.401367	3774.741455	25.492409
364.733154	1531.024780	10286.117188	3768.676025	25.558283
365.097198	1537.200073	10230.098633	3758.310303	25.550861
365.461273	1542.272461	10137.360352	3740.114990	25.570913
365.825287	1545.580688	10013.523438	3709.238525	25.551163
366.189270	1546.132080	9845.798828	3680.237061	25.713140
366.553223	1545.690796	9649.182617	3634.363770	25.774973
366.917114	1546.132080	9422.791992	3583.528564	25.866249
367.281006	1547.014282	9187.691406	3533.023926	25.992586
367.644867	1549.991577	8990.744141	3482.739502	25.975168
368.008698	1548.337524	8831.179688	3446.569824	26.064444
368.372498	1548.999146	8707.012695	3424.184570	26.197008
368.736237	1547.124634	8622.102539	3404.666260	26.255087
369.099976	1540.728760	8559.579102	3392.536377	26.383347
369.463654	1538.854126	8522.858398	3381.288574	26.380774
369.827332	1534.994629	8489.886719	3380.075439	26.529251
370.190948	1534.884277	8472.683594	3382.501221	26.631166
370.554535	1533.450684	8443.021484	3382.059814	26.754326
370.918091	1534.002075	8424.715820	3378.310547	26.765129
371.281647	1538.854126	8421.626953	3375.222900	26.680653
371.645111	1536.427979	8420.744141	3378.641357	26.759569
372.008575	1536.648560	8415.342773	3387.353027	26.904881
372.371979	1535.876465	8419.863281	3387.683838	26.900217
372.735382	1531.906738	8436.183594	3390.661133	26.921782
373.098724	1531.686157	8473.456055	3407.312500	27.019424
373.462067	1529.149902	8530.798828	3420.986328	27.019871
373.825348	1528.708740	8601.592773	3438.960938	27.008110
374.188599	1525.731445	8696.095703	3458.919922	26.960814
374.551819	1522.643677	8812.875000	3486.377930	26.936514
374.915009	1517.130005	8930.976563	3521.224365	27.031775
375.278168	1514.152588	9048.197266	3554.967529	27.087906
375.641266	1512.829468	9160.785156	3587.277832	27.124220
376.004395	1510.624023	9243.048828	3601.281982	27.037546
376.367462	1513.491211	9303.587891	3623.227051	27.082281
376.730469	1516.689209	9354.423828	3632.379395	26.993645
377.093475	1522.092529	9382.984375	3641.973145	26.967432
377.456421	1522.864380	9423.675781	3652.779785	26.958187
377.819336	1524.298096	9463.595703	3661.822266	26.923340
378.182281	1526.172607	9498.992188	3674.503418	26.945684
378.545135	1521.872070	9540.673828	3688.948975	27.024946
378.907928	1522.864502	9571.441406	3700.858643	27.060612
379.270752	1523.305542	9599.780273	3711.223877	27.090019
379.633484	1526.282959	9631.869141	3707.144043	26.905657
379.996246	1524.077393	9659.878906	3714.752930	26.926363
380.358948	1525.069824	9686.673828	3718.502197	26.875015
380.721558	1521.430786	9715.344727	3718.061035	26.808071
381.084198	1523.305298	9733.429688	3725.669678	26.824982
381.446747	1525.951782	9744.015625	3735.263428	26.883602
381.809326	1527.275146	9746.000977	3742.100098	26.948521
382.171875	1527.495850	9729.791016	3740.886963	26.985022
382.534363	1528.488403	9709.280273	3733.057617	26.948116
382.896790	1533.229858	9671.567383	3733.278320	27.033142
383.259247	1531.245117	9648.851563	3728.647217	27.069582
383.621613	1532.017090	9663.408203	3737.248535	27.119978
383.983948	1527.716431	9692.850586	3742.872070	27.129446
384.346283	1523.195068	9736.739258	3764.706055	27.290424
384.708588	1519.225342	9811.723633	3789.297363	27.375008
385.070831	1519.887085	9891.341797	3807.271484	27.323616
385.433075	1519.335693	9960.373047	3827.230713	27.341368
385.795258	1517.020142	10042.305664	3841.235596	27.262611
386.157440	1518.784424	10104.719727	3858.217285	27.247269
386.519531	1514.042603	10178.823242	3880.051270	27.306046
386.881622	1519.335815	10246.749023	3897.694824	27.251591
387.243683	1517.350830	10314.126953	3917.323242	27.282408
387.605713	1519.556274	10383.047852	3937.944580	27.284826
387.967682	1522.643921	10443.366211	3966.725830	27.397802
388.329651	1525.069824	10513.719727	3991.867676	27.443474
388.691559	1523.746704	10610.648438	4022.964600	27.503521
389.053467	1521.431030	10715.627930	4048.878662	27.489597
389.415314	1519.887085	10810.132813	4072.366699	27.474833
389.777130	1518.784180	10914.560547	4100.707031	27.479612
390.138885	1520.328125	10994.397461	4128.054688	27.524883
390.500641	1518.012329	11088.901367	4142.389648	27.420416
390.862366	1521.872070	11165.982422	4162.128906	27.376883
391.224060	1525.510864	11220.676758	4177.125977	27.349869
391.585693	1529.921875	11295.551758	4204.032227	27.382875
391.947296	1536.317749	11367.119141	4224.212402	27.341560
392.308868	1535.766235	11409.905273	4237.555176	27.362276
392.670441	1535.656006	11454.014648	4254.316895	27.410391
393.031952	1533.119751	11484.449219	4265.013184	27.452549
393.393433	1537.310059	11495.697266	4273.724121	27.478487
393.754883	1537.089600	11506.393555	4276.260742	27.476053
394.116302	1538.523071	11496.689453	4276.701660	27.496817
394.477692	1529.701294	11492.830078	4281.002441	27.614832
394.839020	1527.936890	11479.376953	4283.097168	27.686045
395.200348	1526.834229	11463.718750	4278.906738	27.695526
395.561646	1529.480835	11443.759766	4274.826660	27.690825
395.922882	1529.150024	11409.354492	4268.761719	27.728292
396.284088	1529.480835	11337.236328	4246.486816	27.702625
396.645264	1527.275513	11269.638672	4229.504883	27.736898
397.006409	1530.914429	11181.641602	4216.051758	27.823158
397.367523	1533.450684	11090.887695	4202.928711	27.930897
397.728577	1538.964355	11024.392578	4181.315430	27.856953
398.089600	1539.074707	10949.627930	4168.634277	27.942669
398.450592	1539.625977	10886.000000	4159.261230	28.028358
398.811584	1539.074463	10829.209961	4152.424316	28.130373
399.172546	1537.971680	10760.399414	4136.104004	28.171892
399.533447	1528.819214	10692.691406	4120.225098	28.278502
399.894318	1532.127441	10638.768555	4109.859375	28.306068
400.255127	1532.237671	10596.091797	4104.125488	28.375210
400.615936	1531.355469	10585.175781	4103.243164	28.406656
400.976685	1529.150146	10593.115234	4111.403320	28.489223
401.337433	1531.575928	10626.307617	4124.415039	28.509243
401.698151	1531.355591	10702.835938	4144.705078	28.494305
402.058807	1537.861572	10785.099609	4170.288086	28.467165
402.419434	1539.736206	10877.398438	4197.415527	28.461933
402.780060	1538.633423	10977.195313	4229.504883	28.509340
403.140594	1534.663696	11064.090820	4255.308594	28.549934
403.501129	1535.986938	11144.919922	4274.386230	28.498476
403.861633	1537.420532	11224.757813	4302.174805	28.539881
404.222076	1539.625977	11293.236328	4326.544434	28.573198
404.582550	1535.986938	11374.728516	4339.777832	28.497458
404.942932	1535.656128	11422.916992	4361.281250	28.578442
405.303284	1530.804077	11480.369141	4379.366211	28.630014
405.663605	1531.245117	11533.189453	4400.428223	28.686253
406.023895	1532.568481	11582.260742	4419.835938	28.729910
406.384125	1530.914307	11629.016602	4434.171387	28.750521
406.744354	1529.811523	11684.814453	4452.145508	28.777283
407.104553	1536.317627	11746.566406	4468.135254	28.714458
407.464691	1536.868896	11813.392578	4486.439941	28.702032
407.824829	1537.420288	11876.467773	4500.334473	28.657515
408.184906	1538.522949	11926.201172	4521.176270	28.713379
408.544922	1538.633423	11974.169922	4538.599121	28.747597
408.904938	1537.971680	12007.030273	4549.185059	28.762981
409.264923	1536.317627	11999.752930	4554.147461	28.841673
409.624847	1534.112183	11979.573242	4545.326172	28.827965
409.984802	1533.560791	11956.416016	4544.333496	28.886255
410.344666	1535.656006	11935.685547	4537.165527	28.860588
410.704529	1534.774048	11906.352539	4529.336426	28.872776
411.064331	1531.355591	11896.317383	4524.925293	28.881628
411.424133	1532.017090	11892.458008	4530.879883	28.945318
411.783875	1531.245117	11887.385742	4531.210449	28.967985
412.143555	1536.317749	11895.656250	4542.899414	29.022909
412.503235	1535.986938	11932.376953	4543.450684	28.927963
412.862885	1536.317749	11957.078125	4562.858398	29.043375
413.222473	1535.876587	12000.966797	4576.091797	29.051020
413.582062	1530.473267	12055.992188	4589.435059	29.062340
413.941559	1529.480713	12132.080078	4612.592285	29.078827
414.301086	1532.237549	12203.647461	4633.654785	29.062862
414.660522	1531.796509	12282.932617	4661.112305	29.106840
415.019958	1529.150024	12364.093750	4689.783691	29.170746
415.379364	1530.142456	12462.125977	4719.998047	29.179110
415.738708	1528.708984	12566.443359	4749.220703	29.177290
416.098053	1529.591187	12702.960938	4791.234375	29.191219
416.457336	1526.503540	12866.385742	4844.496094	29.259501
416.816559	1528.047363	13056.165039	4897.206543	29.225580
417.175812	1526.834351	13278.144531	4968.111816	29.284201
417.535004	1528.488525	13530.667969	5041.552246	29.270214
417.894135	1528.157715	13808.997070	5132.085938	29.345943
418.253265	1528.047363	14142.681641	5229.125977	29.339561
418.612335	1530.583618	14503.713867	5332.782227	29.308260
418.971405	1528.378174	14871.801758	5436.989746	29.292419
419.330414	1527.054810	15239.122070	5539.102539	29.259249
419.689423	1521.871948	15591.002930	5637.685547	29.254213
420.048370	1521.210327	15940.676758	5742.996094	29.278376
420.407257	1519.997314	16263.223633	5837.941406	29.287649
420.766144	1519.887085	16600.767578	5929.247070	29.238079
421.125000	1524.518555	16922.103516	6025.293945	29.230398
421.483795	1525.180176	17245.310547	6122.996094	29.247950
421.842560	1520.769287	17599.064453	6226.541992	29.267859
422.201324	1520.328125	17935.947266	6317.737305	29.224661
422.560028	1519.887085	18241.623047	6404.411621	29.210629
422.918671	1520.769287	18531.310547	6487.226074	29.196350
423.277283	1524.077515	18778.761719	6558.572754	29.177557
423.635925	1525.841919	18955.306641	6610.952148	29.175367
423.994476	1527.385742	19096.347656	6650.430176	29.159632
424.353027	1529.921997	19197.578125	6683.511230	29.169626
424.711487	1530.914429	19260.099609	6703.580566	29.175993
425.069946	1529.701416	19272.009766	6706.447754	29.177410
425.428375	1529.701538	19241.906250	6697.075195	29.174084
425.786743	1531.576050	19143.101563	6672.483398	29.190584
426.145081	1531.796509	18994.343750	6637.197266	29.236290
426.503418	1530.914307	18822.097656	6591.434570	29.266478
426.861725	1533.561035	18640.148438	6545.450195	29.298006
427.219971	1537.751343	18467.904297	6503.325684	29.329767
427.578186	1539.405396	18302.933594	6454.585449	29.320681
427.936371	1542.051880	18152.521484	6411.799805	29.317343
428.294495	1545.249756	17946.314453	6365.926270	29.392464
428.652618	1543.485352	17745.066406	6307.150879	29.402473
429.010712	1544.477905	17538.191406	6252.676270	29.437805
429.368744	1549.991455	17290.296875	6184.307129	29.442347
429.726746	1550.432617	17043.066406	6123.546387	29.517988
430.084717	1548.999023	16817.117188	6064.109375	29.572147
430.442688	1548.337280	16581.134766	6006.657227	29.657286
430.800568	1549.660645	16415.947266	5956.814941	29.645292
431.158417	1548.668213	16272.815430	5917.777832	29.673088
431.516235	1546.903809	16145.229492	5883.152832	29.703741
431.874023	1542.492920	16049.514648	5858.893066	29.753870
432.231812	1543.816162	15953.795898	5839.154297	29.808077
432.589508	1543.706055	15895.242188	5827.355469	29.848021
432.947205	1543.595825	15808.457031	5806.403320	29.883274
433.304840	1542.052002	15756.189453	5798.243164	29.943367
433.662476	1541.831421	15700.720703	5793.170410	30.025934
434.020050	1545.029541	15676.790039	5787.325684	30.019585
434.377594	1544.147339	15649.995117	5784.790039	30.063011
434.735138	1536.869263	15624.854492	5776.960449	30.097216
435.092621	1536.648682	15592.102539	5776.078125	30.162169
435.450043	1536.979492	15602.911133	5777.180664	30.145185
435.807465	1532.789063	15644.480469	5791.736816	30.180279
436.164856	1532.017090	15690.354492	5816.988770	30.264652
436.522156	1531.576050	15735.567383	5831.544922	30.272961
436.879486	1527.936890	15802.060547	5853.269043	30.301908
437.236755	1525.510986	15877.817383	5882.380859	30.356585
437.593994	1529.701416	15964.602539	5910.169434	30.346365
437.951172	1528.267822	16095.165039	5945.567383	30.324232
438.308380	1526.944458	16181.729492	5982.839355	30.405735
438.665497	1526.503296	16304.906250	6017.795410	30.390915
439.022583	1530.252686	16441.642578	6059.589355	30.375015
439.379608	1531.906860	16545.410156	6096.089844	30.400520
439.736633	1532.568604	16637.816406	6120.680664	30.374292
440.093628	1535.104736	16715.669922	6157.621582	30.450228
440.450562	1534.773926	16800.359375	6186.403320	30.471346
440.807495	1534.222534	16869.169922	6211.985840	30.503941
441.164368	1534.773926	16950.664063	6235.694336	30.493992
441.521210	1534.773926	17015.833984	6264.255859	30.550116
441.878021	1532.899292	17084.865234	6289.066406	30.582417
442.234833	1536.979492	17175.837891	6321.596680	30.594414
442.591522	1538.854126	17250.492188	6355.781250	30.658340
442.948242	1535.766479	17338.599609	6389.965820	30.717272
443.304901	1538.082275	17434.316406	6419.298340	30.706743
443.661530	1541.169800	17547.126953	6457.231934	30.713953
444.018127	1542.382935	17676.144531	6500.789551	30.733110
444.374664	1544.367798	17807.478516	6545.891602	30.753798
444.731201	1552.197021	17927.343750	6578.532227	30.694901
445.087738	1551.535400	18043.792969	6619.553711	30.729683
445.444183	1552.307251	18093.746094	6647.451660	30.802305
445.800598	1548.888794	18151.085938	6663.992676	30.809801
446.156982	1546.352539	18172.921875	6677.116211	30.858822
446.513336	1545.359985	18160.902344	6677.667480	30.888594
446.869598	1546.793579	18160.683594	6675.792480	30.871752
447.225891	1546.021606	18175.570313	6688.474121	30.923584
447.582153	1546.352417	18179.318359	6687.150391	30.907282
447.938354	1548.999023	18181.964844	6693.325684	30.928501
448.294495	1548.006592	18183.066406	6691.671875	30.920628
448.650665	1544.147095	18170.828125	6688.253906	30.938868
449.006775	1537.971924	18154.617188	6680.535156	30.948267
449.362823	1539.405396	18162.666016	6686.489746	30.963148
449.718842	1541.610718	18152.962891	6696.082520	31.029816
450.074860	1540.838867	18172.703125	6687.811523	30.946459
450.430817	1544.918945	18136.753906	6679.100586	30.944023
450.786713	1541.831299	18068.271484	6663.441406	30.990404
451.142578	1537.861450	17979.615234	6627.823730	30.957539
451.498444	1534.001831	17847.619141	6586.140625	30.968843
451.854248	1533.119629	17694.558594	6543.575684	31.002535
452.210022	1529.039551	17510.074219	6494.393555	31.070290
452.565765	1527.385376	17293.279297	6430.766602	31.101194
452.921478	1529.370361	17109.785156	6377.945801	31.119678
453.277191	1531.796387	16919.673828	6325.566406	31.152901
453.632813	1531.906738	16753.052734	6278.259766	31.182625
453.988434	1531.245117	16601.978516	6243.303711	31.266287
454.343964	1528.819214	16476.490234	6211.985352	31.330406
454.699524	1529.591187	16350.117188	6180.557617	31.381924
455.054993	1527.385742	16251.754883	6153.100098	31.415365
455.410400	1526.282959	16187.574219	6135.015137	31.434696
455.765839	1523.636475	16166.403320	6130.494141	31.461660
456.121216	1525.400879	16186.471680	6140.418457	31.478041
456.476593	1529.591187	16245.579102	6170.633301	31.537413
456.831909	1529.480957	16359.379883	6206.802734	31.539810
457.187195	1528.267822	16504.277344	6256.204590	31.570068
457.542450	1528.157593	16688.544922	6314.869629	31.573809
457.897644	1528.267944	16878.652344	6373.976074	31.567339
458.252808	1531.024780	17079.128906	6434.405273	31.536837
458.607971	1536.317749	17244.759766	6491.305664	31.543470
458.963013	1539.956787	17343.453125	6528.688477	31.567265
459.318085	1542.934204	17441.373047	6550.743164	31.498749
459.673096	1541.831421	17513.933594	6573.569336	31.503290
460.028076	1541.610718	17581.533203	6596.836914	31.516523
460.383057	1541.059570	17632.478516	6608.636230	31.492416
460.737976	1542.272461	17654.751953	6625.839355	31.550493
461.092865	1543.265015	17668.205078	6635.874023	31.582188
461.447723	1543.375244	17674.822266	6634.108398	31.557821
461.802551	1546.573120	17650.451172	6633.006836	31.585148
462.157288	1547.786133	17647.472656	6630.250977	31.568720
462.512054	1548.337646	17629.390625	6629.588379	31.597752
462.866760	1545.911621	17608.216797	6618.782227	31.582458
463.221405	1547.676025	17561.681641	6597.940430	31.536549
463.576019	1547.896484	17482.503906	6579.304199	31.575348
463.930603	1548.447876	17383.810547	6547.214355	31.567112
464.285156	1546.242432	17249.832031	6506.522949	31.586920
464.639709	1547.345093	17084.640625	6450.285156	31.555941
464.994171	1543.706055	16863.326172	6391.399414	31.643692
465.348633	1542.603271	16613.998047	6327.000000	31.744883
465.703033	1539.295044	16373.494141	6258.741211	31.814634
466.057434	1532.899170	16159.786133	6201.840332	31.920267
466.411774	1530.032104	16020.070313	6159.275879	31.947767
466.766083	1522.864380	15879.141602	6131.376953	32.101028
467.120331	1521.100098	15783.867188	6101.713379	32.115879
467.474548	1521.430908	15706.787109	6078.115234	32.122456
467.828735	1519.997314	15633.897461	6066.977539	32.216328
468.182922	1520.438232	15605.998047	6057.604004	32.211472
468.537048	1521.871704	15567.403320	6050.436523	32.242035
468.891144	1520.879272	15539.833008	6051.318848	32.316528
469.245178	1517.571289	15543.692383	6058.817383	32.377064
469.599213	1514.483398	15538.730469	6057.383789	32.393185
469.953186	1512.278076	15543.582031	6059.368164	32.406754
470.307129	1512.719116	15539.062500	6070.726563	32.496048
470.661041	1515.255493	15572.252930	6091.016602	32.551483
471.014923	1517.019775	15620.001953	6106.564941	32.543079
471.368713	1514.483521	15633.895508	6118.915039	32.610645
471.722504	1516.799194	15624.414063	6113.511719	32.583199
472.076294	1515.696533	15594.748047	6106.785645	32.609360
472.429993	1517.571167	15538.951172	6100.940918	32.688435
472.783722	1517.681396	15533.877930	6095.868164	32.663544
473.137329	1521.210205	15559.459961	6102.815430	32.636585
473.490967	1524.628662	15589.895508	6122.113281	32.686790
473.844543	1525.069702	15655.178711	6143.506348	32.685074
474.198090	1525.731445	15736.008789	6173.059570	32.703995
474.551605	1524.849243	15840.216797	6218.602051	32.788212
474.905060	1525.400635	15973.979492	6272.635254	32.856064
475.258484	1526.834229	16111.156250	6318.068359	32.851952
475.611877	1525.180176	16262.120117	6368.572754	32.865662
475.965240	1522.974731	16434.146484	6425.583984	32.878765
476.318573	1525.731445	16599.001953	6478.514648	32.858051
476.671844	1529.149902	16778.083984	6529.240234	32.789772
477.025116	1531.024536	16965.107422	6592.425781	32.793663
477.378326	1533.340210	17172.417969	6657.486816	32.765015
477.731506	1535.435425	17399.578125	6729.163574	32.738789
478.084656	1534.773926	17628.064453	6798.305176	32.706371
478.437744	1532.788940	17876.400391	6876.708984	32.697300
478.790833	1532.347900	18179.759766	6980.916016	32.729221
479.143890	1529.149902	18532.742188	7108.832520	32.814728
479.496826	1527.606079	18959.386719	7247.334961	32.812073
479.849823	1528.488281	19549.675781	7423.220215	32.710007
480.202728	1529.039673	20281.115234	7646.081055	32.620609
480.555603	1525.952148	21176.748047	7942.052734	32.650589
480.908478	1522.974731	22400.552734	8328.557617	32.597569
481.261292	1522.974731	23963.777344	8843.861328	32.623104
481.614075	1524.628906	25732.109375	9437.899414	32.689362
481.966797	1526.834229	27496.359375	10033.151367	32.754997
482.319489	1527.606079	29080.205078	10538.088867	32.702839
482.672150	1526.393188	30462.691406	10977.966797	32.663380
483.024780	1524.739014	31572.472656	11317.165039	32.589565
483.377350	1523.636353	32530.302734	11615.893555	32.548668
483.729919	1522.313110	33403.109375	11878.783203	32.484978
484.082428	1523.856812	34220.453125	12133.733398	32.449486
484.434937	1524.187622	35104.066406	12424.632813	32.461239
484.787384	1523.636230	36042.925781	12732.955078	32.472622
485.139771	1526.503296	37078.054688	13067.190430	32.461842
485.492157	1529.921753	38098.410156	13409.587891	32.486073
485.844482	1531.355347	39044.769531	13726.840820	32.509666
486.196777	1530.693726	39872.480469	13982.122070	32.474827
486.549072	1531.796509	40529.593750	14185.025391	32.446007
486.901276	1531.134888	40987.113281	14331.797852	32.442902
487.253448	1530.363037	41207.882813	14417.590820	32.479923
487.605591	1528.047241	41187.921875	14427.404297	32.524956
487.957703	1529.039917	40949.730469	14355.946289	32.538513
488.309784	1533.450806	40448.871094	14191.973633	32.528294
488.661835	1533.450806	39685.007813	13934.596680	32.504951
489.013855	1533.560913	38832.492188	13644.579102	32.470150
489.365814	1533.340454	38064.773438	13368.897461	32.398281
489.717743	1533.009521	37422.546875	13166.767578	32.415455
490.069611	1532.017090	36896.214844	13001.909180	32.433628
490.421509	1533.561035	36463.058594	12868.699219	32.451481
490.773315	1538.633545	36034.433594	12733.726563	32.453495
491.125092	1539.625977	35581.214844	12605.369141	32.506542
491.476807	1534.553345	35043.742188	12442.608398	32.552429
491.828522	1536.317749	34357.406250	12216.660156	32.541096
492.180176	1533.230225	33541.167969	11956.196289	32.563690
492.531830	1530.804199	32589.628906	11650.189453	32.581352
492.883423	1527.495972	31597.392578	11331.060547	32.602589
493.234985	1525.290405	30630.853516	11019.099609	32.618542
493.586487	1528.047363	29768.414063	10744.189453	32.634640
493.937988	1528.929443	29037.640625	10511.734375	32.654400
494.289429	1532.788818	28473.484375	10331.107422	32.658096
494.640869	1531.686157	28000.085938	10175.733398	32.657986
494.992218	1531.686157	27623.722656	10059.175781	32.682343
495.343567	1529.149902	27261.039063	9935.338867	32.668373
495.694855	1530.362915	26811.238281	9798.379883	32.704628
496.046112	1533.230103	26245.205078	9622.496094	32.734196
496.397339	1532.899292	25526.890625	9380.888672	32.708141
496.748535	1534.663574	24699.515625	9119.984375	32.744957
497.099670	1534.994385	23875.558594	8857.975586	32.778854
497.450806	1536.097046	23117.435547	8623.757813	32.841618
497.801880	1540.177124	22517.664063	8440.484375	32.893871
498.152924	1536.648560	22015.919922	8294.705078	32.999496
498.503937	1535.766357	21626.441406	8180.461426	33.073528
498.854889	1541.279907	21339.951172	8097.207031	33.112965
499.205841	1537.089600	21112.789063	8029.940430	33.167912
499.556702	1541.941650	20926.869141	7966.091309	33.139919
499.907562	1539.956787	20761.572266	7917.903320	33.181114
500.258362	1540.838867	20609.949219	7879.858398	33.242348
500.609161	1544.588257	20483.576172	7841.484375	33.248322
500.959900	1543.926636	20330.847656	7791.751465	33.256245
501.310608	1543.595703	20167.863281	7742.790039	33.285572
501.661255	1540.949097	19978.414063	7691.072754	33.356667
502.011902	1544.257324	19809.808594	7643.545410	33.392303
502.362488	1545.249756	19609.330078	7579.145996	33.402733
502.713043	1546.352539	19430.138672	7525.663086	33.434258
503.063568	1541.279907	19261.421875	7477.805176	33.501568
503.414063	1538.523071	19106.378906	7436.672852	33.573532
503.764496	1541.059204	18964.458984	7391.572266	33.578480
504.114899	1539.295166	18838.527344	7348.345215	33.579811
504.465271	1538.743774	18744.794922	7316.696289	33.580933
504.815613	1535.656128	18675.433594	7290.120605	33.573742
505.165894	1529.701416	18602.212891	7279.204102	33.676960
505.516174	1527.716553	18584.128906	7262.332520	33.621468
505.866394	1527.937012	18570.455078	7256.818359	33.615231
506.216583	1523.305664	18563.177734	7260.898926	33.671577
506.566711	1523.856934	18600.339844	7280.306641	33.709808
506.916840	1523.085083	18640.369141	7305.889648	33.783424
507.266907	1521.872070	18704.107422	7323.753906	33.766747
507.616882	1518.674072	18761.666016	7340.846191	33.765438
507.966858	1516.689209	18802.027344	7359.702148	33.803288
508.316803	1516.248169	18854.185547	7386.719727	33.859112
508.666748	1516.579102	18909.541016	7416.162109	33.919373
509.016632	1515.145508	18965.890625	7430.276855	33.896152
509.366486	1513.932373	19011.984375	7457.955566	33.969627
509.716309	1512.940063	19094.466797	7488.169434	33.985840
510.066040	1512.609253	19168.130859	7525.883789	34.058887
510.415771	1515.476318	19257.892578	7545.401855	33.985935
510.765503	1514.263428	19336.626953	7565.140625	33.951035
511.115173	1516.248169	19421.427734	7604.948730	34.005249
511.464752	1516.578979	19503.468750	7636.266602	34.023045
511.814270	1518.012451	19575.478516	7661.518555	34.021969
512.163818	1518.563843	19630.283203	7687.542969	34.060703
512.513306	1516.578857	19691.484375	7695.262695	33.995682
512.862793	1520.328003	19720.816406	7715.772949	34.039993
513.212219	1519.887085	19769.556641	7735.181641	34.057022
513.561646	1518.563721	19808.925781	7744.223145	34.037922
513.911011	1515.255615	19836.164063	7754.369141	34.054607
514.260315	1513.932251	19890.197266	7773.224609	34.061832
514.609558	1514.593994	19954.156250	7803.881836	34.107578
514.958801	1517.460938	20057.042969	7839.830566	34.102009
515.308044	1517.019897	20201.500000	7885.482910	34.084240
515.657227	1518.894531	20392.933594	7941.170410	34.027035
516.006348	1520.989746	20606.861328	8002.812500	33.961369
516.355408	1523.415771	20836.009766	8082.538574	33.962933
516.704529	1523.856812	21066.146484	8153.003906	33.922058
517.053467	1523.415649	21249.308594	8205.051758	33.872414
517.402466	1526.062256	21397.183594	8252.028320	33.847942
517.751404	1523.084961	21517.271484	8307.385742	33.931366
518.100281	1525.290405	21624.896484	8346.420898	33.936638
518.449219	1520.548950	21691.941406	8374.431641	33.978233
518.798035	1517.571411	21757.333984	8400.457031	34.006752
519.146851	1516.689331	21826.916016	8427.142578	34.024502
519.495544	1517.020020	21905.869141	8450.629883	34.006870
519.844299	1522.313110	21994.197266	8486.247070	34.017063
520.192932	1520.218018	22093.333984	8518.666992	34.017448
520.541626	1522.313110	22156.630859	8545.904297	34.038399
520.890198	1527.937012	22260.949219	8587.036133	34.047630
521.238770	1530.583496	22355.783203	8611.736328	34.002811
521.587280	1531.796387	22446.537109	8634.672852	33.961102
521.935791	1530.693726	22546.884766	8672.716797	33.983433
522.284180	1532.788940	22645.027344	8703.704102	33.965679
522.632629	1534.994385	22760.375000	8750.129883	33.992962
522.981018	1530.693726	22887.296875	8807.470703	34.072727
523.329346	1530.693848	23058.660156	8876.833008	34.123703
523.677551	1525.731567	23236.419922	8941.563477	34.157516
524.025818	1523.415771	23458.398438	9008.166992	34.122440
524.374023	1521.100098	23722.173828	9098.371094	34.130199
524.722229	1520.438477	24090.261719	9205.886719	34.051876
525.070374	1520.548584	24555.941406	9367.656250	34.065437
525.418457	1519.556274	25200.154297	9587.208984	34.068619
525.766541	1524.849365	26106.705078	9888.583984	34.024017
526.114563	1525.621338	27271.955078	10287.550781	34.031757
526.462585	1522.974854	28579.017578	10727.207031	34.019138
526.810547	1526.172729	29825.097656	11162.121094	34.050579
527.158447	1526.172607	30890.884766	11525.580078	34.052460
527.506348	1528.157593	31764.574219	11825.191406	34.055077
527.854065	1528.598633	32475.056641	12060.734375	34.033413
528.201904	1522.202759	33035.906250	12250.182617	34.042267
528.549622	1520.879639	33462.882813	12395.521484	34.044956
528.897339	1520.879517	33790.281250	12501.164063	34.026920
529.245056	1519.997314	34014.574219	12572.619141	34.013744
529.592712	1516.027466	34193.992188	12644.185547	34.054012
529.940369	1515.365845	34378.804688	12692.815430	34.011806
530.287903	1517.571289	34558.000000	12746.297852	33.984806
530.635437	1514.704346	34745.679688	12821.172852	34.023884
530.982910	1517.020020	35013.753906	12916.227539	34.030800
531.330383	1518.233032	35248.523438	13003.343750	34.049843
531.677795	1521.651489	35370.593750	13062.779297	34.095978
532.025208	1522.643921	35337.398438	13063.994141	34.131107
532.372498	1521.320801	35142.769531	12987.904297	34.104965
532.719788	1522.643921	34723.730469	12836.942383	34.078098
533.067078	1520.659180	34028.792969	12599.635742	34.080631
533.414307	1523.195435	33081.554688	12276.095703	34.073067
533.761536	1525.290649	32011.136719	11915.504883	34.082092
534.108643	1523.085083	31022.433594	11570.681641	34.060402
534.455811	1523.856934	30247.216797	11310.768555	34.073006
534.802856	1527.275635	29614.585938	11101.470703	34.087261
535.149902	1524.408447	29126.521484	10936.724609	34.099983
535.496887	1523.195313	28710.240234	10794.583008	34.102226
535.843811	1522.864624	28364.095703	10686.295898	34.139389
536.190796	1520.328247	28066.687500	10607.780273	34.232388
536.537659	1526.613892	27817.033203	10528.275391	34.239319
536.884460	1527.826782	27578.732422	10440.278320	34.211674
537.231323	1525.180298	27296.324219	10360.550781	34.283966
537.578064	1525.952148	27017.113281	10279.058594	34.337811
537.924805	1524.518677	26697.654297	10165.148438	34.324806
538.271423	1526.062500	26405.654297	10065.903320	34.324680
538.618164	1527.275391	26236.941406	10008.230469	34.322418
538.964783	1526.062378	26303.761719	10028.631836	34.315411
539.311279	1525.290405	26509.308594	10110.010742	34.360851
539.657776	1529.811523	26777.714844	10206.610352	34.366413
540.004333	1534.001831	27009.066406	10305.634766	34.432232
540.350769	1530.914307	27213.953125	10380.620117	34.457394
540.697144	1534.773926	27352.234375	10433.992188	34.469769
541.043518	1534.773926	27429.089844	10459.244141	34.464977
541.389893	1532.788940	27431.296875	10464.426758	34.487076
541.736145	1533.009521	27319.259766	10429.582031	34.501225
542.082458	1531.465698	27184.619141	10384.589844	34.510860
542.428711	1530.032104	27028.029297	10332.431641	34.521923
542.774902	1534.443115	26874.091797	10283.691406	34.527897
543.121033	1534.001953	26771.865234	10254.468750	34.553112
543.467102	1535.766357	26708.130859	10231.531250	34.544884
543.813171	1530.473389	26658.839844	10216.865234	34.568069
544.159180	1527.826782	26623.990234	10211.130859	34.600124
544.505127	1527.275269	26580.546875	10196.905273	34.604782
544.851135	1525.510986	26465.642578	10160.515625	34.622932
545.197021	1529.039673	26279.062500	10098.321289	34.623325
545.542908	1529.811523	25915.710938	9981.323242	34.657372
545.888733	1528.598633	25382.431641	9806.429688	34.702312
546.234558	1529.701416	24666.982422	9565.264648	34.729939
546.580322	1529.370483	23875.119141	9299.176758	34.770847
546.926025	1522.754150	23061.306641	9032.648438	34.867218
547.271667	1516.799438	22344.753906	8789.497070	34.917965
547.617371	1515.917236	21688.521484	8577.333008	35.004982
547.962952	1510.513916	21087.759766	8382.040039	35.099556
548.308533	1506.985229	20539.593750	8204.060547	35.187374
548.654053	1510.513916	20035.978516	8035.784180	35.223248
548.999573	1510.072876	19574.046875	7896.730469	35.355774
549.344971	1509.631836	19205.074219	7779.180176	35.430302
549.690430	1511.727051	18895.871094	7683.683594	35.503368
550.035767	1514.704468	18655.806641	7617.520996	35.603409
550.381104	1517.461182	18424.896484	7541.984375	35.632389
550.726440	1517.350952	18201.921875	7459.941406	35.617283
551.071655	1521.872070	17961.861328	7381.537109	35.642757
551.416931	1523.305664	17699.191406	7296.297852	35.688877
551.762085	1523.305664	17417.554688	7197.713379	35.701012
552.107178	1526.393188	17137.240234	7107.730469	35.752945
552.452332	1527.937012	16865.531250	7016.976074	35.788136
552.797424	1528.488281	16617.859375	6942.211426	35.877724
553.142395	1529.039551	16403.378906	6875.275391	35.942677
553.487366	1531.906494	16235.324219	6823.667969	35.990009
553.832336	1533.450439	16092.630859	6765.773926	35.938309
554.177185	1538.192261	15982.911133	6725.193359	35.909325
554.522095	1537.199707	15885.650391	6691.119629	35.919697
554.866943	1540.508057	15797.429688	6667.300781	35.960026
555.211731	1540.177246	15707.779297	6639.291504	35.991371
555.556396	1542.162109	15630.037109	6619.332520	36.039291
555.901123	1536.758667	15550.971680	6590.441895	36.061127
556.245789	1533.891602	15491.977539	6560.998535	36.015732
556.590454	1533.340454	15421.841797	6535.525879	36.016743
556.934998	1535.656006	15336.601563	6511.817871	36.056675
557.279541	1531.135010	15230.741211	6457.453125	35.959560
557.624023	1529.260376	15136.675781	6420.953125	35.948730
557.968567	1528.488403	15005.562500	6382.357910	36.015751
558.312988	1526.393188	14903.338867	6352.473145	36.077595
558.657349	1528.267822	14807.733398	6321.707031	36.096630
559.001770	1528.708862	14752.045898	6307.041016	36.135601
559.346069	1524.628784	14695.036133	6284.104004	36.137646
559.690308	1524.187622	14652.139648	6272.083984	36.166313
560.034485	1519.445923	14622.696289	6264.254395	36.210930
560.378723	1517.681519	14593.473633	6252.676270	36.211914
560.722900	1515.365845	14547.491211	6240.987793	36.261333
561.067017	1513.380981	14502.721680	6238.120605	36.373978
561.411072	1513.932251	14474.269531	6233.599121	36.416237
561.755127	1513.380859	14445.488281	6230.181152	36.473564
562.099182	1512.057617	14444.275391	6218.161133	36.390537
562.443115	1513.711914	14463.792969	6217.058594	36.319054
562.787048	1512.609131	14476.474609	6223.233887	36.336578
563.130920	1517.020142	14514.077148	6247.163086	36.393955
563.474792	1519.997437	14593.033203	6278.480469	36.399220
563.818604	1519.887085	14671.437500	6308.916016	36.414177
564.162354	1516.689209	14778.511719	6333.836914	36.323421
564.506042	1522.202881	14880.733398	6382.356934	36.382404
564.849731	1525.290405	14948.110352	6409.484375	36.387241
565.193420	1526.723999	15022.654297	6438.375977	36.393578
565.537048	1527.054688	15072.498047	6453.151855	36.367191
565.880615	1524.959595	15111.315430	6462.855469	36.344521
566.224121	1526.723877	15117.048828	6474.434570	36.406128
566.567627	1533.781372	15125.760742	6474.213379	36.348145
566.911072	1532.788940	15127.083008	6476.088379	36.363045
567.254517	1536.758789	15147.593750	6480.830566	36.324528
567.597839	1535.104858	15172.957031	6486.563965	36.306736
567.941223	1534.002075	15221.255859	6494.833984	36.244175
568.284485	1532.678833	15281.576172	6505.531250	36.169102
568.627808	1534.663696	15341.895508	6525.710449	36.148064
568.970947	1535.876709	15414.675781	6547.655273	36.111038
569.314148	1538.633545	15486.792969	6577.318359	36.124371
569.657288	1534.774048	15551.301758	6602.240234	36.153507
570.000366	1534.112305	15612.943359	6625.287109	36.161915
570.343445	1532.348022	15662.568359	6633.558105	36.101418
570.686462	1528.378174	15679.879883	6634.661621	36.082977
571.029419	1526.723999	15675.358398	6629.369141	36.064575
571.372314	1526.613770	15632.462891	6626.059570	36.151283
571.715210	1521.651367	15592.434570	6615.252930	36.199844
572.058105	1520.989990	15575.562500	6604.997559	36.173336
572.400879	1521.872070	15552.845703	6599.704102	36.190163
572.743713	1518.563843	15550.087891	6604.225586	36.244541
573.086426	1520.328125	15549.425781	6609.958984	36.279102
573.429077	1521.982178	15559.351563	6609.738281	36.244370
573.771790	1517.902100	15557.585938	6617.457520	36.322441
574.114441	1517.571289	15556.593750	6617.017090	36.323368
574.457031	1516.248047	15535.863281	6604.886230	36.296562
574.799561	1519.115112	15488.666992	6590.771484	36.305077
575.142029	1518.674072	15425.588867	6573.127930	36.344898
575.484436	1520.438477	15341.343750	6550.411621	36.393948
575.826904	1518.674194	15231.954102	6517.771484	36.454422
576.169250	1519.666626	15101.721680	6475.096680	36.485130
576.511597	1518.012573	14939.840820	6413.564941	36.474556
576.853943	1521.320679	14764.176758	6351.260254	36.472038
577.196167	1524.518555	14579.801758	6284.435059	36.459694
577.538391	1523.526123	14387.044922	6219.484375	36.506016
577.880554	1526.503296	14197.925781	6154.643555	36.524235
578.222717	1527.606079	14013.992188	6093.773438	36.569168
578.564819	1527.936890	13843.730469	6030.255859	36.557278
578.906860	1531.906860	13668.176758	5967.952148	36.551968
579.248901	1529.039795	13486.114258	5905.207031	36.598980
579.590942	1528.488525	13311.665039	5842.020996	36.607548
579.932861	1530.473267	13130.047852	5776.519531	36.605190
580.274780	1531.576050	12965.851563	5717.192871	36.605877
580.616638	1528.929443	12799.669922	5660.622559	36.658581
580.958496	1528.267822	12642.088867	5598.098633	36.619545
581.300232	1525.400757	12493.443359	5546.380371	36.660866
581.641968	1525.841919	12354.940430	5494.882813	36.651630
581.983704	1524.187744	12222.283203	5448.789063	36.685047
582.325317	1525.841919	12101.534180	5409.200684	36.719666
582.666992	1527.275391	11995.232422	5375.347656	36.760490
583.008606	1529.591187	11896.317383	5341.604004	36.771614
583.350098	1530.693970	11814.714844	5320.211426	36.848598
583.691589	1529.039917	11735.871094	5303.339844	36.978176
584.033081	1530.473511	11675.662109	5281.947266	36.977859
584.374512	1529.150146	11635.742188	5261.105469	36.925953
584.715881	1530.804199	11580.606445	5250.628906	37.013908
585.057190	1531.245361	11526.683594	5240.374023	37.108215
585.398499	1526.613770	11487.756836	5222.840820	37.106457
585.739807	1531.355469	11463.937500	5215.893555	37.095470
586.081055	1531.134888	11458.313477	5209.938965	37.057903
586.422180	1532.347900	11440.449219	5207.954590	37.096981
586.763367	1531.134888	11435.597656	5216.666016	37.210815
587.104431	1532.237671	11436.257813	5222.179688	37.257011
587.445496	1529.370483	11437.471680	5225.597656	37.305099
587.786499	1529.039795	11440.559570	5224.164063	37.281109
588.127502	1532.237671	11449.160156	5234.860352	37.336407
588.468445	1533.340332	11450.815430	5237.065430	37.345448
588.809326	1533.560913	11456.659180	5241.476563	37.366508
589.150208	1536.207520	11464.377930	5250.188477	37.408516
589.491028	1537.751343	11463.717773	5253.716309	37.436806
589.831848	1533.450562	11459.858398	5254.157227	37.482910
590.172546	1529.591187	11462.835938	5248.092773	37.434910
590.513245	1527.385620	11457.653320	5240.263184	37.389500
590.853943	1526.723999	11469.452148	5236.735352	37.313812
591.194458	1523.084961	11473.973633	5237.396973	37.326435
591.535095	1526.282837	11476.620117	5243.351563	37.356213
591.875610	1528.819214	11484.891602	5253.386230	37.410004
592.216125	1524.739014	11512.017578	5262.097656	37.421192
592.556580	1528.819214	11542.123047	5276.763672	37.429649
592.897034	1527.385620	11559.435547	5283.270020	37.438850
593.237366	1524.408203	11564.838867	5287.129395	37.475697
593.577698	1529.260254	11603.103516	5303.890625	37.469616
593.918030	1530.252686	11650.410156	5316.351074	37.411457
594.258301	1531.686401	11705.215820	5331.238281	37.347431
594.598511	1533.450684	11771.158203	5357.924316	37.356739
594.938721	1535.325317	11857.501953	5391.888184	37.361916
595.278809	1534.443115	11935.464844	5418.243164	37.340565
595.618958	1537.861328	11997.327148	5438.313477	37.291122
595.958984	1535.876587	12031.291016	5453.861816	37.330452
596.299011	1534.663574	12048.934570	5458.934570	37.323280
596.638977	1534.112305	12065.916992	5462.463379	37.299885
596.978943	1536.317749	12067.018555	5467.425293	37.329967
597.318848	1538.302490	12054.998047	5465.219727	37.339840
597.658630	1541.720947	12036.031250	5461.691406	37.353291
597.998474	1541.941650	12002.398438	5455.846680	37.416195
598.338257	1541.610718	11959.060547	5448.789063	37.506088
598.677979	1536.648438	11904.476563	5443.716309	37.684536
599.017700	1535.986938	11873.490234	5419.677246	37.568943
599.357361	1536.317749	11823.316406	5401.150879	37.570072
599.696960	1537.530640	11767.958984	5386.264648	37.620457
600.036560	1535.104736	11732.892578	5372.811523	37.632736
600.376038	1537.420532	11709.957031	5365.092285	37.627510
600.715576	1535.215088	11680.955078	5359.468262	37.693192
601.055054	1530.473267	11653.055664	5350.315918	37.735855
601.394409	1530.142456	11614.680664	5342.265625	37.801662
601.733826	1529.260376	11593.729492	5330.246094	37.766384
602.073120	1523.195435	11560.426758	5317.564453	37.802944
602.412415	1519.335693	11560.868164	5311.940430	37.769184
602.751587	1515.366089	11583.473633	5326.275879	37.851303
603.090820	1516.578979	11618.099609	5338.736816	37.837448
603.429993	1518.563843	11665.185547	5350.536621	37.765995
603.769104	1517.902100	11700.142578	5366.415039	37.796329
604.108154	1517.240479	11724.841797	5371.708496	37.760761
604.447205	1517.571289	11761.012695	5391.337402	37.817039
604.786194	1516.358276	11777.001953	5399.717773	37.847134
605.125183	1519.666504	11801.591797	5414.274414	37.878197
605.464111	1522.423340	11833.351563	5421.993652	37.819782
605.802979	1524.849121	11869.520508	5427.617188	37.727325
606.141846	1523.415527	11894.111328	5441.732422	37.782585
606.480652	1525.621338	11927.525391	5451.325684	37.740246
606.819336	1524.187622	11986.520508	5468.969727	37.704613
607.158020	1522.202759	12036.363281	5483.525391	37.676075
607.496765	1518.453491	12074.296875	5502.822754	37.745625
607.835388	1515.255615	12102.967773	5508.336914	37.714298
608.173950	1520.328369	12105.945313	5509.770020	37.687378
608.512512	1522.313110	12089.955078	5502.050781	37.659660
608.851013	1523.415771	12038.128906	5481.099121	37.639481
609.189514	1528.708862	11961.158203	5455.736328	37.642429
609.527893	1531.575928	11846.584961	5420.449219	37.701115
609.866333	1536.428101	11725.615234	5371.818848	37.641769
610.204712	1538.082153	11597.809570	5331.569336	37.709644
610.542969	1536.317749	11477.282227	5298.045898	37.840672
610.881226	1535.545898	11375.941406	5258.899902	37.837444
611.219482	1536.538330	11296.544922	5231.111328	37.854206
611.557678	1534.774048	11222.221680	5197.477539	37.808758
611.895813	1534.001953	11170.172852	5174.320801	37.777649
612.233948	1529.370605	11119.116211	5150.722656	37.762753
612.571960	1530.693848	11067.949219	5138.922852	37.832989
612.910034	1530.693848	11004.432617	5120.396973	37.891094
613.247986	1530.032227	10945.435547	5097.129395	37.885761
613.585938	1525.510986	10878.611328	5071.325684	37.910580
613.923828	1526.723877	10775.286133	5033.392090	37.915817
614.261658	1528.708740	10655.861328	5003.838867	38.074638
614.599487	1530.583374	10533.898438	4965.354492	38.150070
614.937317	1532.899170	10426.493164	4927.751465	38.171883
615.275024	1529.921753	10327.688477	4887.502441	38.164009
615.612732	1525.951904	10242.007813	4858.941895	38.239658
615.950378	1524.297852	10159.083008	4839.754395	38.396515
616.288025	1523.856812	10087.185547	4818.030273	38.468372
616.625549	1523.415649	10036.679688	4799.504883	38.482178
616.963074	1522.092407	9979.669922	4789.028809	38.627335
617.300537	1521.761597	9949.125000	4773.480469	38.585243
617.638000	1521.761597	9913.396484	4761.019531	38.601036
617.975464	1523.636230	9882.080078	4752.528320	38.630302
618.312744	1525.952026	9843.483398	4747.676270	38.734138
618.650024	1523.746582	9816.908203	4746.353027	38.858597
618.987305	1523.526001	9787.244141	4739.847168	38.920998
619.324585	1529.370483	9754.933594	4731.907227	38.933949
619.661743	1528.267822	9729.902344	4721.651855	38.935944
619.998901	1531.465820	9711.817383	4710.625000	38.863358
620.336060	1534.001953	9686.896484	4707.096191	38.919849
620.673096	1539.184814	9661.203125	4708.750000	39.024353
621.010193	1538.633423	9631.980469	4708.970215	39.172134
621.347168	1535.766357	9616.762695	4701.030762	39.169235
621.684082	1534.773926	9601.544922	4691.988281	39.138515
622.020996	1535.545898	9580.703125	4688.680176	39.192947
622.357849	1540.397827	9554.568359	4690.003906	39.300461
622.694641	1540.397827	9528.212891	4683.938477	39.354198
623.031433	1541.941650	9508.142578	4676.439941	39.347466
623.368164	1542.162231	9502.850586	4675.667969	39.362247
623.704895	1541.059570	9505.497070	4679.748535	39.408798
624.041504	1537.971924	9534.609375	4678.314941	39.270794
624.378174	1534.663818	9550.929688	4688.791016	39.346592
624.714783	1534.994629	9583.019531	4704.891113	39.387260
625.051331	1531.906982	9605.955078	4717.020996	39.448788
625.387756	1531.024780	9641.573242	4725.952148	39.392246
625.724304	1531.906860	9667.598633	4731.135254	39.323372
626.060669	1535.656128	9673.332031	4741.941895	39.400509
626.397034	1532.678955	9680.831055	4745.250000	39.426987
626.733337	1532.568604	9681.161133	4746.793945	39.445160
627.069641	1527.716553	9676.640625	4741.832031	39.442207
627.405884	1528.267944	9668.479492	4736.428711	39.411270
627.742126	1527.937012	9663.517578	4731.907715	39.382202
628.078308	1523.526123	9658.775391	4723.306152	39.332294
628.414429	1523.526123	9645.101563	4715.035645	39.296680
628.750488	1524.959595	9631.758789	4707.206055	39.254044
629.086548	1526.062256	9595.479492	4693.973633	39.258244
629.422546	1523.526123	9564.051758	4675.888672	39.205929
629.758545	1525.069824	9526.228516	4658.575195	39.163143
630.094421	1524.187744	9472.195313	4646.997070	39.290466
630.430298	1525.290405	9417.831055	4624.391602	39.266205
630.766113	1526.282959	9351.777344	4604.541504	39.336285
631.101929	1529.260254	9271.388672	4581.715332	39.426563
631.437622	1531.575928	9189.014648	4552.382813	39.449314
631.773376	1529.149902	9111.272461	4522.389648	39.477596
632.109070	1529.149902	9044.116211	4496.475098	39.485542
632.444641	1525.510864	8975.857422	4466.591309	39.475754
632.780273	1528.378052	8906.606445	4444.646973	39.525330
633.115784	1525.069946	8849.706055	4416.968750	39.481808
633.451294	1521.872070	8788.946289	4397.781250	39.574512
633.786682	1520.438477	8727.304688	4370.322754	39.544014
634.122131	1521.982178	8668.307617	4359.074707	39.700020
634.457458	1520.107666	8613.833008	4341.210938	39.768993
634.792847	1519.997314	8549.323242	4319.928223	39.832138
635.128113	1524.739136	8485.807617	4298.755859	39.850445
635.463318	1526.613770	8434.750000	4285.633789	39.938702
635.798584	1525.841919	8377.078125	4270.195313	40.056324
636.133728	1525.952148	8329.109375	4254.426270	40.105999
636.468872	1525.290527	8283.125000	4241.745117	40.197117
636.803955	1524.739136	8240.559570	4224.763184	40.203934
637.139038	1526.613770	8204.279297	4205.024414	40.109985
637.473999	1525.069946	8163.147949	4194.217773	40.209648
637.808899	1525.400757	8111.651855	4169.296387	40.142647
638.143799	1522.202759	8053.869141	4151.763184	40.258648
638.478638	1523.415771	7994.541504	4125.077148	40.204151
638.813538	1528.047363	7933.230469	4100.266113	40.158394
639.148315	1530.252808	7868.169434	4076.666992	40.177464
639.483032	1530.583496	7802.336914	4056.928467	40.281319
639.817749	1529.150024	7742.680176	4030.463135	40.255909
640.152405	1527.165161	7685.999023	4010.723877	40.325142
640.487000	1529.480835	7628.216309	3987.566650	40.304848
640.821594	1528.819214	7575.727539	3975.877686	40.467930
641.156128	1528.598511	7530.735840	3959.005859	40.492363
641.490662	1528.267822	7483.979980	3941.251953	40.515461
641.825134	1524.959595	7437.886230	3926.585449	40.616535
642.159546	1522.092651	7393.886719	3914.345215	40.741425
642.493896	1519.666626	7349.887695	3894.386230	40.731213
642.828186	1517.902222	7319.563477	3874.757813	40.623806
643.162537	1516.358398	7284.606934	3868.362061	40.775005
643.496765	1515.696777	7244.688477	3855.570801	40.842686
643.830994	1516.027588	7218.002441	3850.387695	40.939503
644.165100	1513.380981	7196.499023	3842.889893	40.989975
644.499268	1510.293457	7173.011230	3828.333740	40.935120
644.833313	1509.301025	7158.014160	3821.386475	40.931190
645.167358	1515.035156	7139.157715	3817.636475	40.941521
645.501343	1513.491211	7132.981934	3820.283203	41.049839
645.835327	1509.962524	7123.058105	3818.519043	41.128048
646.169189	1508.529053	7114.456055	3819.070313	41.216045
646.503052	1512.057617	7104.311035	3815.541992	41.190628
646.836914	1513.932251	7088.541504	3808.705322	41.164730
647.170654	1516.578979	7080.492676	3802.309082	41.081337
647.504395	1517.461182	7083.359375	3800.655029	41.021118
647.838074	1520.107666	7085.785156	3796.905029	40.907818
648.171753	1518.563965	7084.130859	3792.273926	40.853161
648.505371	1519.666626	7081.926270	3799.882813	40.994423
648.838928	1519.666626	7087.440430	3799.662109	40.949860
649.172424	1521.982300	7097.144531	3800.764893	40.873837
649.505920	1522.754150	7098.687500	3806.388672	40.955196
649.839294	1523.526245	7092.181641	3808.484375	41.032490
650.172729	1525.070068	7090.195801	3804.404053	40.957455
650.506104	1525.731567	7093.063965	3803.852295	40.919426
650.839355	1524.959595	7090.638184	3804.293457	40.953388
651.172668	1528.157593	7082.256836	3797.677490	40.862072
651.505859	1533.671265	7068.252441	3792.936035	40.820881
651.839111	1538.082153	7056.342773	3789.958252	40.807713
652.172241	1535.876709	7041.786621	3783.231689	40.817139
652.505371	1535.435547	7022.710449	3774.961426	40.813080
652.838379	1536.648560	7007.603516	3768.455322	40.793732
653.171387	1536.758789	6991.062500	3756.435547	40.695877
653.504333	1537.310181	6964.927734	3751.583740	40.796413
653.837280	1534.001953	6946.622559	3758.530762	41.098923
654.170227	1533.781494	6934.712891	3756.104980	41.147041
654.503052	1535.214966	6922.582520	3752.466064	41.156483
654.835876	1537.751221	6907.695801	3749.268311	41.183239
655.168579	1542.713379	6891.927246	3747.173096	41.210911
655.501343	1541.279907	6883.436035	3736.034912	41.083691
655.833984	1544.477783	6877.039551	3734.711670	41.072830
656.166626	1543.044312	6878.804199	3737.027832	41.118481
656.499268	1544.588013	6896.999023	3742.762207	41.068863
656.831787	1545.580444	6924.126465	3753.789063	41.055862
657.164307	1540.287598	6959.083496	3765.478027	41.064297
657.496765	1539.625854	6995.473145	3778.820801	41.042110
657.829224	1541.059448	7031.642090	3790.840332	40.975266
658.161621	1538.302612	7066.819336	3807.160645	41.039181
658.493958	1535.986938	7092.732910	3824.363525	41.181950
658.826233	1532.568604	7112.912109	3838.478516	41.322006
659.158508	1530.032227	7145.002441	3845.425537	41.236076
659.490723	1530.914429	7156.470215	3849.726074	41.219246
659.822876	1531.576050	7165.181641	3847.962158	41.117294
660.154968	1531.245239	7168.710449	3853.475342	41.192802
660.487061	1529.921875	7173.231934	3857.114990	41.238087
660.819153	1531.906860	7170.034180	3846.418945	41.051079
661.151123	1530.473267	7159.007324	3843.220703	41.089695
661.483093	1531.134888	7142.245605	3842.669189	41.195660
661.815002	1528.708740	7124.049805	3841.456543	41.333458
662.146851	1524.077393	7100.892090	3832.524170	41.393646
662.478760	1521.320557	7082.146484	3823.041016	41.391701
662.810486	1519.666504	7055.461426	3809.587402	41.365711
663.142212	1519.004883	7017.968750	3790.950928	41.315895
663.473938	1521.430908	6967.243164	3770.439697	41.297947
663.805603	1521.320557	6898.985352	3747.282715	41.392727
664.137207	1523.967041	6828.961914	3718.501953	41.367332
664.468689	1525.400635	6759.269531	3694.352295	41.440693
664.800293	1526.172607	6684.834961	3667.666260	41.512577
665.131775	1529.921875	6612.826660	3638.002930	41.473942
665.463196	1529.480713	6554.823730	3610.544922	41.411388
665.794617	1531.906860	6497.812500	3590.254883	41.449600
666.125916	1537.530640	6446.314941	3578.455811	41.577000
666.457275	1537.971802	6413.785156	3566.325928	41.600323
666.788574	1536.979370	6383.789551	3557.504150	41.687725
667.119812	1539.295044	6353.906250	3544.491455	41.648148
667.450928	1540.397827	6330.308105	3533.464355	41.609684
667.782104	1540.177368	6313.988281	3526.958252	41.618340
668.113159	1540.397827	6295.461914	3524.863037	41.733723
668.444214	1535.876709	6287.633301	3512.512695	41.598003
668.775208	1536.758789	6277.928711	3498.728516	41.381554
669.106201	1540.067017	6267.453125	3494.428223	41.341263
669.437134	1543.044312	6245.729004	3487.040283	41.338005
669.768005	1546.904053	6219.263184	3479.541260	41.363197
670.098877	1548.999146	6209.559570	3476.453613	41.356709
670.429688	1548.227295	6190.813477	3469.286133	41.379070
670.760437	1550.101929	6188.717773	3464.323730	41.267090
671.091187	1550.542969	6176.477539	3465.426270	41.394516
671.421814	1549.109375	6162.472656	3454.729980	41.306538
671.752441	1546.573120	6143.506836	3443.592285	41.267056
672.083008	1542.934204	6130.383789	3440.173828	41.357174
672.413574	1544.367798	6119.577148	3436.865967	41.364185
672.744080	1539.846558	6102.816406	3423.632813	41.284214
673.074524	1536.758911	6089.362793	3412.385498	41.198982
673.404968	1535.876709	6066.977539	3401.137695	41.165737
673.735352	1536.869019	6040.401855	3397.608643	41.317333
674.065613	1533.560913	6016.141602	3395.072510	41.527676
674.395935	1531.355469	6001.144531	3386.802002	41.510830
674.726196	1528.819214	5980.192871	3382.832275	41.650360
675.056335	1529.150024	5964.313965	3370.701904	41.521618
675.386536	1531.796509	5940.384766	3367.724609	41.644352
675.716614	1528.929443	5925.387695	3364.968262	41.761772
676.046692	1526.503296	5913.808594	3352.617188	41.622677
676.376770	1526.834229	5913.698730	3351.625000	41.596699
676.706726	1523.856812	5920.866699	3354.712891	41.638664
677.036621	1524.518555	5919.323242	3357.580322	41.709743
677.366516	1525.290405	5932.114746	3360.005859	41.633507
677.696411	1521.210327	5936.635254	3358.352051	41.607361
678.026184	1518.343384	5951.631836	3355.264404	41.434727
678.355957	1517.902100	5965.967285	3363.204346	41.485500
678.685669	1519.997314	5992.542969	3370.371582	41.371834
679.015320	1519.666626	6014.707520	3379.634277	41.378212
679.344971	1521.210449	6027.168945	3381.839600	41.292637
679.674561	1522.313232	6048.010254	3391.213135	41.295292
680.004150	1517.240723	6064.110352	3399.924561	41.406155
680.333618	1518.453735	6078.115234	3409.186768	41.466522
680.663086	1517.791992	6094.435059	3413.818115	41.428314
680.992493	1519.997437	6107.778320	3410.620605	41.209972
681.321899	1521.761719	6110.093750	3414.259766	41.245884
681.651184	1523.746704	6108.219238	3409.848877	41.141094
681.980530	1526.393188	6103.146973	3413.928467	41.241791
682.309753	1526.723999	6094.655762	3410.290283	41.234554
682.638977	1527.385498	6081.533691	3410.731445	41.354515
682.968079	1528.929199	6066.426270	3419.001221	41.654507
683.297241	1531.024414	6046.797852	3415.252197	41.725471
683.626343	1532.678589	6027.499512	3400.034668	41.544617
683.955383	1530.803955	5996.403320	3390.110107	41.636204
684.284363	1533.340332	5959.351563	3380.737305	41.739544
684.613281	1533.119751	5924.835938	3370.482178	41.837002
684.942139	1531.355469	5886.681641	3360.005859	41.986530
685.271057	1532.348022	5854.041016	3349.198975	42.040260
685.599792	1529.260376	5815.224121	3343.905762	42.339260
685.928589	1530.363037	5784.348633	3333.651123	42.390556
686.257324	1527.716553	5753.692871	3329.460449	42.634972
686.585999	1528.488525	5724.580566	3320.749268	42.712620
686.914612	1531.024780	5680.582031	3306.303223	42.782360
687.243164	1531.024780	5642.647949	3297.480957	42.962502
687.571777	1531.245117	5601.516602	3284.027832	43.063042
687.900269	1530.363037	5560.385254	3273.331543	43.249599
688.228699	1528.378052	5526.420898	3259.657715	43.303177
688.557129	1530.362915	5496.758301	3251.387695	43.390144
688.885498	1526.393188	5467.314941	3238.044189	43.432758
689.213867	1525.510986	5442.834473	3225.693848	43.401646
689.542114	1524.628906	5421.772461	3209.704346	43.238731
689.870361	1523.636475	5396.079102	3192.612061	43.098782
690.198608	1522.313110	5375.126465	3186.657471	43.198154
690.526794	1522.533813	5343.258301	3184.782715	43.506115
690.854858	1522.313110	5320.982910	3173.424561	43.465515
691.182922	1516.248169	5299.259277	3164.161865	43.560898
691.510986	1516.358398	5276.433105	3155.229980	43.586143
691.838928	1521.320679	5241.477051	3146.076904	43.674408
692.166931	1522.974731	5200.455566	3136.703857	43.881374
692.494812	1526.282837	5167.484375	3117.737061	43.706841
692.822632	1525.841797	5120.288086	3098.659668	43.756889
693.150452	1527.495850	5083.236328	3081.457031	43.702885
693.478149	1525.952148	5042.655762	3070.540283	43.921474
693.805908	1527.826782	5017.734375	3061.718262	43.952206
694.133606	1527.606079	4996.671875	3054.440186	44.012829
694.461243	1529.039673	4976.712402	3047.823730	44.052441
694.788818	1530.583496	4963.038086	3048.816406	44.231697
695.116333	1532.458130	4961.714844	3041.648682	44.009258
695.443848	1532.347900	4954.547363	3040.656250	44.074238
695.771301	1534.663452	4967.780273	3038.561035	43.805607
696.098755	1536.869019	4989.614258	3047.052002	43.738617
696.426147	1538.302612	5020.049316	3062.821045	43.786026
696.753418	1537.751343	5064.489258	3083.111328	43.818398
697.080688	1537.530640	5103.635742	3098.218506	43.764496
697.407898	1537.199829	5152.597168	3116.192871	43.674122
697.735107	1537.310059	5187.553223	3132.513428	43.701290
698.062317	1540.066895	5222.729980	3143.430420	43.538155
698.389404	1541.831421	5252.503906	3157.655518	43.545319
698.716492	1540.949097	5280.292480	3168.792725	43.532875
699.043457	1536.427979	5295.730957	3170.888428	43.477753
699.370483	1534.884155	5303.449219	3177.284180	43.581577
699.697388	1536.207397	5314.476563	3183.569824	43.600983
700.024292	1536.648438	5318.777832	3184.121338	43.559402
700.351135	1538.192261	5310.507324	3182.356689	43.585026
700.677917	1537.309937	5302.567383	3177.504395	43.561283
701.004639	1538.192139	5290.989258	3168.793213	43.450287
701.331299	1538.853760	5274.338379	3162.617920	43.468636
701.658020	1535.876465	5256.915039	3147.289795	43.305473
701.984619	1535.435303	5223.171387	3139.791260	43.505173
702.311218	1537.640747	5193.177246	3128.543457	43.520359
702.637756	1539.074341	5146.642578	3119.390869	43.805588
702.964233	1536.207275	5091.506348	3099.872559	43.981258
703.290649	1532.678711	5023.027344	3076.604980	44.234158
703.617065	1532.237671	4950.688477	3048.044434	44.341923
703.943481	1531.024658	4864.344727	3019.042725	44.640720
704.269775	1528.708862	4791.344238	2988.166748	44.732487
704.596008	1528.267822	4730.583984	2962.473145	44.786499
704.922241	1525.510986	4663.869141	2945.160400	45.235416
705.248474	1526.503418	4603.991211	2924.539307	45.427830
705.574585	1524.959717	4556.352539	2904.359375	45.503822
705.900696	1525.400757	4518.529297	2890.354736	45.602921
706.226746	1526.503540	4489.969238	2883.076904	45.776581
706.552734	1525.621338	4460.085449	2870.505615	45.830662
706.878723	1523.526245	4434.391602	2864.109863	46.054474
707.204651	1522.533813	4421.049316	2853.964600	45.934917
707.530518	1526.282959	4410.683105	2848.561279	45.842403
707.856323	1523.526123	4401.089844	2847.678955	46.016457
708.182068	1521.761719	4400.096680	2845.032471	45.973480
708.507813	1526.282837	4397.781250	2846.906982	45.990765
708.833496	1525.841797	4395.465332	2854.846924	46.312874
709.159180	1522.092407	4407.264648	2860.470703	46.388157
709.484802	1519.335693	4415.645020	2861.904297	46.354462
709.810303	1521.982178	4421.489746	2870.946533	46.523911
710.135864	1522.643799	4431.855469	2875.467773	46.501392
710.461304	1523.415771	4434.281738	2883.958984	46.740154
710.786743	1522.754150	4447.514648	2888.700439	46.702843
711.112122	1522.974731	4447.183594	2893.662842	46.873810
711.437500	1524.739136	4451.043457	2895.758057	46.851551
711.762817	1526.723999	4454.351074	2900.940674	46.939610
712.088013	1525.952148	4456.335938	2903.918457	47.023407
712.413269	1532.017090	4455.343262	2910.314209	47.148251
712.738403	1533.009521	4461.628906	2910.203613	47.025372
713.063538	1530.142578	4457.989746	2911.085938	47.165829
713.388611	1526.282959	4458.431152	2915.938232	47.393761
713.713623	1523.085083	4456.666992	2913.512207	47.396908
714.038574	1522.533691	4455.343750	2915.607422	47.499622
714.363525	1517.571411	4444.757813	2915.717529	47.764164
714.688477	1518.784424	4438.692871	2914.504639	47.800137
715.013306	1518.233032	4424.467285	2912.630127	47.979511
715.338135	1517.240479	4405.832031	2908.439453	48.161846
715.662842	1516.799438	4392.268066	2896.419434	47.978958
715.987549	1514.704346	4365.250977	2889.582520	48.232090
716.312195	1515.586548	4337.020996	2884.841064	48.530437
716.636841	1510.072876	4309.893555	2870.836426	48.601810
716.961426	1512.940063	4277.473633	2861.022461	48.763466
717.285950	1510.624390	4246.596680	2845.694336	48.796913
717.610474	1510.513916	4219.910645	2830.366699	48.713898
717.934937	1511.616699	4188.042480	2817.795654	48.803108
718.259277	1510.293579	4158.048828	2809.966309	49.085831
718.583679	1511.065308	4126.400391	2793.645752	49.040771
718.908020	1511.506470	4098.060059	2779.641357	49.027973
719.232239	1507.205811	4065.860107	2765.195557	49.166069
719.556519	1505.882568	4031.344971	2758.358887	49.593941
719.880737	1508.529053	4001.350830	2741.817871	49.473606
720.204834	1513.270752	3963.527588	2726.820801	49.527462
720.528931	1516.248047	3929.343262	2718.329834	49.814934
720.852966	1519.335693	3900.341797	2704.986572	49.796215
721.176941	1523.305542	3871.340088	2692.195068	49.781612
721.500916	1525.069824	3841.566650	2678.741699	49.802437
721.824829	1525.510986	3815.542480	2669.147949	49.939793
722.148743	1523.967041	3794.039063	2663.193359	50.184589
722.472534	1524.849243	3771.322266	2659.113037	50.490868
722.796326	1528.047241	3750.590820	2650.512207	50.503624
723.119995	1527.716553	3727.654297	2643.895752	50.736855
723.443665	1531.796631	3714.201172	2639.043701	50.735188
723.767334	1531.686279	3707.695801	2636.397217	50.767742
724.090942	1534.774048	3705.820801	2634.081543	50.634903
724.414551	1535.435547	3699.424561	2637.499756	50.927441
724.737976	1536.207520	3699.755615	2637.830811	50.917439
725.061462	1539.405396	3692.477783	2637.389404	50.996151
725.384888	1539.405518	3692.257324	2639.043945	51.078220
725.708252	1540.949341	3693.801270	2644.887939	51.277958
726.031616	1539.736206	3705.379883	2647.534668	51.153316
726.354858	1541.390381	3719.053223	2648.526855	50.840584
726.678162	1537.751343	3719.604980	2652.166016	51.076511
727.001404	1536.317749	3735.263428	2652.386963	50.754738
727.324463	1538.964355	3741.769775	2657.790039	50.790943
727.647583	1536.758911	3746.511230	2663.413818	50.985573
727.970642	1536.648682	3750.922363	2670.802246	51.220116
728.293701	1536.758789	3754.451172	2682.601318	51.668236
728.616699	1534.002075	3762.831543	2684.917236	51.637646
728.939575	1531.465820	3774.961670	2692.195068	51.737526
729.262512	1528.929443	3786.760742	2693.849121	51.594627
729.585266	1530.473267	3800.875732	2699.803711	51.503227
729.908142	1531.796631	3818.629883	2705.979248	51.345352
730.230896	1532.678711	3826.128418	2713.918701	51.504944
730.553467	1533.450562	3835.611572	2726.489746	51.822575
730.876160	1534.773926	3837.927002	2733.547363	52.049229
731.198792	1536.097290	3846.527832	2736.193604	51.942539
731.521362	1536.758911	3854.026855	2740.384033	51.941559
731.843872	1535.656128	3861.084473	2742.258789	51.887333
732.166321	1532.678711	3866.487793	2740.935547	51.771881
732.488770	1532.017212	3865.495117	2744.022949	51.939880
732.811157	1530.032227	3856.783447	2746.669678	52.289108
733.133484	1528.378174	3843.440918	2746.779785	52.629314
733.455811	1530.693848	3832.854248	2748.654297	52.905109
733.778015	1531.576172	3824.032715	2745.677002	52.960690
734.100281	1528.157593	3820.725098	2742.479248	52.967762
734.422424	1527.385742	3806.279053	2742.810059	53.333973
734.744507	1525.511108	3792.605713	2740.714844	53.601807
735.066589	1524.077515	3784.444824	2730.128662	53.356426
735.388611	1525.511108	3774.409912	2730.128662	53.564770
735.710571	1528.598755	3754.340820	2723.401855	53.681110
736.032532	1531.576172	3740.666748	2726.158936	54.075771
736.354431	1531.024780	3725.558838	2726.158936	54.459583
736.676270	1527.165161	3713.097900	2720.424561	54.588116
736.998108	1525.070068	3704.386475	2719.432373	54.804447
737.319824	1523.967407	3695.013428	2711.272217	54.688148
737.641541	1519.225586	3684.647949	2707.853760	54.891285
737.963135	1520.107788	3675.936768	2706.971680	55.053711
738.284790	1520.218018	3657.190430	2703.332764	55.364063
738.606323	1518.894775	3644.950439	2699.583252	55.534222
738.927856	1519.776978	3628.299072	2699.142334	55.933273
739.249390	1520.659180	3611.537598	2696.495850	56.236492
739.570740	1524.518677	3597.863770	2692.856934	56.350395
739.892212	1525.731567	3585.733643	2684.806885	56.265739
740.213562	1527.385620	3582.977051	2683.373535	56.236271
740.534790	1527.054810	3572.390625	2685.248047	56.626068
740.856079	1529.701416	3558.496582	2681.719238	56.783348
741.177246	1532.458130	3555.850098	2680.837158	56.755146
741.498413	1534.222534	3552.652588	2677.639160	56.648811
741.819580	1531.245117	3538.096436	2682.050049	57.343807
742.140625	1531.796509	3528.392578	2682.932129	57.654907
742.461670	1531.796509	3519.239502	2682.601318	57.903790
742.782654	1530.032104	3500.052002	2675.543945	58.147221
743.103577	1527.275146	3486.708984	2667.714600	58.202499
743.424438	1528.488159	3469.396484	2666.942627	58.655758
743.745300	1528.929443	3453.737305	2661.649414	58.848469
744.066101	1529.260132	3436.093750	2652.937988	58.928993
744.386902	1534.442871	3418.780762	2643.123779	58.836628
744.707581	1532.899048	3395.182617	2634.191895	59.136688
745.028198	1531.906616	3382.722168	2630.993896	59.383945
745.348816	1530.693726	3369.268555	2630.884033	59.839298
745.669373	1530.583374	3360.998535	2628.347412	59.973499
745.989929	1529.921753	3352.176758	2621.069336	59.878975
746.310364	1530.804077	3345.119141	2617.430420	59.891823
746.630798	1530.583496	3336.958740	2620.959229	60.362637
746.951172	1528.378052	3327.034180	2613.791504	60.345802
747.271545	1526.393066	3320.858887	2613.460449	60.578884
747.591858	1525.621216	3316.999268	2614.783936	60.800270
747.912109	1525.621216	3315.676025	2610.593262	60.611107
748.232300	1522.533569	3319.976563	2612.026855	60.613510
748.552429	1526.834229	3321.961426	2607.284912	60.187973
748.872559	1528.267822	3316.889160	2605.410400	60.221947
749.192627	1528.488403	3319.645752	2601.550781	59.908882
749.512695	1530.362915	3321.299805	2599.455566	59.694603
749.832642	1533.781494	3316.337891	2599.124756	59.764912
750.152588	1536.538208	3315.455322	2599.565918	59.757011
750.472473	1537.310181	3308.948975	2598.021973	59.871788
750.792358	1538.854126	3300.789551	2595.265137	59.957420
751.112122	1539.515747	3296.157715	2596.368164	60.163223
751.431824	1540.397827	3291.968018	2598.353027	60.400387
751.751587	1542.162109	3293.952393	2597.581055	60.248020
752.071228	1546.021606	3284.909912	2593.501221	60.238464
752.390869	1547.786133	3282.925537	2588.208252	59.961876
752.710327	1550.542847	3281.712402	2586.884766	59.863686
753.029846	1546.793579	3276.198730	2585.341064	60.052296
753.349304	1546.793579	3271.787598	2585.340820	60.205845
753.668762	1546.793579	3271.125732	2587.325928	60.344078
753.988098	1547.786011	3263.627197	2581.481201	60.244225
754.307434	1547.786011	3258.113770	2579.055420	60.296597
754.626770	1548.006470	3243.006348	2579.606689	60.861374
754.946045	1548.557861	3226.465820	2579.386230	61.435333
755.265259	1546.462646	3212.791748	2575.747314	61.769592
755.584351	1544.698242	3212.901855	2570.564453	61.495262
755.903442	1543.816162	3206.836670	2569.241211	61.660397
756.222534	1541.059204	3204.521484	2566.594482	61.650650
756.541565	1536.097046	3203.859863	2560.529541	61.425552
756.860535	1534.553223	3199.559082	2554.905518	61.282204
757.179443	1535.104614	3201.985107	2550.273926	60.902344
757.498291	1532.237549	3200.220703	2545.863281	60.769543
757.817139	1529.260254	3202.977295	2543.547607	60.600887
758.135925	1529.811523	3206.947510	2539.357178	60.194622
758.454651	1529.370483	3203.639160	2535.718262	60.106709
758.773376	1526.944580	3206.837158	2533.623047	59.925171
759.092041	1526.282959	3200.110596	2529.763428	59.951244
759.410645	1522.864502	3200.110596	2520.831543	59.500336
759.729187	1524.628784	3204.411133	2512.229980	58.793404
760.047607	1525.841797	3205.844971	2503.518311	58.194920
760.366089	1527.716431	3206.396240	2501.202637	57.991180
760.684509	1528.047119	3214.887207	2499.879395	57.612591
761.002869	1528.157471	3226.245117	2497.894775	57.107613
761.321228	1526.834229	3258.114258	2500.872070	56.261139
761.639465	1523.415771	3301.450928	2506.937012	55.315060
761.957642	1524.628784	3355.594971	2522.044434	54.474827
762.275879	1524.297974	3392.095215	2533.071533	54.008728
762.593994	1528.047241	3424.294678	2548.399658	53.809032
762.912109	1529.811646	3457.266357	2558.765137	53.384056
763.230103	1533.781494	3481.416016	2572.990234	53.357483
763.548157	1530.914429	3510.197266	2578.062988	52.905453
763.866150	1530.142578	3521.555176	2585.671875	53.004047
764.184021	1533.671265	3534.346680	2595.706543	53.083836
764.501892	1533.561157	3543.609863	2601.881836	53.148994
764.819702	1535.545898	3548.902832	2606.292725	53.182167
765.137451	1534.443115	3551.218262	2608.718506	53.266991
765.455200	1535.215088	3557.062988	2612.688477	53.291515
765.772888	1536.317749	3558.386230	2618.091797	53.498390
766.090515	1535.215088	3556.290527	2624.708252	53.906605
766.408081	1536.758789	3554.195313	2634.081055	54.391911
766.725586	1537.310181	3549.674805	2637.720459	54.682449
767.043091	1536.207397	3542.837891	2635.956055	54.805737
767.360535	1533.671143	3533.905518	2639.153809	55.267658
767.677917	1533.560791	3512.953613	2638.933350	55.844021
767.995239	1531.686157	3482.959473	2629.891113	56.281452
768.312500	1535.104614	3428.705322	2620.407471	57.314240
768.629822	1532.678711	3368.716797	2601.661377	58.222248
768.947021	1531.576050	3315.345703	2587.325684	59.186432
769.264160	1528.378174	3279.175537	2568.358887	59.400406
769.581299	1528.488281	3238.375000	2558.875488	60.260555
769.898376	1523.856812	3201.103027	2545.201660	60.894150
770.215393	1529.260132	3163.059082	2539.467529	61.831806
770.532349	1530.252563	3136.483643	2534.174561	62.501717
770.849304	1527.495850	3109.136230	2527.447998	63.222473
771.166199	1529.590942	3082.450195	2519.287598	63.733829
771.483032	1529.921753	3060.395264	2514.876709	64.356224
771.799866	1530.031982	3043.634033	2510.245117	64.760292
772.116577	1529.590942	3022.461670	2501.644043	65.113014
772.433350	1529.591064	3013.529541	2500.100098	65.400894
772.749939	1528.929443	2994.341797	2498.556396	66.167519
773.066589	1530.583374	2978.242188	2491.939941	66.407677
773.383057	1531.245117	2968.758545	2489.955078	66.692245
773.699646	1533.671021	2958.282959	2485.985107	66.847260
774.016113	1537.089478	2946.924561	2483.118164	67.102081
774.332520	1537.971680	2943.947266	2480.140869	67.011772
774.648804	1539.625610	2932.699463	2476.060791	67.220787
774.965149	1537.751099	2931.486328	2470.767578	66.943596
775.281433	1539.956543	2928.178223	2468.121094	66.859970
775.597656	1539.846313	2922.885010	2463.158936	66.759712
775.913879	1540.838867	2908.549561	2458.417236	67.088631
776.229980	1539.625854	2895.647949	2449.044189	67.065155
776.546082	1542.603149	2887.598145	2445.735840	67.147659
776.862122	1539.515503	2881.974121	2441.435303	67.184181
777.178162	1536.979248	2869.513428	2437.134766	67.552155
777.494141	1540.728516	2869.292725	2434.929199	67.305794
777.809998	1537.971680	2867.638672	2433.605957	67.357788
778.125854	1533.340332	2864.220215	2429.746094	67.354370
778.441711	1534.332642	2860.581299	2425.886230	67.223709
778.757446	1531.796509	2852.420898	2425.335205	67.660324
779.073181	1534.112183	2842.276123	2417.947021	67.563004
779.388855	1534.222412	2846.466309	2413.866699	67.033600
779.704468	1531.465576	2844.040283	2412.874512	67.151146
780.020020	1532.568359	2835.549561	2407.912109	67.180077
780.335571	1528.488403	2833.233887	2404.383545	67.131493
780.651062	1527.385620	2824.853271	2402.398926	67.440086
780.966553	1523.856934	2813.605225	2400.634521	67.980522
781.281860	1524.298096	2804.231934	2403.280762	68.674072
781.597290	1525.511108	2792.984131	2400.523926	69.036011
781.912476	1522.754272	2783.169922	2402.288330	69.781273
782.227722	1523.746704	2773.355713	2399.751953	70.102348
782.542908	1521.651611	2765.857178	2398.098145	70.442261
782.858093	1520.769409	2761.225586	2400.193359	70.895203
783.173218	1522.313232	2755.491455	2401.626709	71.304657
783.488281	1521.982422	2742.258789	2399.641846	71.923004
783.803345	1523.305664	2738.840332	2395.341553	71.740929
784.118225	1517.902100	2726.930908	2390.379150	72.163460
784.433167	1519.335693	2714.801025	2385.637451	72.465652
784.748047	1521.761719	2708.625732	2381.226318	72.414749
785.062866	1518.674072	2699.252441	2380.013428	72.959099
785.377686	1521.210327	2698.039551	2380.675049	73.032242
785.692444	1517.791870	2690.100098	2383.211426	73.821846
786.007141	1519.114990	2681.057861	2381.336426	74.205147
786.321716	1519.666504	2675.654297	2375.933350	74.072311
786.636353	1516.358276	2677.639160	2379.792725	74.351906
786.950928	1516.137695	2676.205566	2375.161377	74.049431
787.265442	1519.115112	2677.087891	2371.632568	73.621544
787.579834	1520.659058	2684.365967	2370.750244	73.050285
787.894226	1519.776978	2687.784424	2370.530029	72.837982
788.208618	1517.681885	2688.776611	2366.339600	72.467041
788.522949	1519.887207	2689.327881	2358.951172	71.749168
788.837219	1519.556396	2690.871582	2360.054199	71.756760
789.151367	1519.887329	2689.438232	2357.738525	71.638710
789.465515	1520.218140	2688.004639	2352.886230	71.303108
789.779602	1521.100220	2684.806641	2345.938965	70.880310
790.093689	1523.967407	2684.475830	2341.638428	70.458000
790.407776	1522.644043	2679.623779	2337.447998	70.425087
790.721741	1523.636475	2679.403076	2337.337402	70.403564
791.035645	1523.415771	2679.072266	2333.478027	70.095421
791.349548	1525.510986	2671.573730	2331.823975	70.355049
791.663391	1529.921875	2665.619141	2329.729248	70.424347
791.977173	1531.134888	2654.701904	2321.348633	70.330803
792.290894	1533.560791	2648.195801	2311.865234	69.825943
792.604614	1532.899170	2638.381592	2306.682373	69.995071
792.918274	1532.127319	2627.244141	2302.161133	70.315224
793.231812	1534.112305	2614.783447	2296.206299	70.520432
793.545410	1535.876587	2603.315186	2297.860596	71.384338
793.858948	1531.796387	2591.957275	2294.882813	71.978363
794.172363	1531.575928	2579.827148	2288.707520	72.228065
794.485840	1531.906738	2572.990234	2282.311768	72.079239
794.799194	1533.009521	2566.925293	2283.524902	72.589607
795.112488	1534.442871	2563.065674	2281.870605	72.662956
795.425781	1536.427856	2558.434326	2277.790527	72.539917
795.738953	1536.538086	2551.928223	2277.018555	72.925713
796.052185	1540.177124	2545.752930	2275.254395	73.100136
796.365234	1536.868896	2541.672852	2273.600098	73.320892
796.678284	1533.671143	2542.995850	2269.850830	72.937843
796.991333	1533.671021	2542.113770	2269.850830	73.001648
797.304382	1533.009521	2535.828369	2264.778320	72.971184
797.617310	1534.553345	2533.402588	2265.991211	73.228058
797.930115	1532.678711	2533.733154	2260.367432	72.692223
798.242981	1527.054810	2533.402588	2255.405029	72.375595
798.555786	1524.849365	2534.505127	2255.846191	72.400597
798.868530	1521.430908	2532.189697	2255.846436	72.659821
799.181213	1523.084961	2532.300293	2251.104736	72.137207
799.493896	1520.879517	2529.984619	2249.340332	72.188797
799.806519	1518.343262	2528.661377	2242.282959	71.654633
800.119080	1519.004883	2524.360596	2239.526123	71.668289
800.431580	1520.989868	2521.603516	2233.240723	71.181404
800.744080	1523.526123	2519.287842	2229.380859	70.885910
801.056458	1525.180298	2511.678955	2222.323730	70.668465
801.368835	1527.716309	2504.952393	2215.706787	70.401665
801.681152	1525.731567	2493.814697	2213.832275	71.078682
801.993408	1522.423218	2482.677002	2205.010498	71.084053
802.305664	1521.982178	2479.148193	2199.166016	70.748840
802.617798	1516.909668	2470.877930	2197.070801	71.298088
802.929993	1518.673950	2462.607422	2190.233887	71.144836
803.242065	1518.012329	2452.241943	2188.690186	71.789406
803.554016	1519.886963	2452.241699	2189.131348	71.780014
803.865967	1521.541138	2451.249512	2185.822998	71.450562
804.177979	1520.438477	2448.823730	2181.302002	71.184189
804.489807	1519.887207	2439.670898	2186.154053	72.437340
804.801697	1522.202881	2436.583252	2184.500000	72.431252
805.113464	1522.974854	2436.031738	2181.743408	72.149780
805.425232	1525.952148	2434.598145	2180.750488	72.063087
805.736938	1523.526123	2427.981689	2185.051270	73.140701
806.048584	1525.400879	2424.673584	2182.074219	73.022713
806.360168	1529.150146	2425.004395	2181.302002	72.796646
806.671753	1527.937134	2423.239990	2181.632813	73.013916
806.983276	1526.172729	2419.160156	2181.963623	73.437866
807.294739	1525.290405	2412.654053	2180.530029	73.841164
807.606140	1521.431030	2407.360840	2179.978760	74.334076
807.917542	1521.541260	2403.611816	2178.765869	74.509300
808.228760	1522.864624	2400.524170	2176.009033	74.418884
808.540100	1523.526245	2402.068115	2181.743164	74.921516
808.851318	1523.967407	2397.877686	2181.302002	75.217628
809.162476	1525.952148	2394.900146	2178.214355	75.063431
809.473633	1524.849487	2395.230957	2177.221924	74.952477
809.784668	1525.731689	2395.010498	2171.928711	74.337143
810.095703	1526.503540	2388.614502	2164.761230	74.034286
810.406738	1527.165161	2381.226074	2160.129639	74.112335
810.717590	1526.282959	2371.742676	2160.129639	74.970657
811.028503	1521.761841	2368.103760	2151.418213	74.397400
811.339294	1521.761841	2361.046387	2144.691650	74.221527
811.650085	1522.423462	2352.776123	2143.368408	74.780869
811.960876	1523.085083	2351.121826	2139.950195	74.497314
812.271545	1523.415894	2351.232178	2134.767334	73.851105
812.582153	1522.202881	2341.197266	2129.805176	74.188820
812.892761	1516.689209	2333.809326	2124.512207	74.386002
813.203308	1519.556396	2328.626221	2117.123779	73.858566
813.513855	1520.218018	2325.428467	2111.058350	73.377129
813.824280	1516.248291	2323.884766	2105.434570	72.951912
814.134705	1519.446045	2318.701904	2099.479736	72.571716
814.445068	1518.233032	2317.819580	2095.289307	72.169334
814.755371	1517.350952	2321.458740	2094.076416	71.722404
815.065613	1516.689209	2320.466064	2092.752930	71.669609
815.375854	1513.932373	2315.172852	2089.996338	71.896515
815.686035	1514.263184	2316.496094	2086.357422	71.312737
815.996155	1515.255737	2312.085205	2082.938721	71.242722
816.306152	1518.674194	2304.807373	2081.946533	71.651009
816.616211	1516.579102	2302.822266	2084.262207	72.201973
816.926208	1518.674316	2306.020508	2086.798584	72.156860
817.236145	1520.659058	2308.997803	2085.034180	71.590431
817.546021	1525.841797	2317.157959	2087.570557	70.986641
817.855774	1526.503540	2324.105225	2092.643066	70.980232
818.165588	1525.400879	2339.763916	2093.525146	69.763023
818.475281	1524.629028	2349.908936	2096.392334	69.281136
818.784973	1525.290527	2366.339600	2101.464600	68.506592
819.094604	1526.062500	2396.885010	2116.792480	67.835861
819.404175	1527.275513	2419.821533	2132.671875	67.828026
819.713684	1526.172729	2456.762939	2150.205322	67.057724
820.023254	1524.298096	2534.284180	2186.926270	65.607651
820.332642	1524.187866	2684.475342	2247.686279	62.355099
820.642090	1523.636475	2922.443848	2350.791016	59.132839
820.951416	1522.974854	3194.376465	2471.649902	56.759251
821.260681	1523.967285	3454.178467	2587.987305	55.124538
821.569946	1525.400879	3665.019775	2684.476074	54.172039
821.879150	1529.150024	3838.809082	2763.982422	53.463837
822.188293	1528.929443	3977.311768	2827.389404	53.033382
822.497437	1528.708862	4100.045410	2886.385498	52.800426
822.806458	1526.613647	4208.553711	2934.684814	52.501965
823.115479	1529.480835	4293.243164	2972.177246	52.200455
823.424438	1529.370483	4370.543945	3004.597168	51.923149
823.733337	1527.165039	4440.566895	3036.024902	51.790310
824.042236	1525.952148	4501.988770	3062.380127	51.626648
824.351013	1526.944458	4551.832031	3086.860596	51.569389
824.659790	1526.944458	4587.119141	3107.481445	51.648586
824.968445	1522.202881	4637.402832	3126.889404	51.511509
825.277100	1523.195313	4701.140625	3157.104248	51.414005
825.585693	1521.871826	4773.699707	3183.900391	51.110596
825.894287	1523.084961	4851.772949	3210.365723	50.689064
826.202820	1521.100098	4899.300781	3230.545410	50.602242
826.511292	1524.959595	4891.250977	3226.796387	50.555241
826.819702	1528.488281	4792.556641	3196.802490	51.111496
827.128113	1529.260376	4605.093750	3119.060059	51.686794
827.436401	1532.678711	4370.654297	3014.962891	52.230335
827.744751	1533.230103	4138.199707	2911.968262	52.927223
828.052917	1533.340210	3952.059082	2822.868164	53.314507
828.361145	1528.819092	3805.065918	2751.521729	53.715733
828.669312	1527.054688	3683.545410	2697.598389	54.280025
828.977356	1525.400635	3573.272705	2650.291504	54.929745
829.285400	1525.841675	3477.335938	2606.513428	55.376629
829.593384	1523.856812	3398.711426	2569.020752	55.746399
829.901306	1522.312988	3322.182373	2538.364990	56.451431
830.209167	1524.849243	3253.482178	2506.937012	56.812973
830.517029	1525.731323	3192.501465	2479.920166	57.247776
830.824829	1524.518311	3135.821533	2454.447266	57.712845
831.132568	1527.606079	3096.564453	2433.274902	57.724209
831.440247	1530.252563	3047.713623	2417.615967	58.476849
831.747925	1528.157471	2990.372070	2389.606689	58.914009
832.055481	1528.488159	2934.133301	2365.567383	59.551247
832.363037	1530.693604	2880.430176	2344.064453	60.261452
832.670532	1532.678589	2841.614502	2330.169922	60.926689
832.977966	1532.568359	2810.517578	2320.576416	61.661922
833.285400	1533.009521	2791.440674	2309.549316	61.706974
833.592712	1533.009399	2771.150391	2303.263672	62.210545
833.900085	1531.355347	2757.917725	2294.993408	62.258396
834.207275	1529.811523	2743.692627	2291.244141	62.727116
834.514526	1529.811523	2728.254395	2286.281738	63.121090
834.821716	1531.465576	2712.705811	2282.642578	63.592228
835.128784	1532.678711	2701.347900	2276.026611	63.606358
835.435852	1535.986816	2698.260254	2271.064453	63.244812
835.742798	1532.568359	2687.894531	2270.071777	63.835083
836.049805	1535.545776	2679.734131	2267.976563	64.013130
836.356750	1536.207520	2666.501465	2261.249756	64.146347
836.663574	1530.031982	2653.048096	2257.169922	64.748665
836.970398	1527.495850	2640.036133	2255.405518	65.427711
837.277161	1529.039673	2629.339355	2252.538330	65.754692
837.583923	1527.385498	2611.916504	2243.716553	66.049843
837.890564	1527.937012	2592.287842	2234.674072	66.400764
838.197205	1528.267822	2561.301270	2224.970215	67.442383
838.503784	1532.237671	2521.272217	2209.531982	68.480347
838.810303	1530.693970	2469.223633	2189.241943	70.168053
839.116699	1530.252808	2421.255127	2168.290283	71.608955
839.423096	1531.024658	2384.203613	2146.235596	72.108078
839.729492	1529.591064	2343.182373	2127.599365	73.502296
840.035828	1528.929443	2307.123535	2107.309082	74.323311
840.342102	1526.723999	2272.056641	2097.494873	76.579346
840.648315	1525.952148	2245.150391	2083.159180	77.476143
840.954529	1526.613892	2223.205811	2073.565674	78.518250
841.260620	1527.606201	2202.033203	2065.074707	79.692612
841.566711	1527.385620	2181.963867	2054.268066	80.491898
841.872803	1526.944458	2162.004395	2046.769775	81.854530
842.178772	1525.731445	2151.308105	2039.822510	82.178749
842.484680	1522.974609	2137.193115	2034.750000	83.321388
842.790588	1521.872070	2127.158203	2031.993164	84.277679
843.096436	1525.841675	2118.667236	2027.361816	84.598267
843.402222	1526.944458	2110.837891	2020.414673	84.513748
843.707947	1523.415771	2102.346924	2012.364624	84.457169
844.013611	1522.423218	2091.429932	2009.497559	85.600807
844.319275	1526.172485	2078.527832	2003.101807	86.344658
844.624817	1527.936890	2068.162598	1994.059326	86.282906
844.930359	1527.826538	2049.857422	1987.001831	87.959412
845.235901	1526.613647	2036.955566	1979.723633	88.785568
845.541321	1525.841797	2020.855713	1966.601196	89.039803
845.846680	1525.510864	2005.638062	1958.882202	90.261780
846.152039	1528.047119	1993.287598	1951.383789	90.993088
846.457275	1528.378052	1981.929443	1949.178223	92.778938
846.762512	1530.032104	1968.806885	1940.466675	93.541061
847.067749	1533.891602	1959.543945	1936.497070	94.585518
847.372925	1534.332764	1948.736938	1930.542358	95.609459
847.677979	1535.325317	1941.789795	1929.659912	97.015755
847.983032	1537.861572	1936.937866	1929.990845	98.259224
848.288025	1535.656006	1930.211548	1922.271729	97.987656
848.592957	1541.390259	1925.138916	1918.963501	98.390762
848.897888	1539.956665	1923.926025	1912.788330	97.099327
849.202759	1540.618286	1920.617798	1908.156860	96.720802
849.507507	1541.831299	1917.199463	1905.730713	96.944664
849.812317	1539.295044	1913.560303	1900.878540	96.611557
850.117004	1541.169678	1907.936401	1901.099121	98.135796
850.421631	1541.941650	1902.863892	1897.791138	98.594505
850.726257	1541.390137	1901.540527	1896.909058	98.714020
851.030823	1540.397827	1898.673584	1898.893921	100.061501
851.335327	1539.736084	1893.821411	1898.011719	101.183418
851.639771	1540.177246	1885.881836	1899.114624	103.827774
851.944153	1540.177124	1881.470825	1905.069214	106.914391
852.248535	1538.964233	1874.854492	1907.826050	109.816170
852.552856	1535.325317	1873.641602	1906.943970	109.843559
852.857056	1534.663696	1873.089844	1903.856445	109.091080
853.161255	1537.861572	1875.515991	1903.966675	108.425980
853.465393	1536.317749	1874.192505	1904.848755	109.073257
853.769531	1532.568359	1873.310669	1903.966309	108.996719
854.073547	1527.165039	1870.884644	1902.643066	109.239632
854.377563	1524.408203	1868.458496	1898.893799	108.846176
854.681580	1520.548828	1865.150269	1901.981567	110.688087
854.985474	1517.681519	1855.446411	1901.099365	113.516190
855.289307	1517.571289	1853.020264	1898.122070	113.445206
855.593140	1517.791870	1852.910156	1898.783447	113.688683
855.896851	1516.137817	1852.469116	1896.247437	113.016426
856.200623	1517.902100	1850.153687	1899.335205	114.802490
856.504272	1518.453613	1852.800049	1901.099487	114.445923
856.807922	1515.917358	1854.454102	1900.438110	113.583168
857.111389	1513.711914	1852.579468	1901.209839	114.350845
857.414978	1516.248169	1844.419312	1897.901611	116.297073
857.718445	1516.358398	1844.419434	1894.593384	115.294090
858.021790	1517.350952	1843.978394	1891.064697	114.415909
858.325195	1517.681763	1841.993530	1886.764160	113.804810
858.628479	1515.917358	1841.000977	1881.581299	112.483040
858.931763	1516.468750	1837.141357	1881.911987	113.961479
859.234985	1515.476318	1831.297119	1883.455688	116.515244
859.538147	1512.609131	1827.547607	1884.337769	118.032143
859.841248	1511.065308	1827.988647	1877.501099	115.622849
860.144287	1514.924927	1826.996094	1875.516235	115.547783
860.447266	1520.989990	1828.098755	1869.340942	113.429176
860.750305	1525.180298	1825.121460	1871.326050	115.404549
861.053223	1529.150146	1825.011353	1869.782227	115.132393
861.356018	1530.804199	1831.076294	1870.112671	113.000336
861.658813	1531.245239	1826.555054	1872.538452	115.571243
861.961609	1528.378296	1823.247070	1871.656616	116.417320
862.264343	1529.370605	1821.813599	1873.972290	117.835510
862.567017	1529.701416	1819.718384	1873.311035	118.479141
862.869629	1529.480957	1819.608032	1874.303345	118.852188
863.172180	1532.017212	1819.497803	1878.824463	120.636757
863.474670	1527.385742	1816.961304	1875.736816	120.297127
863.777161	1522.643921	1821.151733	1875.626709	118.249092
864.079590	1521.541138	1821.151733	1876.177979	118.365921
864.381958	1521.982300	1821.703369	1878.714111	119.021263
864.684265	1520.107666	1823.688110	1875.846924	117.181213
864.986511	1518.784302	1824.680420	1875.957275	116.762833
865.288757	1520.217896	1824.901001	1871.987305	115.454185
865.590942	1520.438477	1827.106445	1869.340820	113.772018
865.893066	1519.556396	1829.532593	1867.686768	112.308746
866.195068	1517.791992	1828.429932	1869.451050	113.205444
866.497131	1518.894775	1829.311890	1871.766968	113.676781
866.799133	1514.263062	1824.459961	1873.090210	115.677223
867.100952	1509.852295	1821.703125	1875.957275	117.397469
867.402832	1512.939819	1822.364746	1874.633789	116.892319
867.704651	1513.491211	1821.372192	1870.664063	116.010040
868.006409	1515.696533	1822.364624	1873.090210	116.540878
868.308105	1519.335571	1826.775635	1874.193115	115.423325
868.609802	1517.681519	1830.524902	1873.090454	113.606026
868.911438	1515.696655	1832.620361	1871.325928	112.212898
869.213013	1517.571411	1829.863281	1863.276001	110.699196
869.514465	1518.343384	1829.311768	1859.747192	109.787308
869.815979	1522.423340	1833.281616	1858.534180	108.123497
870.117371	1526.834351	1834.825562	1857.652100	107.411423
870.418701	1529.370605	1835.487183	1856.659546	106.916435
870.720093	1530.914429	1839.015991	1852.579590	104.402313
871.021301	1533.671265	1839.787964	1852.910400	104.286743
871.322571	1535.656128	1838.133911	1850.815308	104.192505
871.623718	1534.553467	1840.339233	1853.461914	104.291466
871.924805	1534.222656	1845.191406	1856.549438	103.652466
872.225891	1536.207397	1847.837769	1854.674805	102.193954
872.526917	1541.279907	1846.845459	1853.902588	102.309532
872.827881	1541.831299	1848.389282	1852.579468	101.366852
873.128784	1544.808594	1851.476807	1853.351196	100.611214
873.429626	1546.462646	1858.203491	1848.388916	96.851685
873.730408	1542.603149	1858.313599	1846.955566	96.402390
874.031189	1541.279907	1857.651978	1847.065796	96.653885
874.331848	1539.956543	1858.534180	1843.978027	95.430893
874.632568	1537.530640	1857.431396	1842.213745	95.243011
874.933167	1537.640869	1854.123169	1844.088501	96.829315
875.233704	1539.956665	1853.130737	1842.985718	96.760582
875.534241	1538.082031	1853.902710	1845.852905	97.451149
875.834717	1537.751221	1853.351318	1847.176025	98.043320
876.135071	1536.427979	1851.256104	1849.161133	99.334564
876.435425	1533.450684	1851.035767	1853.130981	100.659737
876.735779	1531.355469	1852.579468	1855.777344	100.995529
877.036011	1528.488403	1853.240845	1860.959961	102.376923
877.336182	1526.172729	1851.586914	1864.819580	104.066406
877.636353	1526.944580	1856.659424	1867.024902	103.143768
877.936462	1525.841797	1863.276001	1870.112549	102.026039
878.236511	1527.937012	1868.348633	1872.648804	101.263229
878.536560	1527.165161	1875.295776	1881.801758	101.868835
878.836487	1523.415771	1889.961914	1890.843750	100.240578
879.136414	1521.431030	1918.963745	1902.312256	95.811295
879.436279	1522.313232	1970.460938	1921.940796	89.173180
879.736084	1522.313110	2053.055176	1958.220581	82.131699
880.035828	1522.864502	2156.711426	2002.880981	75.730659
880.335510	1523.967285	2274.923584	2060.222900	71.409698
880.635193	1523.305664	2391.922607	2106.096436	67.094109
880.934753	1524.518555	2499.879639	2152.631348	64.397972
881.234314	1524.959717	2592.508545	2191.226807	62.410923
881.533752	1523.415771	2675.213135	2227.285889	61.110584
881.833252	1523.085083	2748.654541	2258.493164	60.005417
882.132629	1521.320679	2812.833252	2284.958252	59.127380
882.431946	1519.776855	2872.160156	2310.982666	58.504555
882.731323	1522.864502	2918.805176	2329.177734	57.761284
883.030579	1526.613647	2956.518555	2344.064453	57.168194
883.329712	1526.723877	2991.364746	2354.209473	56.497509
883.628845	1526.282837	3021.027832	2367.993408	56.311317
883.927979	1529.480713	3040.325439	2380.344238	56.317074
884.226990	1530.693604	3058.410156	2386.960449	56.048801
884.526001	1530.803833	3066.460205	2390.599609	55.988811
884.824951	1530.142212	3073.297119	2391.591797	55.823921
885.123840	1530.473145	3074.620361	2387.511963	55.502403
885.422729	1530.473145	3053.227539	2379.020996	55.724537
885.721497	1530.914307	3009.008301	2358.069092	55.960907
886.020203	1532.899292	2928.619141	2325.428467	56.782825
886.318909	1532.678711	2828.602051	2284.186279	57.990124
886.617554	1529.149902	2714.249512	2231.916992	59.300255
886.916138	1528.047241	2597.140137	2188.690186	61.794720
887.214661	1524.408203	2491.829590	2143.478516	63.991795
887.513184	1524.518677	2402.067871	2103.780518	66.009048
887.811523	1527.495850	2321.127686	2066.067383	67.861633
888.109924	1514.483765	2151.307861	1928.998413	65.090919
888.408264	1528.378052	2035.521729	1905.841187	74.429230
888.706543	1546.903931	1977.628662	1852.579468	70.967720
889.004761	1565.429688	1931.314087	1917.419800	96.202545
889.302979	1509.852295	1919.735474	1894.262573	93.785324
889.601135	1470.484985	1905.841187	1931.314087	105.851051
889.899170	1489.010742	1859.526611	1919.735474	116.250008
890.197205	1468.169312	1882.683960	1875.736694	98.323997
890.495178	1528.378052	1875.736694	1891.946777	104.666672
890.793091	1560.798218	1901.209717	1794.686401	68.707489
>>>>>End Processed Spectral Data<<<<<
