Jaz Data File
++++++++++++++++++++++++++++++++++++
Date: Fri Jun 21 03:11:15 2019
User: jaz
Dark Spectrum Present: Yes
Reference Spectrum Present: Yes
Processed Spectrum Present: Yes
Spectrometers: JAZA3541
Integration Time (usec): 119000 (JAZA3541)
Spectra Averaged: 1 (JAZA3541)
Boxcar Smoothing: 10 (JAZA3541)
Correct for Electrical Dark: No (JAZA3541)
Strobe/Lamp Enabled: Yes (JAZA3541)
Correct for Detector Non-linearity: No (JAZA3541)
Correct for Stray Light: No (JAZA3541)
Number of Pixels in Processed Spectrum: 2048
>>>>>Begin Processed Spectral Data<<<<<
W	D	R	S	P
190.543274	0.000000	0.000000	0.000000	0.000000
190.921555	0.000000	0.000000	0.000000	0.000000
191.299805	1558.482544	1405.644653	1794.686401	-154.545349
191.678024	1533.009521	1440.380615	1718.267456	-200.000137
192.056229	1539.956665	1535.325317	1748.371948	-4500.100098
192.434387	1519.115234	1551.535278	1824.790771	942.859741
192.812531	1604.796997	1597.849854	1725.214600	-1733.339722
193.190659	1556.166748	1542.272461	1857.210938	-2166.676025
193.568741	1623.322754	1530.693848	1792.370605	-182.500107
193.946793	0.000000	0.000000	0.000000	0.000000
194.324829	1410.165894	1403.770142	1599.283325	-2956.922607
194.702835	1483.938232	1477.322021	1683.090454	-3010.064697
195.080811	1555.725708	1551.645752	1764.581787	-5119.076660
195.458755	1552.307251	1560.467407	1763.148193	2583.785645
195.836685	1553.520386	1565.540039	1768.331055	1787.161987
196.214569	1554.953857	1568.627808	1768.441406	1561.271973
196.592422	1551.425171	1571.164063	1768.441406	1099.434814
196.970261	1549.219727	1570.833130	1769.544312	1019.388672
197.348068	1548.999146	1571.274170	1764.251099	966.337646
197.725861	1545.690796	1573.810425	1763.038086	772.937988
198.103622	1539.625854	1573.589844	1759.288818	646.752563
198.481323	1540.287598	1569.399536	1763.810059	767.803406
198.859039	1539.846436	1568.958374	1767.118164	780.682251
199.236694	1536.758789	1568.296631	1770.426392	740.911865
199.614334	1539.295166	1566.201660	1769.654541	856.147888
199.991959	1540.728760	1571.604858	1768.661987	738.218994
200.369553	1537.751465	1570.502075	1770.426392	710.444580
200.747101	1536.759033	1571.935669	1770.977905	665.836487
201.124619	1535.215210	1570.502197	1769.985474	665.316833
201.502136	1531.796631	1571.274048	1771.749756	607.823792
201.879623	1529.922119	1568.517334	1768.992798	619.430908
202.257065	1525.621216	1569.730225	1769.433838	552.750183
202.634476	1525.621216	1573.589600	1767.558960	504.369171
203.011871	1524.187744	1573.258911	1766.456421	493.708801
203.389221	1524.408203	1571.715088	1763.589600	505.595337
203.766571	1523.415649	1570.722656	1759.288818	498.600922
204.143875	1523.305542	1567.635010	1756.862915	526.867065
204.521164	1526.613770	1564.878296	1755.980835	599.424805
204.898392	1524.408203	1563.444702	1754.767700	590.113098
205.275620	1523.856812	1563.665405	1754.767700	580.052856
205.652817	1524.297852	1562.783081	1752.562256	593.122131
206.029984	1529.370483	1566.422241	1752.010986	600.890503
206.407135	1528.378052	1568.848267	1747.600098	541.687378
206.784225	1530.473389	1569.950928	1740.101318	531.005554
207.161301	1530.252808	1570.281616	1734.588013	510.470367
207.538376	1528.929443	1571.274170	1735.249634	487.239410
207.915405	1529.260376	1568.517456	1735.139282	524.437622
208.292404	1529.480835	1568.737671	1735.800781	525.564392
208.669373	1525.952148	1570.833008	1731.720825	458.477570
209.046310	1524.628784	1571.053589	1729.294800	440.854889
209.423218	1528.267822	1569.509644	1730.397705	490.109009
209.800095	1530.032227	1570.612549	1735.359985	505.978638
210.176956	1530.032227	1570.833130	1735.139282	502.702240
210.553787	1531.686279	1566.201660	1738.226807	598.401428
210.930603	1535.435425	1566.091553	1744.071045	680.567444
211.307358	1536.648438	1565.760620	1745.504883	717.419373
211.684113	1538.412842	1570.391968	1746.497070	650.687683
212.060837	1534.773804	1573.920776	1753.775269	559.433960
212.437531	1533.340210	1574.802856	1753.665039	531.381470
212.814178	1532.458130	1578.772705	1756.532349	483.809296
213.190826	1532.788940	1580.426758	1757.193848	471.064636
213.567413	1530.914307	1580.095947	1756.973267	459.640961
213.943985	1528.267822	1576.015869	1759.509644	484.295868
214.320541	1528.488281	1577.669800	1761.163696	473.095215
214.697052	1527.716431	1577.228760	1767.448975	484.187561
215.073563	1529.591064	1581.198486	1771.749634	469.232056
215.449997	1529.921875	1582.852661	1772.301025	457.917145
215.826431	1528.708862	1588.586670	1774.175781	409.946411
216.202850	1529.370483	1590.792236	1769.875244	391.562836
216.579224	1533.119751	1588.807495	1770.205933	425.742126
216.955582	1533.560791	1588.586914	1775.278442	439.277985
217.331894	1531.135010	1586.932861	1775.278442	437.549866
217.708191	1532.017090	1588.035400	1771.198486	426.970032
218.084442	1537.420532	1591.674438	1773.514160	435.164307
218.460678	1534.443115	1598.180420	1773.293701	374.742218
218.836899	1532.678711	1603.694214	1772.521729	337.733337
219.213074	1532.127563	1606.892090	1776.050415	326.254791
219.589233	1531.024658	1605.348389	1777.704590	331.899292
219.965347	1533.891846	1609.869385	1772.852295	314.514587
220.341431	1535.987061	1615.713867	1771.308350	295.159546
220.717499	1535.435669	1614.721558	1772.631714	299.165527
221.093552	1534.002075	1619.242554	1773.513794	280.983551
221.469543	1535.104858	1625.197510	1776.270630	267.686401
221.845535	1536.207642	1630.380249	1770.977661	249.297562
222.221466	1537.310303	1634.350098	1772.301025	242.159134
222.597397	1535.435547	1642.069214	1772.301147	222.130219
222.973297	1537.420532	1647.362183	1768.110718	209.829651
223.349167	1536.979492	1655.853271	1770.205688	196.196503
223.725006	1537.530640	1662.359375	1770.426514	186.572327
224.100800	1538.082153	1671.952881	1775.829590	177.594788
224.476578	1538.854004	1682.097900	1779.689331	168.129562
224.852325	1537.971680	1701.726563	1778.917236	147.137939
225.228058	1541.279907	1724.332397	1781.563965	131.265106
225.603760	1540.838867	1750.246460	1786.636475	117.377602
225.979416	1536.317749	1779.248169	1792.040039	105.265656
226.355057	1535.325195	1813.322388	1793.032349	92.701347
226.730652	1533.671143	1852.028076	1797.222656	82.784912
227.106232	1534.773926	1886.543335	1801.633789	75.862160
227.481796	1531.575928	1920.286865	1803.618652	69.985870
227.857315	1528.378052	1946.972900	1804.280151	65.911491
228.232788	1528.819214	1971.673950	1806.816162	62.773846
228.608246	1531.465698	1999.903687	1811.116943	59.698669
228.983704	1534.112305	2022.950684	1814.976563	57.455444
229.359100	1531.575928	2040.263428	1814.425171	55.603733
229.734482	1528.378052	2061.546143	1820.159180	54.725918
230.109833	1529.039795	2075.881592	1819.608032	53.135704
230.485153	1528.488403	2087.349609	1821.372437	52.407295
230.860443	1521.541260	2101.575195	1828.870850	52.984760
231.235703	1520.879517	2121.534668	1828.540161	51.220844
231.610931	1519.225464	2137.523926	1830.194214	50.294277
231.986145	1517.240479	2152.079834	1830.524902	49.348614
232.361313	1516.468506	2165.532959	1831.958374	48.606861
232.736465	1519.115112	2169.833984	1832.068848	48.093540
233.111572	1517.571289	2172.921387	1833.833130	48.258457
233.486664	1518.894653	2171.708252	1835.487183	48.496620
233.861725	1517.350586	2169.944092	1830.745361	48.022968
234.236755	1520.107422	2156.931885	1833.281616	49.177475
234.611771	1522.313110	2138.516357	1830.304443	49.982101
234.986740	1523.415771	2132.671875	1825.562744	49.592770
235.361679	1526.062256	2128.922607	1828.981201	50.246952
235.736588	1526.393188	2124.952881	1833.502197	51.307999
236.111496	1527.936890	2122.196045	1832.509888	51.252556
236.486343	1528.819092	2122.857666	1831.406982	50.937416
236.861160	1527.716309	2128.371582	1830.524902	50.413040
237.235962	1529.370483	2138.626465	1833.281860	49.882378
237.610733	1532.016968	2152.962158	1837.031006	49.120926
237.985474	1532.016968	2177.111572	1842.434570	48.119701
238.360199	1533.009521	2207.988037	1846.404175	46.430317
238.734879	1534.994385	2240.628662	1849.602173	44.585106
239.109543	1532.347900	2281.539551	1856.218506	43.229340
239.484177	1533.450562	2334.360352	1866.253540	41.553116
239.858749	1535.325195	2397.105469	1880.478638	40.051212
240.233322	1530.804199	2464.923096	1893.159790	38.791164
240.607864	1528.709106	2528.660889	1905.951294	37.726036
240.982391	1529.370728	2583.025391	1913.449829	36.452087
241.356857	1527.826904	2627.685547	1921.830688	35.823128
241.731308	1533.340454	2665.288574	1932.968018	35.304405
242.105728	1529.150024	2699.583252	1937.930298	34.925552
242.480118	1528.708984	2736.414307	1948.075317	34.724228
242.854492	1529.480957	2770.378418	1955.684204	34.346371
243.228836	1527.606323	2818.898193	1964.947144	33.868473
243.603134	1531.245361	2883.187256	1975.643799	32.871120
243.977402	1529.150146	2971.956787	1994.169678	32.230206
244.351654	1526.724121	3079.692871	2014.900879	31.435066
244.725861	1527.495972	3195.809814	2038.499268	30.629927
245.100067	1529.260376	3309.391113	2060.553467	29.845734
245.474213	1530.693970	3406.872070	2082.497803	29.411058
245.848343	1529.150146	3476.453857	2095.509766	29.084299
246.222443	1528.378174	3532.362061	2105.655029	28.806461
246.596512	1530.252808	3565.884766	2116.902588	28.819050
246.970566	1530.804077	3581.543457	2124.511230	28.950884
247.344574	1531.134888	3573.714355	2120.872559	28.872202
247.718567	1528.157471	3552.431641	2113.594727	28.920849
248.092529	1533.561035	3529.936035	2108.852783	28.816818
248.466431	1533.891724	3510.307617	2106.647705	28.979527
248.840332	1534.002197	3506.668945	2103.119141	28.850132
249.214203	1533.891846	3516.923828	2106.427246	28.871717
249.588043	1529.811768	3538.868408	2108.853516	28.821573
249.961838	1525.952148	3566.656982	2113.043701	28.769058
250.335617	1524.629028	3592.460938	2114.587402	28.530285
250.709381	1522.423584	3603.377930	2119.990967	28.716026
251.083084	1521.320801	3591.468262	2117.895508	28.817982
251.456787	1521.982422	3561.474365	2111.940674	28.926725
251.830460	1521.762085	3509.425293	2104.111328	29.298185
252.204071	1522.203125	3429.367188	2085.695801	29.546104
252.577667	1521.761963	3337.069092	2069.706055	30.184649
252.951248	1521.541260	3250.725830	2059.340332	31.101311
253.324799	1517.020142	3177.835449	2044.343384	31.750866
253.698303	1516.248169	3130.969482	2036.293579	32.206512
254.071793	1518.233032	3092.374268	2030.448975	32.539391
254.445236	1520.769287	3078.479736	2023.942871	32.302124
254.818665	1521.541260	3072.855957	2023.833008	32.378456
255.192062	1521.320801	3089.396729	2032.544434	32.601971
255.565430	1525.511108	3120.272949	2036.955566	32.070271
255.938782	1522.092651	3155.891113	2048.093018	32.194935
256.312103	1523.636475	3214.445801	2057.135254	31.552864
256.685364	1522.202881	3288.438721	2074.227539	31.254301
257.058594	1520.107666	3374.341064	2091.981201	30.841507
257.431793	1523.195435	3472.593750	2113.484619	30.280584
257.804993	1527.716431	3583.969238	2138.737061	29.715246
258.178162	1529.150024	3682.222412	2155.718994	29.101158
258.551270	1530.032227	3768.455322	2168.400391	28.518656
258.924377	1529.370483	3840.132080	2175.457520	27.959915
259.297485	1525.290405	3899.569580	2190.675293	28.024710
259.670502	1529.149780	3942.906982	2199.055908	27.753666
260.043518	1533.891602	3992.750732	2212.288574	27.589909
260.416473	1530.362793	4040.167725	2217.912354	27.394543
260.789459	1527.606079	4078.542725	2222.102783	27.225166
261.162354	1530.803955	4110.521484	2231.476074	27.160809
261.535278	1529.149902	4134.229980	2239.084717	27.251938
261.908142	1529.370483	4159.372070	2246.693604	27.274628
262.280975	1526.613647	4174.479004	2250.222412	27.328007
262.653717	1530.583374	4190.909668	2250.332520	27.054920
263.026520	1530.914307	4200.062012	2249.891602	26.936586
263.399261	1525.952148	4207.781250	2255.074219	27.187492
263.771973	1526.834351	4219.911133	2252.317627	26.938828
264.144653	1523.084961	4213.735840	2248.788818	26.971312
264.517334	1525.290405	4186.388184	2241.510986	26.914480
264.889954	1525.952148	4137.316406	2229.711426	26.949871
265.262543	1526.393188	4074.020508	2215.927490	27.065742
265.635071	1529.480835	3996.830078	2199.607178	27.159769
266.007599	1528.047363	3930.997070	2190.344238	27.561829
266.380127	1524.408325	3887.770752	2187.256592	28.046833
266.752594	1526.503418	3869.796143	2188.138672	28.235279
267.125031	1525.952148	3869.355225	2185.712891	28.153959
267.497437	1520.879517	3888.873535	2188.359375	28.187563
267.869843	1518.674072	3911.148438	2191.557373	28.124994
268.242218	1521.430908	3946.104980	2203.908203	28.147177
268.614532	1521.872070	4017.010498	2218.905029	27.935642
268.986816	1519.004883	4098.060547	2231.476074	27.625275
269.359100	1521.871948	4188.152832	2245.921875	27.155802
269.731354	1522.092407	4275.819824	2256.838867	26.681887
270.103516	1523.084961	4346.615234	2270.953613	26.487007
270.475708	1518.784424	4407.816406	2282.091309	26.420853
270.847839	1522.092529	4464.496094	2292.236328	26.173969
271.219971	1526.944702	4510.920898	2296.536865	25.790829
271.592041	1529.921875	4535.180664	2301.719971	25.681585
271.964081	1532.237671	4553.485840	2310.872559	25.771961
272.336151	1532.237671	4574.547852	2318.040283	25.829144
272.708130	1531.686279	4593.956055	2324.435791	25.887644
273.080109	1530.804077	4614.908203	2324.215332	25.725826
273.452026	1530.252686	4644.680664	2329.618652	25.666542
273.823914	1533.560913	4678.535156	2337.117188	25.550489
274.195770	1535.435425	4714.483887	2337.778809	25.238478
274.567627	1536.979126	4748.447754	2346.269775	25.200016
274.939423	1537.420288	4784.065918	2350.570313	25.045853
275.311249	1538.853882	4807.002441	2353.878418	24.938419
275.682983	1536.979370	4827.954590	2357.407227	24.929628
276.054688	1534.443115	4832.806641	2355.201660	24.883810
276.426422	1536.648560	4815.052734	2347.593018	24.735950
276.798065	1537.530640	4785.389648	2336.786133	24.608688
277.169708	1537.199951	4757.159668	2331.052002	24.654099
277.541321	1539.515625	4739.075195	2328.956787	24.673431
277.912903	1539.074585	4743.375977	2327.192627	24.595629
278.284424	1539.736206	4756.277344	2331.272949	24.608320
278.655945	1535.656250	4777.670410	2338.440430	24.761896
279.027435	1538.523315	4811.523926	2353.327148	24.894705
279.398865	1537.971924	4872.173828	2365.677734	24.824705
279.770294	1538.412964	4936.683105	2377.697510	24.697407
280.141663	1538.082275	4996.009766	2393.135498	24.727333
280.513031	1541.500610	5055.887695	2402.177979	24.490112
280.884369	1538.523193	5092.829102	2420.483154	24.813845
281.255676	1540.177368	5132.637207	2431.069580	24.798946
281.626953	1538.412964	5166.601074	2434.267578	24.691515
281.998199	1539.736206	5202.770996	2446.618164	24.757668
282.369385	1540.508057	5250.519043	2452.352051	24.577932
282.740540	1542.603271	5308.743164	2466.356689	24.527857
283.111694	1540.397827	5362.334961	2482.566895	24.651611
283.482819	1541.059326	5430.263184	2500.651855	24.673239
283.853912	1542.382813	5511.203613	2521.382813	24.667276
284.224945	1538.743774	5583.652832	2538.585449	24.718519
284.595978	1542.272461	5653.455566	2558.875488	24.727749
284.966980	1541.941650	5715.318359	2569.241211	24.615547
285.337952	1537.861450	5756.670410	2582.253418	24.755611
285.708893	1539.405273	5777.953613	2592.839355	24.853653
286.079803	1540.949097	5798.574219	2600.338135	24.882160
286.450684	1543.154785	5811.917480	2608.829102	24.964478
286.821533	1537.861572	5818.423340	2608.167480	25.003866
287.192322	1536.097412	5819.305176	2612.468018	25.130011
287.563110	1538.082275	5831.985840	2621.069092	25.221500
287.933868	1538.854126	5849.850098	2636.066162	25.451473
288.304596	1538.523315	5884.034668	2652.386719	25.632505
288.675262	1538.743896	5930.018555	2661.208496	25.561249
289.045929	1537.641113	5962.328613	2673.338379	25.667288
289.416565	1536.869141	5990.999023	2689.217529	25.871460
289.787170	1538.302734	5998.938477	2700.465332	26.053743
290.157745	1535.545898	6001.916016	2710.610596	26.309166
290.528259	1536.317749	5993.204102	2720.425049	26.568039
290.898773	1539.736084	6004.672852	2728.474854	26.623867
291.269226	1537.751221	6002.908691	2734.319336	26.797894
291.639679	1538.192261	5995.741211	2736.193604	26.875788
292.010101	1540.397827	6016.803223	2749.867676	27.018774
292.380463	1537.199829	6050.877441	2764.423340	27.188993
292.750824	1539.625854	6085.503418	2784.162354	27.377256
293.121155	1537.640869	6131.597168	2806.547607	27.621222
293.491455	1534.884155	6201.399414	2826.506836	27.678528
293.861725	1532.458130	6279.141602	2850.656494	27.770933
294.231964	1532.458130	6366.808594	2872.710938	27.723534
294.602142	1535.766235	6463.296875	2899.837891	27.682661
294.972321	1533.009399	6543.686035	2925.090332	27.782293
295.342468	1527.716309	6605.217773	2943.616455	27.885765
295.712555	1525.731445	6647.011230	2947.255371	27.757200
296.082672	1529.370483	6671.602051	2953.099854	27.686995
296.452728	1529.811523	6675.351074	2957.510986	27.746351
296.822693	1528.378052	6675.020020	2958.282715	27.783255
297.192657	1527.495850	6668.844727	2961.701416	27.895514
297.562622	1525.510986	6691.009766	2960.267822	27.775764
297.932556	1531.355469	6707.330566	2965.560791	27.708891
298.302460	1530.693848	6710.307129	2964.899170	27.689428
298.672333	1529.260376	6708.653320	2965.340332	27.726801
299.042145	1529.260376	6706.778809	2963.686279	27.704891
299.411957	1527.716553	6705.897461	2964.017090	27.737551
299.781677	1527.716553	6663.441406	2956.959473	27.829432
300.151428	1527.496094	6619.552734	2946.814453	27.873184
300.521149	1524.629028	6556.917969	2933.140381	27.989477
300.890839	1525.842041	6491.747559	2915.717529	27.988361
301.260468	1526.503662	6415.769531	2899.838135	28.088768
301.630096	1525.621338	6328.434570	2879.768555	28.194874
301.999695	1525.290527	6236.907715	2859.698730	28.321661
302.369232	1523.526245	6126.966309	2834.777100	28.484152
302.738739	1525.952148	6024.302246	2811.178711	28.571066
303.108246	1529.922119	5926.270020	2784.934082	28.546696
303.477692	1530.363159	5852.166504	2766.408203	28.600216
303.847137	1526.724121	5775.858398	2752.513916	28.847990
304.216553	1530.363037	5724.691406	2743.471436	28.922592
304.585876	1531.465820	5688.742188	2736.854980	28.994684
304.955231	1535.215088	5666.687988	2730.018311	28.919548
305.324493	1534.443115	5638.126953	2727.151123	29.064327
305.693787	1530.252686	5612.212891	2725.607422	29.283840
306.063049	1530.032227	5607.581055	2729.136230	29.407471
306.432251	1528.708740	5606.588379	2728.695068	29.426723
306.801422	1529.260132	5598.097656	2733.547119	29.597815
307.170593	1532.568481	5595.450684	2736.524414	29.633049
307.539673	1528.819092	5608.573730	2740.824951	29.707813
307.908783	1531.575928	5615.080078	2745.897461	29.737242
308.277832	1531.355347	5644.522949	2761.776855	29.914209
308.646851	1534.773926	5681.133301	2772.473145	29.850264
309.015839	1536.207520	5715.649414	2778.648438	29.727436
309.384796	1538.082153	5746.415039	2787.690918	29.693676
309.753723	1535.766357	5771.998047	2794.638184	29.716785
310.122620	1533.891724	5793.611816	2804.121582	29.819561
310.491486	1532.899292	5812.357422	2805.444824	29.736137
310.860352	1530.914307	5821.179199	2816.030762	29.954247
311.229126	1534.332886	5826.031250	2822.978516	30.026474
311.597931	1529.701416	5843.123535	2828.933105	30.120672
311.966675	1526.613892	5869.699219	2830.697266	30.026657
312.335388	1526.834351	5896.274414	2838.636963	30.022215
312.704071	1522.974854	5922.739746	2843.929932	30.023312
313.072723	1524.959717	5931.230957	2852.751953	30.134146
313.441345	1523.526245	5931.341309	2849.002686	30.071054
313.809875	1523.195313	5911.823242	2839.519287	29.993975
314.178436	1523.195190	5885.688477	2831.138428	29.981554
314.546967	1521.982178	5851.614258	2818.456787	29.944223
314.915466	1519.446045	5811.254883	2808.973389	30.046246
315.283936	1523.967163	5773.100586	2798.276855	29.989874
315.652374	1523.195557	5733.402344	2790.116699	30.091660
316.020752	1523.416016	5692.822266	2770.598633	29.912716
316.389130	1525.842041	5654.116699	2759.681641	29.887539
316.757416	1525.621460	5628.202637	2758.137939	30.042465
317.125732	1523.085205	5605.376465	2756.814453	30.221491
317.494019	1524.739258	5578.800781	2753.065186	30.298651
317.862274	1526.062378	5549.468262	2746.559082	30.334915
318.230469	1529.922119	5524.436523	2745.897705	30.441137
318.598663	1533.671265	5506.020996	2734.649902	30.233458
318.966797	1531.245239	5488.487793	2725.497314	30.178894
319.334930	1533.781494	5473.932129	2713.918945	29.951582
319.703003	1532.678711	5446.804688	2709.066895	30.054939
320.071045	1530.583374	5422.875000	2698.591064	30.008228
320.439056	1532.127197	5403.687988	2698.149658	30.117632
320.807037	1537.199829	5414.494629	2694.069824	29.837038
321.175049	1538.192261	5435.997559	2700.244873	29.813000
321.542969	1539.074463	5475.586426	2709.838623	29.741156
321.910828	1539.956665	5513.740234	2725.938477	29.845152
322.278717	1543.375122	5567.442871	2738.288818	29.694174
322.646515	1543.375122	5607.582031	2746.890137	29.612541
323.014313	1543.595581	5643.199707	2758.027832	29.623159
323.382111	1542.492798	5687.860352	2766.077881	29.516926
323.749817	1541.941650	5724.360840	2777.325684	29.537548
324.117523	1535.876587	5743.216797	2783.060059	29.643038
324.485199	1533.781372	5748.399414	2786.809082	29.730516
324.852814	1537.971680	5759.096191	2785.375488	29.551456
325.220428	1539.736084	5759.537598	2782.177490	29.443123
325.588013	1537.751221	5774.203125	2780.523438	29.335213
325.955536	1536.317627	5782.694336	2782.397949	29.344553
326.323059	1532.678711	5803.094727	2794.307373	29.543461
326.690552	1531.465698	5815.775879	2802.687988	29.671576
327.058014	1530.914307	5817.209473	2805.775635	29.742735
327.425415	1534.773804	5825.149414	2810.296875	29.729870
327.792816	1535.986938	5825.590332	2815.369385	29.825191
328.160187	1538.082031	5828.567871	2814.266846	29.744530
328.527496	1530.032227	5812.688477	2814.597656	29.994596
328.894775	1529.039673	5795.044434	2813.825439	30.116838
329.262054	1528.929443	5777.400879	2810.407227	30.163265
329.629303	1532.678711	5770.233398	2802.357178	29.962526
329.996490	1530.473267	5766.263672	2803.459717	30.053102
330.363647	1532.237549	5787.656738	2810.296631	30.033684
330.730774	1527.826660	5805.520996	2814.376953	30.075788
331.097839	1528.157593	5829.229004	2826.727295	30.191774
331.464935	1527.936890	5850.953125	2834.666992	30.227278
331.831970	1528.488159	5875.543457	2840.291016	30.176817
332.198975	1526.503296	5903.552734	2846.135742	30.148905
332.565948	1526.613647	5927.261230	2848.892578	30.047373
332.932892	1525.069824	5965.636719	2859.258057	30.045448
333.299744	1527.716431	5998.608398	2863.227783	29.871250
333.666656	1527.936890	6036.652344	2869.623779	29.757631
334.033478	1526.062256	6062.897461	2870.395508	29.631521
334.400299	1526.282837	6098.184570	2876.350342	29.529669
334.767090	1527.385620	6137.110352	2887.818359	29.512234
335.133850	1523.746704	6170.633301	2898.735596	29.589464
335.500549	1522.423462	6201.068848	2909.321777	29.643158
335.867218	1517.681763	6233.599121	2917.481934	29.682457
336.233917	1517.791992	6266.350586	2922.113525	29.573639
336.600525	1517.902222	6286.419434	2923.767578	29.482233
336.967102	1518.453491	6298.108398	2930.384033	29.540430
337.333649	1514.814697	6301.747070	2935.787354	29.684408
337.700195	1515.365967	6302.960449	2932.148682	29.592787
338.066681	1514.814697	6287.301270	2932.369141	29.702641
338.433136	1514.924805	6274.620605	2927.847656	29.685150
338.799591	1517.791992	6256.425781	2919.907959	29.589035
339.165985	1518.674072	6243.192871	2915.717529	29.570070
339.532318	1518.233032	6246.500977	2913.953125	29.518633
339.898651	1522.864380	6259.623535	2915.055908	29.391224
340.264954	1521.320679	6270.540039	2919.135742	29.432524
340.631226	1519.446045	6293.697754	2919.687012	29.329012
340.997467	1514.042603	6324.463379	2934.242920	29.523411
341.363678	1512.278320	6352.583984	2948.137451	29.664637
341.729828	1514.704224	6393.384766	2965.670898	29.740965
342.095947	1517.902100	6440.028809	2980.888672	29.722651
342.462067	1519.335693	6484.028320	2992.356934	29.669939
342.828156	1520.769165	6534.422852	3001.730225	29.538559
343.194183	1523.526001	6589.118164	3013.860107	29.420727
343.560211	1529.811523	6630.911621	3026.541748	29.341322
343.926178	1529.590942	6675.130859	3038.561279	29.325792
344.292114	1528.598511	6720.674316	3053.227295	29.364532
344.658020	1526.723877	6756.071289	3061.828613	29.355568
345.023926	1530.252563	6774.155273	3064.364990	29.255165
345.389771	1530.473267	6798.194824	3074.399658	29.309187
345.755585	1531.024414	6824.880859	3077.707764	29.216572
346.121368	1537.089478	6843.737305	3081.567139	29.104582
346.487122	1534.443115	6866.122559	3084.103516	29.065144
346.852844	1536.869019	6899.425781	3093.145996	29.021175
347.218536	1538.853882	6923.574219	3100.093262	28.993881
347.584167	1539.184814	6951.252930	3105.276123	28.937019
347.949768	1540.177246	6975.071289	3116.744385	29.008240
348.315369	1540.838867	6981.578125	3130.197510	29.212181
348.680939	1544.477905	6995.692871	3133.946777	29.158068
349.046448	1547.786133	7005.065430	3136.483154	29.111521
349.411957	1546.793701	7011.351074	3133.726563	29.040464
349.777435	1543.706055	7011.021484	3135.711426	29.118593
350.142792	1546.903931	7013.336914	3138.357910	29.113207
350.508209	1547.675903	7017.306641	3144.202393	29.188925
350.873566	1545.911499	7036.273926	3147.069580	29.163067
351.238892	1545.470459	7057.776855	3151.700928	29.138990
351.604187	1549.109253	7084.462891	3160.853516	29.117277
351.969482	1553.079102	7127.248535	3170.557373	29.017385
352.334717	1553.851196	7176.099609	3187.649902	29.059525
352.699890	1551.535400	7256.376465	3209.704346	29.065998
353.065063	1551.976318	7340.295410	3233.522949	29.050688
353.430237	1551.314819	7438.216309	3257.452393	28.981930
353.795319	1548.778442	7545.511719	3286.343262	28.975189
354.160370	1548.668213	7656.886230	3318.322510	28.971697
354.525421	1547.014282	7778.847656	3348.757813	28.911934
354.890442	1547.786133	7926.062500	3389.669189	28.877441
355.255402	1544.367676	8060.375000	3433.447266	28.991367
355.620331	1547.345093	8211.227539	3466.749512	28.803097
355.985260	1548.006714	8359.985352	3495.861572	28.594553
356.350098	1549.440186	8488.122070	3528.281982	28.518988
356.714935	1547.455322	8615.155273	3557.062988	28.433685
357.079742	1548.116943	8735.904297	3587.608643	28.374403
357.444519	1544.588135	8862.386719	3620.690186	28.370581
357.809296	1537.530762	9007.835938	3657.852051	28.383329
358.173981	1534.663574	9175.340820	3694.682617	28.269995
358.538605	1535.104736	9362.474609	3738.681641	28.152201
358.903259	1535.104736	9576.954102	3791.612305	28.059559
359.267914	1535.214966	9815.033203	3853.365723	27.997606
359.632477	1534.001831	10056.529297	3914.015137	27.926144
359.997009	1532.237549	10270.126953	3960.990967	27.795652
360.361542	1533.671021	10432.007813	3999.255615	27.708374
360.726013	1533.009399	10550.330078	4021.861572	27.600794
361.090485	1533.119751	10621.235352	4039.505127	27.578712
361.454895	1537.640869	10669.645508	4051.745605	27.530699
361.819244	1538.081787	10689.494141	4056.928467	27.524132
362.183594	1538.964233	10671.849609	4050.201904	27.496653
362.547913	1538.523071	10616.161133	4031.455811	27.462349
362.912201	1539.515625	10574.367188	4012.819824	27.375151
363.276489	1536.097168	10510.079102	3999.587158	27.451469
363.640686	1532.568359	10443.033203	3987.346680	27.549385
364.004883	1531.686279	10386.685547	3974.224365	27.583719
364.369049	1529.701416	10336.401367	3964.850830	27.651100
364.733154	1531.024780	10286.117188	3953.272217	27.666727
365.097198	1537.200073	10230.098633	3936.290283	27.598278
365.461273	1542.272461	10137.360352	3915.999512	27.617252
365.825287	1545.580688	10013.523438	3885.564453	27.633442
366.189270	1546.132080	9845.798828	3852.041748	27.783159
366.553223	1545.690796	9649.182617	3807.381348	27.910072
366.917114	1546.132080	9422.791992	3752.906982	28.016632
367.281006	1547.014282	9187.691406	3694.572510	28.106907
367.644867	1549.991577	8990.744141	3646.493652	28.175940
368.008698	1548.337524	8831.179688	3607.126465	28.269033
368.372498	1548.999146	8707.012695	3582.205078	28.404612
368.736237	1547.124634	8622.102539	3564.671387	28.516651
369.099976	1540.728760	8559.579102	3551.990234	28.655140
369.463654	1538.854126	8522.858398	3542.286865	28.686018
369.827332	1534.994629	8489.886719	3545.373779	28.905972
370.190948	1534.884277	8472.683594	3541.404053	28.921560
370.554535	1533.450684	8443.021484	3537.103516	28.998224
370.918091	1534.002075	8424.715820	3533.244141	29.013569
371.281647	1538.854126	8421.626953	3532.472168	28.965332
371.645111	1536.427979	8420.744141	3531.920654	28.986069
372.008575	1536.648560	8415.342773	3530.818115	28.990524
372.371979	1535.876465	8419.863281	3534.237061	29.029118
372.735382	1531.906738	8436.183594	3533.023926	28.983734
373.098724	1531.686157	8473.456055	3540.963135	28.944736
373.462067	1529.149902	8530.798828	3557.504150	28.969666
373.825348	1528.708740	8601.592773	3568.862305	28.844721
374.188599	1525.731445	8696.095703	3583.308105	28.695566
374.551819	1522.643677	8812.875000	3609.111572	28.620049
374.915009	1517.130005	8930.976563	3635.246582	28.569740
375.278168	1514.152588	9048.197266	3668.989990	28.601336
375.641266	1512.829468	9160.785156	3698.983887	28.584820
376.004395	1510.624023	9243.048828	3720.266846	28.576324
376.367462	1513.491211	9303.587891	3734.822510	28.514811
376.730469	1516.689209	9354.423828	3746.952393	28.455458
377.093475	1522.092529	9382.984375	3753.458740	28.385664
377.456421	1522.864380	9423.675781	3752.906738	28.225487
377.819336	1524.298096	9463.595703	3761.287598	28.176163
378.182281	1526.172607	9498.992188	3769.116699	28.132383
378.545135	1521.872070	9540.673828	3778.049072	28.136087
378.907928	1522.864502	9571.441406	3781.908936	28.067625
379.270752	1523.305542	9599.780273	3791.943359	28.089455
379.633484	1526.282959	9631.869141	3799.441895	28.044350
379.996246	1524.077393	9659.878906	3803.963135	28.022877
380.358948	1525.069824	9686.673828	3812.454346	28.026163
380.721558	1521.430786	9715.344727	3818.188232	28.030039
381.084198	1523.305298	9733.429688	3824.914795	28.033796
381.446747	1525.951782	9744.015625	3832.744141	28.069782
381.809326	1527.275146	9746.000977	3837.485840	28.109112
382.171875	1527.495850	9729.791016	3833.626465	28.115675
382.534363	1528.488403	9709.280273	3832.744141	28.166660
382.896790	1533.229858	9671.567383	3818.850098	28.084608
383.259247	1531.245117	9648.851563	3816.424072	28.150896
383.621613	1532.017090	9663.408203	3818.629883	28.120808
383.983948	1527.716431	9692.850586	3824.363770	28.127491
384.346283	1523.195068	9736.739258	3830.318115	28.089252
384.708588	1519.225342	9811.723633	3849.615967	28.102396
385.070831	1519.887085	9891.341797	3873.214355	28.111328
385.433075	1519.335693	9960.373047	3897.584473	28.174841
385.795258	1517.020142	10042.305664	3916.220703	28.142176
386.157440	1518.784424	10104.719727	3933.423340	28.123190
386.519531	1514.042603	10178.823242	3955.698242	28.179085
386.881622	1519.335815	10246.749023	3972.128662	28.104467
387.243683	1517.350830	10314.126953	3982.494385	28.023260
387.605713	1519.556274	10383.047852	3995.837402	27.937990
387.967682	1522.643921	10443.366211	4016.568848	27.956533
388.329651	1525.069824	10513.719727	4035.976563	27.934191
388.691559	1523.746704	10610.648438	4058.251953	27.891855
389.053467	1521.431030	10715.627930	4085.489258	27.887787
389.415314	1519.887085	10810.132813	4116.365234	27.948431
389.777130	1518.784180	10914.560547	4143.381836	27.933804
390.138885	1520.328125	10994.397461	4166.759766	27.933420
390.500641	1518.012329	11088.901367	4191.020020	27.928522
390.862366	1521.872070	11165.982422	4204.472656	27.815947
391.224060	1525.510864	11220.676758	4216.161621	27.752499
391.585693	1529.921875	11295.551758	4235.900879	27.709211
391.947296	1536.317749	11367.119141	4259.058594	27.696018
392.308868	1535.766235	11409.905273	4280.450684	27.796700
392.670441	1535.656006	11454.014648	4287.839844	27.748381
393.031952	1533.119751	11484.449219	4293.132813	27.735121
393.393433	1537.310059	11495.697266	4297.433105	27.716568
393.754883	1537.089600	11506.393555	4298.645996	27.700594
394.116302	1538.523071	11496.689453	4292.912109	27.659603
394.477692	1529.701294	11492.830078	4293.573730	27.741011
394.839020	1527.936890	11479.376953	4297.874023	27.834534
395.200348	1526.834229	11463.718750	4302.395508	27.931906
395.561646	1529.480835	11443.759766	4297.983887	27.924398
395.922882	1529.150024	11409.354492	4288.610840	27.929190
396.284088	1529.480835	11337.236328	4274.716309	27.990454
396.645264	1527.275513	11269.638672	4252.993164	27.977993
397.006409	1530.914429	11181.641602	4231.710449	27.985413
397.367523	1533.450684	11090.887695	4212.302734	28.028978
397.728577	1538.964355	11024.392578	4188.925293	27.937180
398.089600	1539.074707	10949.627930	4175.692383	28.017672
398.450592	1539.625977	10886.000000	4166.649902	28.107412
398.811584	1539.074463	10829.209961	4155.953613	28.168364
399.172546	1537.971680	10760.399414	4138.750977	28.200592
399.533447	1528.819214	10692.691406	4118.129883	28.255638
399.894318	1532.127441	10638.768555	4101.038086	28.209202
400.255127	1532.237671	10596.091797	4095.413330	28.279093
400.615936	1531.355469	10585.175781	4096.736816	28.334795
400.976685	1529.150146	10593.115234	4109.858887	28.472183
401.337433	1531.575928	10626.307617	4123.643555	28.500761
401.698151	1531.355591	10702.835938	4144.485352	28.491909
402.058807	1537.861572	10785.099609	4166.208984	28.423052
402.419434	1539.736206	10877.398438	4190.027832	28.382816
402.780060	1538.633423	10977.195313	4209.877441	28.301390
403.140594	1534.663696	11064.090820	4233.364746	28.319658
403.501129	1535.986938	11144.919922	4257.073242	28.318300
403.861633	1537.420532	11224.757813	4276.480957	28.274649
404.222076	1539.625977	11293.236328	4297.211914	28.272463
404.582550	1535.986938	11374.728516	4314.414551	28.239666
404.942932	1535.656128	11422.916992	4335.807617	28.320801
405.303284	1530.804077	11480.369141	4360.288086	28.438267
405.663605	1531.245117	11533.189453	4373.520996	28.417234
406.023895	1532.568481	11582.260742	4391.165039	28.444618
406.384125	1530.914307	11629.016602	4409.028809	28.501537
406.744354	1529.811523	11684.814453	4426.782715	28.527527
407.104553	1536.317627	11746.566406	4444.867676	28.486572
407.464691	1536.868896	11813.392578	4461.738770	28.461666
407.824829	1537.420288	11876.467773	4478.721191	28.448469
408.184906	1538.522949	11926.201172	4492.285156	28.435251
408.544922	1538.633423	11974.169922	4490.189941	28.283709
408.904938	1537.971680	12007.030273	4499.342285	28.286886
409.264923	1536.317627	11999.752930	4504.635254	28.368481
409.624847	1534.112183	11979.573242	4504.855957	28.440523
409.984802	1533.560791	11956.416016	4501.547852	28.475758
410.344666	1535.656006	11935.685547	4494.931152	28.454489
410.704529	1534.774048	11906.352539	4491.071777	28.503838
411.064331	1531.355591	11896.317383	4485.778809	28.503948
411.424133	1532.017090	11892.458008	4487.432617	28.525961
411.783875	1531.245117	11887.385742	4490.410156	28.574013
412.143555	1536.317749	11895.656250	4490.079102	28.513029
412.503235	1535.986938	11932.376953	4495.813477	28.469755
412.862885	1536.317749	11957.078125	4496.474609	28.406340
413.222473	1535.876587	12000.966797	4511.802734	28.436701
413.582062	1530.473267	12055.992188	4521.064941	28.412773
413.941559	1529.480713	12132.080078	4533.416504	28.332069
414.301086	1532.237549	12203.647461	4559.881836	28.371548
414.660522	1531.796509	12282.932617	4578.738281	28.340651
415.019958	1529.150024	12364.093750	4602.667969	28.366720
415.379364	1530.142456	12462.125977	4632.000000	28.374151
415.738708	1528.708984	12566.443359	4659.458496	28.364059
416.098053	1529.591187	12702.960938	4707.868164	28.445105
416.457336	1526.503540	12866.385742	4750.433105	28.430012
416.816559	1528.047363	13056.165039	4804.025879	28.417290
417.175812	1526.834351	13278.144531	4863.020996	28.389910
417.535004	1528.488525	13530.667969	4927.971680	28.323881
417.894135	1528.157715	13808.997070	5002.074219	28.287289
418.253265	1528.047363	14142.681641	5092.166992	28.253847
418.612335	1530.583618	14503.713867	5191.853516	28.221949
418.971405	1528.378174	14871.801758	5290.106445	28.191628
419.330414	1527.054810	15239.122070	5390.344238	28.174377
419.689423	1521.871948	15591.002930	5484.406738	28.164743
420.048370	1521.210327	15940.676758	5568.654785	28.069307
420.407257	1519.997314	16263.223633	5659.960938	28.080446
420.766144	1519.887085	16600.767578	5738.805664	27.975279
421.125000	1524.518555	16922.103516	5828.898926	27.954906
421.483795	1525.180176	17245.310547	5917.006348	27.937593
421.842560	1520.769287	17599.064453	6004.231934	27.885189
422.201324	1520.328125	17935.947266	6097.963379	27.885853
422.560028	1519.887085	18241.623047	6170.963867	27.814556
422.918671	1520.769287	18531.310547	6234.150391	27.708590
423.277283	1524.077515	18778.761719	6298.770020	27.671864
423.635925	1525.841919	18955.306641	6339.570801	27.618341
423.994476	1527.385742	19096.347656	6374.857910	27.591114
424.353027	1529.921997	19197.578125	6393.714355	27.529358
424.711487	1530.914429	19260.099609	6401.212891	27.470514
425.069946	1529.701416	19272.009766	6411.357910	27.514212
425.428375	1529.701538	19241.906250	6410.586426	27.556618
425.786743	1531.576050	19143.101563	6374.086426	27.496258
426.145081	1531.796509	18994.343750	6339.239746	27.530024
426.503418	1530.914307	18822.097656	6289.617676	27.520979
426.861725	1533.561035	18640.148438	6235.473633	27.485975
427.219971	1537.751343	18467.904297	6188.386719	27.469542
427.578186	1539.405396	18302.933594	6146.814453	27.484724
427.936371	1542.051880	18152.521484	6108.219238	27.489697
428.294495	1545.249756	17946.314453	6060.691895	27.531399
428.652618	1543.485352	17745.066406	6009.746094	27.566820
429.010712	1544.477905	17538.191406	5953.727539	27.568640
429.368744	1549.991455	17290.296875	5879.514648	27.505968
429.726746	1550.432617	17043.066406	5817.982422	27.545670
430.084717	1548.999023	16817.117188	5765.051270	27.613438
430.442688	1548.337280	16581.134766	5711.679199	27.695057
430.800568	1549.660645	16415.947266	5662.718262	27.667013
431.158417	1548.668213	16272.815430	5625.776855	27.689947
431.516235	1546.903809	16145.229492	5591.923340	27.708790
431.874023	1542.492920	16049.514648	5565.788574	27.733437
432.231812	1543.816162	15953.795898	5551.453125	27.811539
432.589508	1543.706055	15895.242188	5528.957520	27.768814
432.947205	1543.595825	15808.457031	5504.366699	27.765926
433.304840	1542.052002	15756.189453	5494.662109	27.807596
433.662476	1541.831421	15700.720703	5480.988770	27.821089
434.020050	1545.029541	15676.790039	5476.247559	27.818317
434.377594	1544.147339	15649.995117	5479.224609	27.896778
434.735138	1536.869263	15624.854492	5480.548340	27.993210
435.092621	1536.648682	15592.102539	5475.254883	28.021906
435.450043	1536.979492	15602.911133	5479.334961	28.027689
435.807465	1532.789063	15644.480469	5490.362305	28.044641
436.164856	1532.017090	15690.354492	5498.522461	28.015331
436.522156	1531.576050	15735.567383	5515.173340	28.045618
436.879486	1527.936890	15802.060547	5539.322754	28.102501
437.236755	1525.510986	15877.817383	5560.936035	28.116909
437.593994	1529.701416	15964.602539	5587.842285	28.113396
437.951172	1528.267822	16095.165039	5620.483398	28.092567
438.308380	1526.944458	16181.729492	5655.219238	28.170149
438.665497	1526.503296	16304.906250	5691.608887	28.183731
439.022583	1530.252686	16441.642578	5736.159180	28.205997
439.379608	1531.906860	16545.410156	5766.594727	28.205862
439.736633	1532.568604	16637.816406	5783.025391	28.138943
440.093628	1535.104736	16715.669922	5802.543945	28.111202
440.450562	1534.773926	16800.359375	5821.179688	28.078882
440.807495	1534.222534	16869.169922	5847.093262	28.124456
441.164368	1534.773926	16950.664063	5864.406250	28.085516
441.521210	1534.773926	17015.833984	5880.175781	28.069149
441.878021	1532.899292	17084.865234	5893.077148	28.036184
442.234833	1536.979492	17175.837891	5915.352051	27.996754
442.591522	1538.854126	17250.492188	5938.178711	28.000422
442.948242	1535.766479	17338.599609	5958.910156	27.989561
443.304901	1538.082275	17434.316406	5984.162598	27.969393
443.661530	1541.169800	17547.126953	6015.259766	27.952654
444.018127	1542.382935	17676.144531	6054.406738	27.966349
444.374664	1544.367798	17807.478516	6102.595703	28.028021
444.731201	1552.197021	17927.343750	6139.757813	28.015387
445.087738	1551.535400	18043.792969	6172.177734	28.017040
445.444183	1552.307251	18093.746094	6192.908691	28.054399
445.800598	1548.888794	18151.085938	6209.339844	28.071291
446.156982	1546.352539	18172.921875	6206.913574	28.030802
446.513336	1545.359985	18160.902344	6200.187012	28.014896
446.869598	1546.793579	18160.683594	6204.156738	28.032948
447.225891	1546.021606	18175.570313	6212.647461	28.062252
447.582153	1546.352417	18179.318359	6221.910645	28.110188
447.938354	1548.999023	18181.964844	6238.120605	28.191736
448.294495	1548.006592	18183.066406	6229.298828	28.141117
448.650665	1544.147095	18170.828125	6228.967773	28.176523
449.006775	1537.971924	18154.617188	6230.511719	28.239998
449.362823	1539.405396	18162.666016	6233.709473	28.239372
449.718842	1541.610718	18152.962891	6233.488281	28.245007
450.074860	1540.838867	18172.703125	6233.708984	28.216143
450.430817	1544.918945	18136.753906	6231.283203	28.245001
450.786713	1541.831299	18068.271484	6211.543945	28.256014
451.142578	1537.861450	17979.615234	6181.329590	28.241928
451.498444	1534.001831	17847.619141	6145.490234	28.267723
451.854248	1533.119629	17694.558594	6094.213379	28.222076
452.210022	1529.039551	17510.074219	6045.473633	28.261211
452.565765	1527.385376	17293.279297	5984.271973	28.269167
452.921478	1529.370361	17109.785156	5931.341309	28.253231
453.277191	1531.796387	16919.673828	5880.946777	28.263485
453.632813	1531.906738	16753.052734	5843.785156	28.328211
453.988434	1531.245117	16601.978516	5802.763672	28.343136
454.343964	1528.819214	16476.490234	5779.827148	28.439266
454.699524	1529.591187	16350.117188	5749.171387	28.471189
455.054993	1527.385742	16251.754883	5718.185059	28.461657
455.410400	1526.282959	16187.574219	5687.971191	28.385553
455.765839	1523.636475	16166.403320	5687.199219	28.434261
456.121216	1525.400879	16186.471680	5693.484375	28.429600
456.476593	1529.591187	16245.579102	5716.089844	28.448641
456.831909	1529.480957	16359.379883	5758.214355	28.514917
457.187195	1528.267822	16504.277344	5806.292969	28.565857
457.542450	1528.157593	16688.544922	5854.923340	28.539940
457.897644	1528.267944	16878.652344	5899.252441	28.474754
458.252808	1531.024780	17079.128906	5960.674316	28.489964
458.607971	1536.317749	17244.759766	6013.054199	28.498919
458.963013	1539.956787	17343.453125	6034.557617	28.440546
459.318085	1542.934204	17441.373047	6063.007324	28.430925
459.673096	1541.831421	17513.933594	6079.438477	28.409578
460.028076	1541.610718	17581.533203	6101.161621	28.426264
460.383057	1541.059570	17632.478516	6113.842773	28.417526
460.737976	1542.272461	17654.751953	6112.740234	28.366011
461.092865	1543.265015	17668.205078	6121.231445	28.390594
461.447723	1543.375244	17674.822266	6124.980469	28.401701
461.802551	1546.573120	17650.451172	6113.291992	28.357882
462.157288	1547.786133	17647.472656	6119.025879	28.393347
462.512054	1548.337646	17629.390625	6117.923340	28.415962
462.866760	1545.911621	17608.216797	6112.630371	28.431280
463.221405	1547.676025	17561.681641	6093.994141	28.389639
463.576019	1547.896484	17482.503906	6069.844727	28.378159
463.930603	1548.447876	17383.810547	6042.276367	28.378439
464.285156	1546.242432	17249.832031	5995.631348	28.333576
464.639709	1547.345093	17084.640625	5944.133789	28.298286
464.994171	1543.706055	16863.326172	5887.012695	28.351269
465.348633	1542.603271	16613.998047	5817.981934	28.367508
465.703033	1539.295044	16373.494141	5752.479492	28.401834
466.057434	1532.899170	16159.786133	5696.130371	28.462868
466.411774	1530.032104	16020.070313	5660.953613	28.508699
466.766083	1522.864380	15879.141602	5623.902344	28.566166
467.120331	1521.100098	15783.867188	5592.915039	28.548561
467.474548	1521.430908	15706.787109	5565.788574	28.510794
467.828735	1519.997314	15633.897461	5565.126953	28.660608
468.182922	1520.438232	15605.998047	5566.780762	28.726885
468.537048	1521.871704	15567.403320	5558.730957	28.741236
468.891144	1520.879272	15539.833008	5558.399902	28.800440
469.245178	1517.571289	15543.692383	5557.627930	28.803806
469.599213	1514.483398	15538.730469	5555.312500	28.813162
469.953186	1512.278076	15543.582031	5546.600586	28.752300
470.307129	1512.719116	15539.062500	5554.540527	28.815929
470.661041	1515.255493	15572.252930	5568.655273	28.835461
471.014923	1517.019775	15620.001953	5581.336914	28.818848
471.368713	1514.483521	15633.895508	5583.762695	28.820459
471.722504	1516.799194	15624.414063	5582.770508	28.821110
472.076294	1515.696533	15594.748047	5580.675781	28.872536
472.429993	1517.571167	15538.951172	5581.447754	28.983427
472.783722	1517.681396	15533.877930	5588.063965	29.040565
473.137329	1521.210205	15559.459961	5596.775391	29.031860
473.490967	1524.628662	15589.895508	5609.235840	29.040382
473.844543	1525.069702	15655.178711	5634.268066	29.081150
474.198090	1525.731445	15736.008789	5657.314941	29.074615
474.551605	1524.849243	15840.216797	5692.602539	29.113842
474.905060	1525.400635	15973.979492	5734.505859	29.131622
475.258484	1526.834229	16111.156250	5764.830566	29.058575
475.611877	1525.180176	16262.120117	5799.345703	29.003075
475.965240	1522.974731	16434.146484	5852.166016	29.033207
476.318573	1525.731445	16599.001953	5894.952148	28.986547
476.671844	1529.149902	16778.083984	5937.848145	28.911518
477.025116	1531.024536	16965.107422	5983.942383	28.851198
477.378326	1533.340210	17172.417969	6042.166504	28.830511
477.731506	1535.435425	17399.578125	6106.344727	28.812834
478.084656	1534.773926	17628.064453	6172.177246	28.815756
478.437744	1532.788940	17876.400391	6240.105469	28.802181
478.790833	1532.347900	18179.759766	6323.912109	28.782639
479.143890	1529.149902	18532.742188	6425.915039	28.798416
479.496826	1527.606079	18959.386719	6540.046875	28.754612
479.849823	1528.488281	19549.675781	6689.025391	28.635944
480.202728	1529.039673	20281.115234	6880.790039	28.539509
480.555603	1525.952148	21176.748047	7138.166016	28.559727
480.908478	1522.974731	22400.552734	7492.802246	28.594444
481.261292	1522.974731	23963.777344	7939.185059	28.591715
481.614075	1524.628906	25732.109375	8467.832031	28.682056
481.966797	1526.834229	27496.359375	8993.942383	28.753349
482.319489	1527.606079	29080.205078	9426.432617	28.668173
482.672150	1526.393188	30462.691406	9796.617188	28.580793
483.024780	1524.739014	31572.472656	10088.729492	28.501284
483.377350	1523.636353	32530.302734	10333.314453	28.412207
483.729919	1522.313110	33403.109375	10559.151367	28.345709
484.082428	1523.856812	34220.453125	10795.134766	28.355486
484.434937	1524.187622	35104.066406	11038.286133	28.332737
484.787384	1523.636230	36042.925781	11310.107422	28.350731
485.139771	1526.503296	37078.054688	11591.302734	28.310438
485.492157	1529.921753	38098.410156	11878.232422	28.298437
485.844482	1531.355347	39044.769531	12138.585938	28.275833
486.196777	1530.693726	39872.480469	12363.320313	28.252798
486.549072	1531.796509	40529.593750	12543.505859	28.236746
486.901276	1531.134888	40987.113281	12661.386719	28.209293
487.253448	1530.363037	41207.882813	12715.973633	28.191305
487.605591	1528.047241	41187.921875	12707.702148	28.188831
487.957703	1529.039917	40949.730469	12621.138672	28.137758
488.309784	1533.450806	40448.871094	12466.536133	28.094479
488.661835	1533.450806	39685.007813	12245.770508	28.078327
489.013855	1533.560913	38832.492188	11973.507813	27.989939
489.365814	1533.340454	38064.773438	11727.048828	27.903936
489.717743	1533.009521	37422.546875	11543.333984	27.892038
490.069611	1532.017090	36896.214844	11406.044922	27.920969
490.421509	1533.561035	36463.058594	11296.764648	27.951170
490.773315	1538.633545	36034.433594	11180.757813	27.951588
491.125092	1539.625977	35581.214844	11061.333984	27.970808
491.476807	1534.553345	35043.742188	10904.304688	27.961737
491.828522	1536.317749	34357.406250	10717.945313	27.974781
492.180176	1533.230225	33541.167969	10495.855469	28.001257
492.531830	1530.804199	32589.628906	10233.736328	28.020802
492.883423	1527.495972	31597.392578	9953.643555	28.021870
493.234985	1525.290405	30630.853516	9701.560547	28.091778
493.586487	1528.047363	29768.414063	9465.247070	28.105865
493.937988	1528.929443	29037.640625	9257.162109	28.093765
494.289429	1532.788818	28473.484375	9105.538086	28.108959
494.640869	1531.686157	28000.085938	8982.473633	28.149746
494.992218	1531.686157	27623.722656	8886.756836	28.188948
495.343567	1529.149902	27261.039063	8787.070313	28.205938
495.694855	1530.362915	26811.238281	8660.257813	28.202723
496.046112	1533.230103	26245.205078	8500.471680	28.193789
496.397339	1532.899292	25526.890625	8302.201172	28.212486
496.748535	1534.663574	24699.515625	8069.086426	28.208351
497.099670	1534.994385	23875.558594	7850.746094	28.270332
497.450806	1536.097046	23117.435547	7648.616211	28.323170
497.801880	1540.177124	22517.664063	7490.264648	28.364159
498.152924	1536.648560	22015.919922	7368.633789	28.477505
498.503937	1535.766357	21626.441406	7275.895020	28.571110
498.854889	1541.279907	21339.951172	7196.940430	28.565859
499.205841	1537.089600	21112.789063	7124.933105	28.544798
499.556702	1541.941650	20926.869141	7064.613770	28.489515
499.907562	1539.956787	20761.572266	7020.394531	28.511847
500.258362	1540.838867	20609.949219	6989.518066	28.573328
500.609161	1544.588257	20483.576172	6939.454590	28.485504
500.959900	1543.926636	20330.847656	6897.770996	28.497719
501.310608	1543.595703	20167.863281	6851.125977	28.497927
501.661255	1540.949097	19978.414063	6810.214844	28.579123
502.011902	1544.257324	19809.808594	6766.877441	28.592733
502.362488	1545.249756	19609.330078	6718.356934	28.637535
502.713043	1546.352539	19430.138672	6681.636719	28.714750
503.063568	1541.279907	19261.421875	6626.941406	28.699892
503.414063	1538.523071	19106.378906	6575.664551	28.672489
503.764496	1541.059204	18964.458984	6536.296875	28.669706
504.114899	1539.295166	18838.527344	6502.333496	28.689354
504.465271	1538.743774	18744.794922	6483.477051	28.738340
504.815613	1535.656128	18675.433594	6458.114746	28.719501
505.165894	1529.701416	18602.212891	6439.147949	28.756437
505.516174	1527.716553	18584.128906	6426.356445	28.720222
505.866394	1527.937012	18570.455078	6413.674805	28.667934
506.216583	1523.305664	18563.177734	6420.291016	28.738394
506.566711	1523.856934	18600.339844	6446.204590	28.825302
506.916840	1523.085083	18640.369141	6455.026855	28.812645
507.266907	1521.872070	18704.107422	6471.346680	28.805769
507.616882	1518.674072	18761.666016	6477.081055	28.756071
507.966858	1516.689209	18802.027344	6498.915039	28.823420
508.316803	1516.248169	18854.185547	6517.771484	28.847281
508.666748	1516.579102	18909.541016	6535.635254	28.856825
509.016632	1515.145508	18965.890625	6551.845215	28.862375
509.366486	1513.932373	19011.984375	6571.363770	28.902826
509.716309	1512.940063	19094.466797	6596.065430	28.911739
510.066040	1512.609253	19168.130859	6617.347656	28.912985
510.415771	1515.476318	19257.892578	6651.091309	28.945412
510.765503	1514.263428	19336.626953	6682.959961	29.001184
511.115173	1516.248169	19421.427734	6702.037109	28.962507
511.464752	1516.578979	19503.468750	6728.613281	28.976849
511.814270	1518.012451	19575.478516	6747.579590	28.960691
512.163818	1518.563843	19630.283203	6764.671875	28.965269
512.513306	1516.578857	19691.484375	6779.669434	28.958008
512.862793	1520.328003	19720.816406	6790.145020	28.954262
513.212219	1519.887085	19769.556641	6809.663574	28.985600
513.561646	1518.563721	19808.925781	6823.778320	29.005522
513.911011	1515.255615	19836.164063	6827.417480	28.995081
514.260315	1513.932251	19890.197266	6847.596680	29.024746
514.609558	1514.593994	19954.156250	6859.727051	28.987309
514.958801	1517.460938	20057.042969	6889.500977	28.976057
515.308044	1517.019897	20201.500000	6923.022949	28.933119
515.657227	1518.894531	20392.933594	6969.888184	28.880907
516.006348	1520.989746	20606.861328	7028.002441	28.853872
516.355408	1523.415771	20836.009766	7089.976074	28.823475
516.704529	1523.856812	21066.146484	7145.773926	28.767956
517.053467	1523.415649	21249.308594	7185.582520	28.704237
517.402466	1526.062256	21397.183594	7229.581055	28.702551
517.751404	1523.084961	21517.271484	7263.104004	28.708439
518.100281	1525.290405	21624.896484	7288.246094	28.671984
518.449219	1520.548950	21691.941406	7309.639160	28.699507
518.798035	1517.571411	21757.333984	7317.799316	28.657591
519.146851	1516.689331	21826.916016	7330.589844	28.625483
519.495544	1517.020020	21905.869141	7346.581055	28.591908
519.844299	1522.313110	21994.197266	7368.193359	28.555653
520.192932	1520.218018	22093.333984	7392.454102	28.543253
520.541626	1522.313110	22156.630859	7416.272949	28.563871
520.890198	1527.937012	22260.949219	7440.642090	28.518312
521.238770	1530.583496	22355.783203	7468.541504	28.513330
521.587280	1531.796387	22446.537109	7491.699219	28.496183
521.935791	1530.693726	22546.884766	7528.199219	28.537546
522.284180	1532.788940	22645.027344	7561.170898	28.553968
522.632629	1534.994385	22760.375000	7599.877441	28.573729
522.981018	1530.693726	22887.296875	7642.111816	28.616058
523.329346	1530.693848	23058.660156	7696.035156	28.638754
523.677551	1525.731567	23236.419922	7739.261719	28.619684
524.025818	1523.415771	23458.398438	7804.984375	28.637217
524.374023	1521.100098	23722.173828	7892.541016	28.698795
524.722229	1520.438477	24090.261719	7989.580566	28.662794
525.070374	1520.548584	24555.941406	8120.032715	28.649324
525.418457	1519.556274	25200.154297	8304.518555	28.651989
525.766541	1524.849365	26106.705078	8578.326172	28.693832
526.114563	1525.621338	27271.955078	8929.432617	28.756760
526.462585	1522.974854	28579.017578	9309.322266	28.778589
526.810547	1526.172729	29825.097656	9674.325195	28.793150
527.158447	1526.172607	30890.884766	9971.951172	28.761658
527.506348	1528.157593	31764.574219	10212.786133	28.722416
527.854065	1528.598633	32475.056641	10397.161133	28.657764
528.201904	1522.202759	33035.906250	10549.006836	28.644058
528.549622	1520.879639	33462.882813	10660.932617	28.614525
528.897339	1520.879517	33790.281250	10750.033203	28.600323
529.245056	1519.997314	34014.574219	10810.463867	28.590822
529.592712	1516.027466	34193.992188	10859.204102	28.591673
529.940369	1515.365845	34378.804688	10900.225586	28.557144
530.287903	1517.571289	34558.000000	10958.669922	28.574383
530.635437	1514.704346	34745.679688	11023.952148	28.615614
530.982910	1517.020020	35013.753906	11101.142578	28.612112
531.330383	1518.233032	35248.523438	11166.644531	28.604591
531.677795	1521.651489	35370.593750	11198.843750	28.589350
532.025208	1522.643921	35337.398438	11186.382813	28.578470
532.372498	1521.320801	35142.769531	11127.277344	28.570919
532.719788	1522.643921	34723.730469	11008.073242	28.569637
533.067078	1520.659180	34028.792969	10785.983398	28.501558
533.414307	1523.195435	33081.554688	10502.361328	28.452576
533.761536	1525.290649	32011.136719	10191.613281	28.427364
534.108643	1523.085083	31022.433594	9907.000000	28.420679
534.455811	1523.856934	30247.216797	9693.401367	28.442162
534.802856	1527.275635	29614.585938	9533.065430	28.503227
535.149902	1524.408447	29126.521484	9407.575195	28.560013
535.496887	1523.195313	28710.240234	9298.294922	28.598547
535.843811	1522.864624	28364.095703	9208.974609	28.635460
536.190796	1520.328247	28066.687500	9132.333984	28.674387
536.537659	1526.613892	27817.033203	9068.266602	28.685936
536.884460	1527.826782	27578.732422	9008.277344	28.714743
537.231323	1525.180298	27296.324219	8945.864258	28.794546
537.578064	1525.952148	27017.113281	8861.064453	28.775122
537.924805	1524.518677	26697.654297	8766.450195	28.768494
538.271423	1526.062500	26405.654297	8686.282227	28.779490
538.618164	1527.275391	26236.941406	8643.605469	28.799782
538.964783	1526.062378	26303.761719	8661.138672	28.796362
539.311279	1525.290405	26509.308594	8737.889648	28.868853
539.657776	1529.811523	26777.714844	8811.221680	28.839664
540.004333	1534.001831	27009.066406	8876.833008	28.823601
540.350769	1530.914307	27213.953125	8944.760742	28.866703
540.697144	1534.773926	27352.234375	8994.825195	28.895372
541.043518	1534.773926	27429.089844	9016.989258	28.895203
541.389893	1532.788940	27431.296875	9018.753906	28.905005
541.736145	1533.009521	27319.259766	8986.554688	28.905113
542.082458	1531.465698	27184.619141	8939.688477	28.878408
542.428711	1530.032104	27028.029297	8892.492188	28.874659
542.774902	1534.443115	26874.091797	8849.264648	28.867098
543.121033	1534.001953	26771.865234	8824.123047	28.885651
543.467102	1535.766357	26708.130859	8803.390625	28.871439
543.813171	1530.473389	26658.839844	8781.447266	28.855730
544.159180	1527.826782	26623.990234	8762.370117	28.827288
544.505127	1527.275269	26580.546875	8747.263672	28.818544
544.851135	1525.510986	26465.642578	8711.093750	28.811329
545.197021	1529.039673	26279.062500	8651.435547	28.777330
545.542908	1529.811523	25915.710938	8558.145508	28.821304
545.888733	1528.598633	25382.431641	8412.144531	28.857191
546.234558	1529.701416	24666.982422	8202.626953	28.840578
546.580322	1529.370483	23875.119141	7970.061523	28.822893
546.926025	1522.754150	23061.306641	7750.839355	28.915987
547.271667	1516.799438	22344.753906	7553.782715	28.985003
547.617371	1515.917236	21688.521484	7373.156250	29.035614
547.962952	1510.513916	21087.759766	7198.375000	29.053429
548.308533	1506.985229	20539.593750	7040.905273	29.075993
548.654053	1510.513916	20035.978516	6898.983398	29.086826
548.999573	1510.072876	19574.046875	6785.513184	29.204206
549.344971	1509.631836	19205.074219	6688.474121	29.266533
549.690430	1511.727051	18895.871094	6605.769531	29.302809
550.035767	1514.704468	18655.806641	6541.700684	29.327147
550.381104	1517.461182	18424.896484	6472.008789	29.303959
550.726440	1517.350952	18201.921875	6416.320801	29.362276
551.071655	1521.872070	17961.861328	6365.264648	29.461046
551.416931	1523.305664	17699.191406	6302.520020	29.545301
551.762085	1523.305664	17417.554688	6229.850098	29.611618
552.107178	1526.393188	17137.240234	6154.753906	29.648365
552.452332	1527.937012	16865.531250	6086.605469	29.722189
552.797424	1528.488281	16617.859375	6013.053711	29.720028
553.142395	1529.039551	16403.378906	5950.197754	29.723391
553.487366	1531.906494	16235.324219	5918.549316	29.834169
553.832336	1533.450439	16092.630859	5875.213379	29.821476
554.177185	1538.192261	15982.911133	5850.291504	29.852427
554.522095	1537.199707	15885.650391	5824.156738	29.877489
554.866943	1540.508057	15797.429688	5795.596191	29.845768
555.211731	1540.177246	15707.779297	5769.130371	29.849464
555.556396	1542.162109	15630.037109	5751.817871	29.881411
555.901123	1536.758667	15550.971680	5727.116699	29.900772
556.245789	1533.891602	15491.977539	5710.135254	29.919888
556.590454	1533.340454	15421.841797	5687.088379	29.907822
556.934998	1535.656006	15336.601563	5668.893066	29.948944
557.279541	1531.135010	15230.741211	5638.237305	29.979712
557.624023	1529.260376	15136.675781	5608.353516	29.976988
557.968567	1528.488403	15005.562500	5567.332520	29.968258
558.312988	1526.393188	14903.338867	5535.243164	29.968351
558.657349	1528.267822	14807.733398	5508.115723	29.969940
559.001770	1528.708862	14752.045898	5482.312012	29.898678
559.346069	1524.628784	14695.036133	5469.961914	29.956043
559.690308	1524.187622	14652.139648	5457.500977	29.961363
560.034485	1519.445923	14622.696289	5449.561035	29.993439
560.378723	1517.681519	14593.473633	5441.400879	30.007507
560.722900	1515.365845	14547.491211	5431.917480	30.053055
561.067017	1513.380981	14502.721680	5425.190430	30.115536
561.411072	1513.932251	14474.269531	5410.965332	30.068918
561.755127	1513.380859	14445.488281	5406.664551	30.105562
562.099182	1512.057617	14444.275391	5412.288574	30.159027
562.443115	1513.711914	14463.792969	5419.456055	30.159998
562.787048	1512.609131	14476.474609	5427.175293	30.195980
563.130920	1517.020142	14514.077148	5453.530273	30.287706
563.474792	1519.997437	14593.033203	5480.988281	30.298935
563.818604	1519.887085	14671.437500	5502.822266	30.284908
564.162354	1516.689209	14778.511719	5527.082031	30.240133
564.506042	1522.202881	14880.733398	5555.753418	30.194569
564.849731	1525.290405	14948.110352	5582.329102	30.224934
565.193420	1526.723999	15022.654297	5612.102539	30.271187
565.537048	1527.054688	15072.498047	5624.563477	30.250090
565.880615	1524.959595	15111.315430	5638.017090	30.273443
566.224121	1526.723877	15117.048828	5645.294922	30.305170
566.567627	1533.781372	15125.760742	5645.736816	30.252810
566.911072	1532.788940	15127.083008	5643.420898	30.237921
567.254517	1536.758789	15147.593750	5644.192871	30.177679
567.597839	1535.104858	15172.957031	5646.839355	30.149427
567.941223	1534.002075	15221.255859	5652.242676	30.088144
568.284485	1532.678833	15281.576172	5666.798828	30.068739
568.627808	1534.663696	15341.895508	5689.183594	30.089451
568.970947	1535.876709	15414.675781	5706.716797	30.051880
569.314148	1538.633545	15486.792969	5727.006836	30.028143
569.657288	1534.774048	15551.301758	5750.053711	30.073639
570.000366	1534.112305	15612.943359	5764.278809	30.046291
570.343445	1532.348022	15662.568359	5763.727539	29.945601
570.686462	1528.378174	15679.879883	5759.537598	29.899012
571.029419	1526.723999	15675.358398	5764.831055	29.954176
571.372314	1526.613770	15632.462891	5755.236816	29.977798
571.715210	1521.651367	15592.434570	5744.871094	30.014105
572.058105	1520.989990	15575.562500	5732.631348	29.966345
572.400879	1521.872070	15552.845703	5721.935059	29.934223
572.743713	1518.563843	15550.087891	5723.809082	29.969980
573.086426	1520.328125	15549.425781	5724.470703	29.967306
573.429077	1521.982178	15559.351563	5727.227539	29.957502
573.771790	1517.902100	15557.585938	5728.881836	29.993408
574.114441	1517.571289	15556.593750	5727.999512	29.990892
574.457031	1516.248047	15535.863281	5723.809082	30.011957
574.799561	1519.115112	15488.666992	5720.060059	30.072151
575.142029	1518.674072	15425.588867	5705.944824	30.109270
575.484436	1520.438477	15341.343750	5684.332031	30.127502
575.826904	1518.674194	15231.954102	5646.949219	30.104212
576.169250	1519.666626	15101.721680	5607.912598	30.100351
576.511597	1518.012573	14939.840820	5565.788086	30.158152
576.853943	1521.320679	14764.176758	5518.150391	30.181023
577.196167	1524.518555	14579.801758	5464.667969	30.180498
577.538391	1523.526123	14387.044922	5410.524414	30.217224
577.880554	1526.503296	14197.925781	5355.057129	30.214079
578.222717	1527.606079	14013.992188	5296.391602	30.183159
578.564819	1527.936890	13843.730469	5248.864258	30.212646
578.906860	1531.906860	13668.176758	5206.188965	30.275219
579.248901	1529.039795	13486.114258	5162.961914	30.391399
579.590942	1528.488525	13311.665039	5117.088379	30.455284
579.932861	1530.473267	13130.047852	5066.473633	30.483881
580.274780	1531.576050	12965.851563	5019.276855	30.502157
580.616638	1528.929443	12799.669922	4967.007813	30.504459
580.958496	1528.267822	12642.088867	4923.119629	30.546215
581.300232	1525.400757	12493.443359	4879.782227	30.583225
581.641968	1525.841919	12354.940430	4837.658203	30.582567
581.983704	1524.187744	12222.283203	4794.321289	30.567436
582.325317	1525.841919	12101.534180	4756.056641	30.543768
582.666992	1527.275391	11995.232422	4724.519043	30.543148
583.008606	1529.591187	11896.317383	4706.213867	30.642485
583.350098	1530.693970	11814.714844	4686.033691	30.681967
583.691589	1529.039917	11735.871094	4667.176758	30.745455
584.033081	1530.473511	11675.662109	4643.688477	30.686615
584.374512	1529.150146	11635.742188	4633.543457	30.716520
584.715881	1530.804199	11580.606445	4623.619141	30.774881
585.057190	1531.245361	11526.683594	4613.915039	30.840765
585.398499	1526.613770	11487.756836	4610.166016	30.955809
585.739807	1531.355469	11463.937500	4602.005371	30.914921
586.081055	1531.134888	11458.313477	4590.206543	30.815117
586.422180	1532.347900	11440.449219	4589.214844	30.852196
586.763367	1531.134888	11435.597656	4589.986816	30.883574
587.104431	1532.237671	11436.257813	4588.663086	30.860451
587.445496	1529.370483	11437.471680	4584.252441	30.832161
587.786499	1529.039795	11440.559570	4596.161621	30.945021
588.127502	1532.237671	11449.160156	4595.389648	30.888128
588.468445	1533.340332	11450.815430	4602.777832	30.949789
588.809326	1533.560913	11456.659180	4610.276367	31.005590
589.150208	1536.207520	11464.377930	4615.459473	31.015303
589.491028	1537.751343	11463.717773	4618.877930	31.041071
589.831848	1533.450562	11459.858398	4619.649902	31.090796
590.172546	1529.591187	11462.835938	4619.318848	31.104916
590.513245	1527.385620	11457.653320	4613.033691	31.073160
590.853943	1526.723999	11469.452148	4603.770508	30.947706
591.194458	1523.084961	11473.973633	4607.850586	30.999901
591.535095	1526.282837	11476.620117	4611.489746	31.006056
591.875610	1528.819214	11484.891602	4619.649902	31.044678
592.216125	1524.739014	11512.017578	4631.118652	31.103365
592.556580	1528.819214	11542.123047	4638.506836	31.055559
592.897034	1527.385620	11559.435547	4642.145996	31.048094
593.237366	1524.408203	11564.838867	4649.644531	31.126516
593.577698	1529.260254	11603.103516	4654.496094	31.023272
593.918030	1530.252686	11650.410156	4663.979492	30.965199
594.258301	1531.686401	11705.215820	4680.850586	30.954489
594.598511	1533.450684	11771.158203	4702.022949	30.950020
594.938721	1535.325317	11857.501953	4723.084961	30.882631
595.278809	1534.443115	11935.464844	4750.432617	30.919939
595.618958	1537.861328	11997.327148	4757.710449	30.784069
595.958984	1535.876587	12031.291016	4761.128906	30.730112
596.299011	1534.663574	12048.934570	4774.362305	30.812393
596.638977	1534.112305	12065.916992	4778.111328	30.801929
596.978943	1536.317749	12067.018555	4780.096191	30.803061
597.318848	1538.302490	12054.998047	4778.111816	30.806343
597.658630	1541.720947	12036.031250	4776.126465	30.820562
597.998474	1541.941650	12002.398438	4776.125977	30.918194
598.338257	1541.610718	11959.060547	4773.810059	31.026779
598.677979	1536.648438	11904.476563	4766.863281	31.156137
599.017700	1535.986938	11873.490234	4753.079102	31.120594
599.357361	1536.317749	11823.316406	4732.899414	31.073996
599.696960	1537.530640	11767.958984	4716.358398	31.072281
600.036560	1535.104736	11732.892578	4706.654297	31.100367
600.376038	1537.420532	11709.957031	4696.289063	31.052912
600.715576	1535.215088	11680.955078	4689.672852	31.091450
601.055054	1530.473267	11653.055664	4685.151367	31.164759
601.394409	1530.142456	11614.680664	4673.903320	31.174068
601.733826	1529.260376	11593.729492	4666.625488	31.172686
602.073120	1523.195435	11560.426758	4650.305176	31.155104
602.412415	1519.335693	11560.868164	4645.453613	31.131882
602.751587	1515.366089	11583.473633	4660.781738	31.241379
603.090820	1516.578979	11618.099609	4683.166504	31.347631
603.429993	1518.563843	11665.185547	4688.019043	31.236553
603.769104	1517.902100	11700.142578	4695.738281	31.209597
604.108154	1517.240479	11724.841797	4708.419434	31.262770
604.447205	1517.571289	11761.012695	4718.564941	31.249201
604.786194	1516.358276	11777.001953	4723.747559	31.259142
605.125183	1519.666504	11801.591797	4726.945313	31.193367
605.464111	1522.423340	11833.351563	4725.180664	31.061777
605.802979	1524.849121	11869.520508	4720.329102	30.890104
606.141846	1523.415527	11894.111328	4727.385742	30.894459
606.480652	1525.621338	11927.525391	4739.736328	30.899294
606.819336	1524.187622	11986.520508	4754.843262	30.878923
607.158020	1522.202759	12036.363281	4769.399414	30.884033
607.496765	1518.453491	12074.296875	4787.153320	30.965784
607.835388	1515.255615	12102.967773	4801.488770	31.038181
608.173950	1520.328369	12105.945313	4802.040039	31.001610
608.512512	1522.313110	12089.955078	4794.872559	30.967737
608.851013	1523.415771	12038.128906	4780.758301	30.978901
609.189514	1528.708862	11961.158203	4762.563477	30.998037
609.527893	1531.575928	11846.584961	4730.474121	31.012074
609.866333	1536.428101	11725.615234	4695.847656	31.007570
610.204712	1538.082153	11597.809570	4657.693848	31.010899
610.542969	1536.317749	11477.282227	4622.958008	31.049704
610.881226	1535.545898	11375.941406	4594.508301	31.085768
611.219482	1536.538330	11296.544922	4569.365723	31.074030
611.557678	1534.774048	11222.221680	4552.494141	31.150829
611.895813	1534.001953	11170.172852	4540.363770	31.198719
612.233948	1529.370605	11119.116211	4528.674316	31.276154
612.571960	1530.693848	11067.949219	4519.853027	31.341921
612.910034	1530.693848	11004.432617	4504.635254	31.391424
613.247986	1530.032227	10945.435547	4486.550781	31.400869
613.585938	1525.510986	10878.611328	4469.788574	31.479160
613.923828	1526.723877	10775.286133	4436.707031	31.464167
614.261658	1528.708740	10655.861328	4405.721191	31.521469
614.599487	1530.583374	10533.898438	4366.132813	31.494501
614.937317	1532.899170	10426.493164	4327.758301	31.425531
615.275024	1529.921753	10327.688477	4298.425781	31.468258
615.612732	1525.951904	10242.007813	4271.628906	31.501371
615.950378	1524.297852	10159.083008	4248.361816	31.547560
616.288025	1523.856812	10087.185547	4230.717773	31.609913
616.625549	1523.415649	10036.679688	4213.736816	31.601526
616.963074	1522.092407	9979.669922	4197.967285	31.638788
617.300537	1521.761597	9949.125000	4189.696777	31.658005
617.638000	1521.761597	9913.396484	4182.749023	31.709999
617.975464	1523.636230	9882.080078	4177.015625	31.744900
618.312744	1525.952026	9843.483398	4167.090820	31.753878
618.650024	1523.746582	9816.908203	4155.842773	31.738150
618.987305	1523.526001	9787.244141	4150.660156	31.791191
619.324585	1529.370483	9754.933594	4142.941406	31.773760
619.661743	1528.267822	9729.902344	4130.811523	31.732012
619.998901	1531.465820	9711.817383	4132.685547	31.798386
620.336060	1534.001953	9686.896484	4119.453613	31.712070
620.673096	1539.184814	9661.203125	4102.140625	31.555651
621.010193	1538.633423	9631.980469	4103.243164	31.687876
621.347168	1535.766357	9616.762695	4101.038086	31.744499
621.684082	1534.773926	9601.544922	4098.060059	31.775864
622.020996	1535.545898	9580.703125	4090.010498	31.751581
622.357849	1540.397827	9554.568359	4084.276123	31.742254
622.694641	1540.397827	9528.212891	4081.629883	31.813856
623.031433	1541.941650	9508.142578	4078.652100	31.843414
623.368164	1542.162231	9502.850586	4078.321533	31.858541
623.704895	1541.059570	9505.497070	4082.401855	31.908623
624.041504	1537.971924	9534.609375	4087.804688	31.886311
624.378174	1534.663818	9550.929688	4089.458740	31.870138
624.714783	1534.994629	9583.019531	4093.980225	31.796442
625.051331	1531.906982	9605.955078	4112.947266	31.967117
625.387756	1531.024780	9641.573242	4118.791504	31.906185
625.724304	1531.906860	9667.598633	4126.069336	31.886196
626.060669	1535.656128	9673.332031	4124.305176	31.810667
626.397034	1532.678955	9680.831055	4120.224609	31.756226
626.733337	1532.568604	9681.161133	4119.342773	31.745041
627.069641	1527.716553	9676.640625	4120.114746	31.812767
627.405884	1528.267944	9668.479492	4124.194336	31.890158
627.742126	1527.937012	9663.517578	4124.415039	31.915092
628.078308	1523.526123	9658.775391	4118.901855	31.902843
628.414429	1523.526123	9645.101563	4107.433594	31.815350
628.750488	1524.959595	9631.758789	4100.265137	31.767231
629.086548	1526.062256	9595.479492	4101.919434	31.921230
629.422546	1523.526123	9564.051758	4089.679688	31.915247
629.758545	1525.069824	9526.228516	4080.416748	31.937210
630.094421	1524.187744	9472.195313	4064.757813	31.964867
630.430298	1525.290405	9417.831055	4045.901367	31.936623
630.766113	1526.282959	9351.777344	4028.147705	31.970694
631.101929	1529.260254	9271.388672	4007.085449	32.004444
631.437622	1531.575928	9189.014648	3988.559814	32.086239
631.773376	1529.149902	9111.272461	3966.395020	32.144627
632.109070	1529.149902	9044.116211	3930.225098	31.950579
632.444641	1525.510864	8975.857422	3909.824463	32.002720
632.780273	1528.378052	8906.606445	3885.453857	31.946363
633.115784	1525.069946	8849.706055	3872.772705	32.052139
633.451294	1521.872070	8788.946289	3857.665527	32.142143
633.786682	1520.438477	8727.304688	3840.463135	32.191864
634.122131	1521.982178	8668.307617	3820.283203	32.160599
634.457458	1520.107666	8613.833008	3803.521973	32.189213
634.792847	1519.997314	8549.323242	3790.620117	32.302139
635.128113	1524.739136	8485.807617	3776.946533	32.354336
635.463318	1526.613770	8434.750000	3769.116699	32.461765
635.798584	1525.841919	8377.078125	3761.838867	32.636402
636.133728	1525.952148	8329.109375	3744.195313	32.606083
636.468872	1525.290527	8283.125000	3737.578857	32.736645
636.803955	1524.739136	8240.559570	3729.198242	32.824867
637.139038	1526.613770	8204.279297	3714.863037	32.769676
637.473999	1525.069946	8163.147949	3707.144043	32.872078
637.808899	1525.400757	8111.651855	3693.801025	32.923138
638.143799	1522.202759	8053.869141	3676.488037	32.982166
638.478638	1523.415771	7994.541504	3655.536133	32.948212
638.813538	1528.047363	7933.230469	3646.714355	33.077385
639.148315	1530.252808	7868.169434	3636.679199	33.235310
639.483032	1530.583496	7802.336914	3616.279297	33.255386
639.817749	1529.150024	7742.680176	3599.848877	33.325642
640.152405	1527.165161	7685.999023	3579.007324	33.315434
640.487000	1529.480835	7628.216309	3564.341064	33.365280
640.821594	1528.819214	7575.727539	3552.211426	33.461601
641.156128	1528.598511	7530.735840	3538.978516	33.494404
641.490662	1528.267822	7483.979980	3530.267090	33.614777
641.825134	1524.959595	7437.886230	3518.247070	33.710674
642.159546	1522.092651	7393.886719	3509.425293	33.845409
642.493896	1519.666626	7349.887695	3497.074463	33.916515
642.828186	1517.902222	7319.563477	3478.769775	33.798382
643.162537	1516.358398	7284.606934	3465.647217	33.793427
643.496765	1515.696777	7244.688477	3455.061035	33.851757
643.830994	1516.027588	7218.002441	3436.976074	33.689178
644.165100	1513.380981	7196.499023	3428.264160	33.694233
644.499268	1510.293457	7173.011230	3419.331787	33.712406
644.833313	1509.301025	7158.014160	3414.370117	33.725719
645.167358	1515.035156	7139.157715	3417.457520	33.826118
645.501343	1513.491211	7132.981934	3413.928955	33.818684
645.835327	1509.962524	7123.058105	3400.806641	33.686298
646.169189	1508.529053	7114.456055	3395.403320	33.658562
646.503052	1512.057617	7104.311035	3395.072510	33.671844
646.836914	1513.932251	7088.541504	3398.270508	33.802158
647.170654	1516.578979	7080.492676	3394.080078	33.744255
647.504395	1517.461182	7083.359375	3394.631592	33.726280
647.838074	1520.107666	7085.785156	3390.992188	33.614677
648.171753	1518.563965	7084.130859	3389.338623	33.613373
648.505371	1519.666626	7081.926270	3386.581787	33.563969
648.838928	1519.666626	7087.440430	3384.817383	33.499039
649.172424	1521.982300	7097.144531	3379.634766	33.320152
649.505920	1522.754150	7098.687500	3377.759766	33.268074
649.839294	1523.526245	7092.181641	3381.288574	33.361057
650.172729	1525.070068	7090.195801	3379.303467	33.318802
650.506104	1525.731567	7093.063965	3375.223633	33.220436
650.839355	1524.959595	7090.638184	3379.413574	33.319458
651.172668	1528.157593	7082.256836	3379.965332	33.341282
651.505859	1533.671265	7068.252441	3372.687012	33.227734
651.839111	1538.082153	7056.342773	3368.827637	33.176132
652.172241	1535.876709	7041.786621	3360.446777	33.138393
652.505371	1535.435547	7022.710449	3359.233887	33.236870
652.838379	1536.648560	7007.603516	3358.130859	33.293682
653.171387	1536.758789	6991.062500	3353.720215	33.312435
653.504333	1537.310181	6964.927734	3342.362305	33.256802
653.837280	1534.001953	6946.622559	3329.239990	33.167629
654.170227	1533.781494	6934.712891	3323.946777	33.145489
654.503052	1535.214966	6922.582520	3323.284668	33.190044
654.835876	1537.751221	6907.695801	3319.646240	33.182747
655.168579	1542.713379	6891.927246	3320.417725	33.233002
655.501343	1541.279907	6883.436035	3320.969482	33.314068
655.833984	1544.477783	6877.039551	3320.087402	33.297501
656.166626	1543.044312	6878.804199	3323.065186	33.360214
656.499268	1544.588013	6896.999023	3329.460205	33.347069
656.831787	1545.580444	6924.126465	3339.605713	33.355209
657.164307	1540.287598	6959.083496	3350.963623	33.414730
657.496765	1539.625854	6995.473145	3363.424561	33.428333
657.829224	1541.059448	7031.642090	3376.546387	33.429729
658.161621	1538.302612	7066.819336	3392.756592	33.543427
658.493958	1535.986938	7092.732910	3404.114990	33.619099
658.826233	1532.568604	7112.912109	3411.944092	33.678490
659.158508	1530.032227	7145.002441	3417.126953	33.608276
659.490723	1530.914429	7156.470215	3419.994141	33.580322
659.822876	1531.576050	7165.181641	3423.302490	33.579319
660.154968	1531.245239	7168.710449	3418.671143	33.480045
660.487061	1529.921875	7173.231934	3425.176758	33.584099
660.819153	1531.906860	7170.034180	3426.940918	33.611053
661.151123	1530.473267	7159.007324	3433.227051	33.805492
661.483093	1531.134888	7142.245605	3429.918457	33.839710
661.815002	1528.708740	7124.049805	3432.455078	34.023777
662.146851	1524.077393	7100.892090	3424.405029	34.075504
662.478760	1521.320557	7082.146484	3415.914063	34.070358
662.810486	1519.666504	7055.461426	3407.864258	34.108883
663.142212	1519.004883	7017.968750	3395.734375	34.128784
663.473938	1521.430908	6967.243164	3383.824707	34.198639
663.805603	1521.320557	6898.985352	3361.990723	34.228054
664.137207	1523.967041	6828.961914	3343.795654	34.304058
664.468689	1525.400635	6759.269531	3323.726074	34.359390
664.800293	1526.172607	6684.834961	3300.678955	34.398579
665.131775	1529.921875	6612.826660	3276.088623	34.353718
665.463196	1529.480713	6554.823730	3259.877930	34.433418
665.794617	1531.906860	6497.812500	3250.615234	34.610168
666.125916	1537.530640	6446.314941	3240.360107	34.689434
666.457275	1537.971802	6413.785156	3226.686279	34.634518
666.788574	1536.979370	6383.789551	3218.305420	34.689331
667.119812	1539.295044	6353.906250	3219.187500	34.891548
667.450928	1540.397827	6330.308105	3214.335449	34.947163
667.782104	1540.177368	6313.988281	3206.285645	34.901009
668.113159	1540.397827	6295.461914	3197.684570	34.853092
668.444214	1535.876709	6287.633301	3191.840088	34.849499
668.775208	1536.758789	6277.928711	3185.223633	34.769157
669.106201	1540.067017	6267.453125	3185.333740	34.802883
669.437134	1543.044312	6245.729004	3182.135742	34.854378
669.768005	1546.904053	6219.263184	3175.078613	34.846947
670.098877	1548.999146	6209.559570	3170.667480	34.795563
670.429688	1548.227295	6190.813477	3163.940918	34.802017
670.760437	1550.101929	6188.717773	3163.610107	34.784260
671.091187	1550.542969	6176.477539	3156.883545	34.724670
671.421814	1549.109375	6162.472656	3148.172363	34.661545
671.752441	1546.573120	6143.506836	3147.400391	34.823807
672.083008	1542.934204	6130.383789	3147.510498	34.977524
672.413574	1544.367798	6119.577148	3142.989258	34.940945
672.744080	1539.846558	6102.816406	3131.852051	34.889679
673.074524	1536.758911	6089.362793	3121.706787	34.814095
673.404968	1535.876709	6066.977539	3118.178223	34.920910
673.735352	1536.869019	6040.401855	3112.223145	34.980408
674.065613	1533.560913	6016.141602	3101.526855	34.979092
674.395935	1531.355469	6001.144531	3091.822998	34.911434
674.726196	1528.819214	5980.192871	3089.948486	35.070732
675.056335	1529.150024	5964.313965	3085.206543	35.084530
675.386536	1531.796509	5940.384766	3078.590332	35.085922
675.716614	1528.929443	5925.387695	3069.989014	35.052299
676.046692	1526.503296	5913.808594	3065.577881	35.080181
676.376770	1526.834229	5913.698730	3062.710938	35.010811
676.706726	1523.856812	5920.866699	3064.475342	35.037868
677.036621	1524.518555	5919.323242	3066.460205	35.085556
677.366516	1525.290405	5932.114746	3065.247314	34.944824
677.696411	1521.210327	5936.635254	3064.916504	34.961670
678.026184	1518.343384	5951.631836	3070.650635	35.014801
678.355957	1517.902100	5965.967285	3078.149170	35.076981
678.685669	1519.997314	5992.542969	3081.457031	34.912102
679.015320	1519.666626	6014.707520	3084.544678	34.813431
679.344971	1521.210449	6027.168945	3094.249023	34.910187
679.674561	1522.313232	6048.010254	3100.645020	34.874886
680.004150	1517.240723	6064.110352	3105.276367	34.925911
680.333618	1518.453735	6078.115234	3112.002930	34.948849
680.663086	1517.791992	6094.435059	3115.310791	34.905907
680.992493	1519.997437	6107.778320	3120.714355	34.890877
681.321899	1521.761719	6110.093750	3129.205322	35.033287
681.651184	1523.746704	6108.219238	3130.638672	35.050747
681.980530	1526.393188	6103.146973	3129.977051	35.037582
682.309753	1526.723999	6094.655762	3129.315430	35.083527
682.638977	1527.385498	6081.533691	3124.684082	35.073486
682.968079	1528.929199	6066.426270	3119.060059	35.044228
683.297241	1531.024414	6046.797852	3113.436035	35.041874
683.626343	1532.678589	6027.499512	3108.473877	35.058022
683.955383	1530.803955	5996.403320	3097.887939	35.092354
684.284363	1533.340332	5959.351563	3091.602295	35.206913
684.613281	1533.119751	5924.835938	3082.229248	35.273441
684.942139	1531.355469	5886.681641	3073.076416	35.398518
685.271057	1532.348022	5854.041016	3065.247314	35.469879
685.599792	1529.260376	5815.224121	3056.204834	35.626629
685.928589	1530.363037	5784.348633	3046.059814	35.630043
686.257324	1527.716553	5753.692871	3031.724365	35.589592
686.585999	1528.488525	5724.580566	3021.799805	35.588146
686.914612	1531.024780	5680.582031	3015.844971	35.782619
687.243164	1531.024780	5642.647949	3003.825439	35.820419
687.571777	1531.245117	5601.516602	2993.018555	35.913414
687.900269	1530.363037	5560.385254	2979.565186	35.960152
688.228699	1528.378052	5526.420898	2963.355225	35.891991
688.557129	1530.362915	5496.758301	2953.541016	35.880894
688.885498	1526.393188	5467.314941	2948.137695	36.076447
689.213867	1525.510986	5442.834473	2941.410889	36.144573
689.542114	1524.628906	5421.772461	2936.448730	36.227043
689.870361	1523.636475	5396.079102	2930.273682	36.324287
690.198608	1522.313110	5375.126465	2922.223633	36.334759
690.526794	1522.533813	5343.258301	2911.085938	36.342640
690.854858	1522.313110	5320.982910	2908.329346	36.486881
691.182922	1516.248169	5299.259277	2900.610107	36.594181
691.510986	1516.358398	5276.433105	2894.104248	36.641449
691.838928	1521.320679	5241.477051	2885.392578	36.667061
692.166931	1522.974731	5200.455566	2874.255127	36.744728
692.494812	1526.282837	5167.484375	2862.345947	36.692917
692.822632	1525.841797	5120.288086	2857.604248	37.050560
693.150452	1527.495850	5083.236328	2853.413574	37.289497
693.478149	1525.952148	5042.655762	2849.113037	37.625034
693.805908	1527.826782	5017.734375	2840.952881	37.626385
694.133606	1527.606079	4996.671875	2836.431641	37.728474
694.461243	1529.039673	4976.712402	2831.800293	37.786667
694.788818	1530.583496	4963.038086	2826.947998	37.767857
695.116333	1532.458130	4961.714844	2828.712402	37.799858
695.443848	1532.347900	4954.547363	2826.727539	37.823032
695.771301	1534.663452	4967.780273	2827.058105	37.644939
696.098755	1536.869019	4989.614258	2832.902832	37.536331
696.426147	1538.302612	5020.049316	2846.686768	37.578384
696.753418	1537.751343	5064.489258	2858.155029	37.439804
697.080688	1537.530640	5103.635742	2879.106689	37.620205
697.407898	1537.199829	5152.597168	2895.647949	37.573963
697.735107	1537.310059	5187.553223	2907.226563	37.529457
698.062317	1540.066895	5222.729980	2919.246582	37.450607
698.389404	1541.831421	5252.503906	2931.155762	37.441311
698.716492	1540.949097	5280.292480	2934.574219	37.269249
699.043457	1536.427979	5295.730957	2940.418701	37.347103
699.370483	1534.884155	5303.449219	2944.277832	37.398685
699.697388	1536.207397	5314.476563	2935.015137	37.022449
700.024292	1536.648438	5318.777832	2928.840088	36.809731
700.351135	1538.192261	5310.507324	2921.451660	36.668716
700.677917	1537.309937	5302.567383	2919.907715	36.719875
701.004639	1538.192139	5290.989258	2916.489502	36.727203
701.331299	1538.853760	5274.338379	2915.055908	36.841328
701.658020	1535.876465	5256.915039	2909.983154	36.928043
701.984619	1535.435303	5223.171387	2905.131104	37.141914
702.311218	1537.640747	5193.177246	2895.647949	37.149326
702.637756	1539.074341	5146.642578	2882.855957	37.248959
702.964233	1536.207275	5091.506348	2866.205078	37.408886
703.290649	1532.678711	5023.027344	2843.709473	37.561600
703.617065	1532.237671	4950.688477	2820.331543	37.680634
703.943481	1531.024658	4864.344727	2791.991699	37.829163
704.269775	1528.708862	4791.344238	2770.708984	38.067390
704.596008	1528.267822	4730.583984	2749.536865	38.137054
704.922241	1525.510986	4663.869141	2729.356934	38.359100
705.248474	1526.503418	4603.991211	2711.603027	38.508671
705.574585	1524.959717	4556.352539	2703.773682	38.886875
705.900696	1525.400757	4518.529297	2696.385498	39.122437
706.226746	1526.503540	4489.969238	2690.099854	39.264713
706.552734	1525.621338	4460.085449	2687.012207	39.577614
706.878723	1523.526245	4434.391602	2681.057373	39.765877
707.204651	1522.533813	4421.049316	2675.764404	39.786938
707.530518	1526.282959	4410.683105	2672.235596	39.729324
707.856323	1523.526123	4401.089844	2663.523926	39.616772
708.182068	1521.761719	4400.096680	2653.378906	39.314995
708.507813	1526.282837	4397.781250	2652.717285	39.228104
708.833496	1525.841797	4395.465332	2648.196289	39.111557
709.159180	1522.092407	4407.264648	2650.511963	39.110992
709.484802	1519.335693	4415.645020	2650.732666	39.063404
709.810303	1521.982178	4421.489746	2652.827637	39.001293
710.135864	1522.643799	4431.855469	2654.371582	38.901527
710.461304	1523.415771	4434.281738	2660.546631	39.065037
710.786743	1522.754150	4447.514648	2665.619385	39.075516
711.112122	1522.974731	4447.183594	2665.729492	39.079105
711.437500	1524.739136	4451.043457	2668.706543	39.092567
711.762817	1526.723999	4454.351074	2669.147949	39.022182
712.088013	1525.952148	4456.335938	2668.155273	38.977936
712.413269	1532.017090	4455.343262	2663.413574	38.702370
712.738403	1533.009521	4461.628906	2655.915283	38.342495
713.063538	1530.142578	4457.989746	2654.150879	38.390266
713.388611	1526.282959	4458.431152	2652.166016	38.397892
713.713623	1523.085083	4456.666992	2653.378662	38.529469
714.038574	1522.533691	4455.343750	2650.952881	38.475700
714.363525	1517.571411	4444.757813	2648.086182	38.621208
714.688477	1518.784424	4438.692871	2653.709961	38.868530
715.013306	1518.233032	4424.467285	2658.231201	39.225956
715.338135	1517.240479	4405.832031	2654.592285	39.373924
715.662842	1516.799438	4392.268066	2649.850586	39.404049
715.987549	1514.704346	4365.250977	2644.888184	39.647968
716.312195	1515.586548	4337.020996	2638.492432	39.799110
716.636841	1510.072876	4309.893555	2631.104004	40.039387
716.961426	1512.940063	4277.473633	2622.171875	40.123650
717.285950	1510.624390	4246.596680	2610.703369	40.207973
717.610474	1510.513916	4219.910645	2598.904297	40.170948
717.934937	1511.616699	4188.042480	2592.287842	40.377399
718.259277	1510.293579	4158.048828	2580.709473	40.427296
718.583679	1511.065308	4126.400391	2571.446777	40.544765
718.908020	1511.506470	4098.060059	2561.081055	40.578110
719.232239	1507.205811	4065.860107	2553.913574	40.908527
719.556519	1505.882568	4031.344971	2549.612793	41.328281
719.880737	1508.529053	4001.350830	2538.475342	41.316483
720.204834	1513.270752	3963.527588	2532.410400	41.593178
720.528931	1516.248047	3929.343262	2524.360596	41.776741
720.852966	1519.335693	3900.341797	2518.736572	41.973888
721.176941	1523.305542	3871.340088	2510.576416	42.046692
721.500916	1525.069824	3841.566650	2496.461182	41.933636
721.824829	1525.510986	3815.542480	2484.882568	41.893379
722.148743	1523.967041	3794.039063	2478.817627	42.062569
722.472534	1524.849243	3771.322266	2476.943115	42.381718
722.796326	1528.047241	3750.590820	2469.003418	42.336906
723.119995	1527.716553	3727.654297	2462.166260	42.476189
723.443665	1531.796631	3714.201172	2455.770752	42.337437
723.767334	1531.686279	3707.695801	2457.755615	42.558147
724.090942	1534.774048	3705.820801	2459.299316	42.584309
724.414551	1535.435547	3699.424561	2455.880859	42.534657
724.737976	1536.207520	3699.755615	2450.477539	42.257900
725.061462	1539.405396	3692.477783	2447.610596	42.181828
725.384888	1539.405518	3692.257324	2447.389648	42.175877
725.708252	1540.949341	3693.801270	2450.587646	42.252708
726.031616	1539.736206	3705.379883	2452.793213	42.161003
726.354858	1541.390381	3719.053223	2453.344482	41.877655
726.678162	1537.751343	3719.604980	2453.895996	41.989285
727.001404	1536.317749	3735.263428	2455.990967	41.823368
727.324463	1538.964355	3741.769775	2456.432129	41.649967
727.647583	1536.758911	3746.511230	2458.748047	41.723640
727.970642	1536.648682	3750.922363	2459.630127	41.683258
728.293701	1536.758789	3754.451172	2464.261475	41.822872
728.616699	1534.002075	3762.831543	2465.805176	41.806835
728.939575	1531.465820	3774.961670	2468.782471	41.779289
729.262512	1528.929443	3786.760742	2468.672607	41.621494
729.585266	1530.473267	3800.875732	2472.642334	41.497890
729.908142	1531.796631	3818.629883	2473.634766	41.185257
730.230896	1532.678711	3826.128418	2478.045654	41.220303
730.553467	1533.450562	3835.611572	2479.479248	41.093071
730.876160	1534.773926	3837.927002	2481.354004	41.099312
731.198792	1536.097290	3846.527832	2484.662109	41.055759
731.521362	1536.758911	3854.026855	2491.719238	41.210609
731.843872	1535.656128	3861.084473	2496.571533	41.322083
732.166321	1532.678711	3866.487793	2497.453613	41.339066
732.488770	1532.017212	3865.495117	2495.689453	41.297676
732.811157	1530.032227	3856.783447	2497.563721	41.582935
733.133484	1528.378174	3843.440918	2496.571533	41.821472
733.455811	1530.693848	3832.854248	2498.225342	42.027111
733.778015	1531.576172	3824.032715	2496.130371	42.075134
734.100281	1528.157593	3820.725098	2489.955078	41.952854
734.422424	1527.385742	3806.279053	2483.448730	41.952950
734.744507	1525.511108	3792.605713	2480.471436	42.122646
735.066589	1524.077515	3784.444824	2479.699707	42.277298
735.388611	1525.511108	3774.409912	2482.897461	42.571339
735.710571	1528.598755	3754.340820	2474.958252	42.518829
736.032532	1531.576172	3740.666748	2464.923096	42.250278
736.354431	1531.024780	3725.558838	2456.983643	42.193867
736.676270	1527.165161	3713.097900	2456.432373	42.511246
736.998108	1525.070068	3704.386475	2451.690430	42.518852
737.319824	1523.967407	3695.013428	2449.595215	42.635109
737.641541	1519.225586	3684.647949	2444.853516	42.745838
737.963135	1520.107788	3675.936768	2443.860840	42.849087
738.284790	1520.218018	3657.190430	2435.149658	42.814388
738.606323	1518.894775	3644.950439	2433.495605	43.018669
738.927856	1519.776978	3628.299072	2431.620850	43.245644
739.249390	1520.659180	3611.537598	2430.959473	43.536739
739.570740	1524.518677	3597.863770	2426.107422	43.484737
739.892212	1525.731567	3585.733643	2422.357910	43.525509
740.213562	1527.385620	3582.977051	2420.042480	43.425797
740.534790	1527.054810	3572.390625	2417.836914	43.551876
740.856079	1529.701416	3558.496582	2416.734131	43.722141
741.177246	1532.458130	3555.850098	2417.395752	43.735352
741.498413	1534.222534	3552.652588	2415.300537	43.651649
741.819580	1531.245117	3538.096436	2409.566406	43.766136
742.140625	1531.796509	3528.392578	2399.421143	43.455193
742.461670	1531.796509	3519.239502	2399.090332	43.638676
742.782654	1530.032104	3500.052002	2398.759521	44.097393
743.103577	1527.275146	3486.708984	2396.443848	44.358154
743.424438	1528.488159	3469.396484	2389.276123	44.349751
743.745300	1528.929443	3453.737305	2387.952881	44.629047
744.066101	1529.260132	3436.093750	2380.344238	44.633369
744.386902	1534.442871	3418.780762	2374.940674	44.604412
744.707581	1532.899048	3395.182617	2368.324463	44.860268
745.028198	1531.906616	3382.722168	2369.537354	45.257385
745.348816	1530.693726	3369.268555	2361.928467	45.210819
745.669373	1530.583374	3360.998535	2359.502441	45.285851
745.989929	1529.921753	3352.176758	2354.760742	45.264740
746.310364	1530.804077	3345.119141	2349.798584	45.140697
746.630798	1530.583496	3336.958740	2349.136963	45.314697
746.951172	1528.378052	3327.034180	2345.718262	45.441715
747.271545	1526.393066	3320.858887	2347.923828	45.781353
747.591858	1525.621216	3316.999268	2349.908936	46.014168
747.912109	1525.621216	3315.676025	2350.570557	46.085144
748.232300	1522.533569	3319.976563	2344.395264	45.723938
748.552429	1526.834229	3321.961426	2346.380127	45.653919
748.872559	1528.267822	3316.889160	2348.696045	45.869308
749.192627	1528.488403	3319.645752	2351.563232	45.952122
749.512695	1530.362915	3321.299805	2346.600830	45.576031
749.832642	1533.781494	3316.337891	2349.908936	45.784103
750.152588	1536.538208	3315.455322	2352.996582	45.896370
750.472473	1537.310181	3308.948975	2348.254639	45.773689
750.792358	1538.854126	3300.789551	2351.452637	46.119652
751.112122	1539.515747	3296.157715	2349.467529	46.107960
751.431824	1540.397827	3291.968018	2350.019043	46.222595
751.751587	1542.162109	3293.952393	2347.593018	45.977589
752.071228	1546.021606	3284.909912	2348.144287	46.128475
752.390869	1547.786133	3282.925537	2344.064453	45.891315
752.710327	1550.542847	3281.712402	2341.087158	45.665333
753.029846	1546.793579	3276.198730	2343.072021	46.043488
753.349304	1546.793579	3271.787598	2337.117432	45.816036
753.668762	1546.793579	3271.125732	2333.368164	45.616188
753.988098	1547.786011	3263.627197	2328.185059	45.482010
754.307434	1547.786011	3258.113770	2325.318115	45.460999
754.626770	1548.006470	3243.006348	2318.922363	45.481766
754.946045	1548.557861	3226.465820	2324.215332	46.227654
755.265259	1546.462646	3212.791748	2319.583740	46.396664
755.584351	1544.698242	3212.901855	2315.062744	46.179287
755.903442	1543.816162	3206.836670	2310.431152	46.097748
756.222534	1541.059204	3204.521484	2316.385986	46.609219
756.541565	1536.097046	3203.859863	2314.401123	46.667553
756.860535	1534.553223	3199.559082	2316.055176	46.936890
757.179443	1535.104614	3201.985107	2317.819580	46.956875
757.498291	1532.237549	3200.220703	2318.591309	47.143986
757.817139	1529.260254	3202.977295	2320.024902	47.246017
758.135925	1529.811523	3206.947510	2316.826904	46.926151
758.454651	1529.370483	3203.639160	2312.636475	46.782574
758.773376	1526.944580	3206.837158	2310.100342	46.619396
759.092041	1526.282959	3200.110596	2311.644043	46.920071
759.410645	1522.864502	3200.110596	2311.092529	46.995373
759.729187	1524.628784	3204.411133	2307.895020	46.629032
760.047607	1525.841797	3205.844971	2307.784668	46.544132
760.366089	1527.716431	3206.396240	2308.446533	46.508579
760.684509	1528.047119	3214.887207	2307.012939	46.178997
761.002869	1528.157471	3226.245117	2310.431396	46.067936
761.321228	1526.834229	3258.114258	2321.679199	45.910828
761.639465	1523.415771	3301.450928	2330.500977	45.391972
761.957642	1524.628784	3355.594971	2342.520508	44.669952
762.275879	1524.297974	3392.095215	2359.723145	44.727829
762.593994	1528.047241	3424.294678	2370.529541	44.428921
762.912109	1529.811646	3457.266357	2380.454346	44.132954
763.230103	1533.781494	3481.416016	2387.952881	43.856861
763.548157	1530.914429	3510.197266	2394.569092	43.634727
763.866150	1530.142578	3521.555176	2399.200684	43.640285
764.184021	1533.671265	3534.346680	2399.751953	43.289413
764.501892	1533.561157	3543.609863	2400.413818	43.125954
764.819702	1535.545898	3548.902832	2400.634277	42.967461
765.137451	1534.443115	3551.218262	2402.288574	43.031345
765.455200	1535.215088	3557.062988	2402.177979	42.879730
765.772888	1536.317749	3558.386230	2400.634277	42.744179
766.090515	1535.215088	3556.290527	2399.311035	42.754265
766.408081	1536.758789	3554.195313	2399.641846	42.771263
766.725586	1537.310181	3549.674805	2399.200928	42.829750
767.043091	1536.207397	3542.837891	2397.877441	42.941143
767.360535	1533.671143	3533.905518	2395.230957	43.072945
767.677917	1533.560791	3512.953613	2389.607178	43.247929
767.995239	1531.686157	3482.959473	2380.564941	43.503838
768.312500	1535.104614	3428.705322	2366.449951	43.902885
768.629822	1532.678711	3368.716797	2353.106934	44.684708
768.947021	1531.576050	3315.345703	2337.337891	45.171856
769.264160	1528.378174	3279.175537	2327.854248	45.663540
769.581299	1528.488281	3238.375000	2319.253174	46.246624
769.898376	1523.856812	3201.103027	2310.431396	46.896786
770.215393	1529.260132	3163.059082	2296.647217	46.969494
770.532349	1530.252563	3136.483643	2288.817627	47.226398
770.849304	1527.495850	3109.136230	2277.239014	47.402885
771.166199	1529.590942	3082.450195	2270.402344	47.706280
771.483032	1529.921753	3060.395264	2269.630371	48.332012
771.799866	1530.031982	3043.634033	2266.432617	48.652195
772.116577	1529.590942	3022.461670	2264.227051	49.209625
772.433350	1529.591064	3013.529541	2261.801270	49.342358
772.749939	1528.929443	2994.341797	2263.124512	50.101601
773.066589	1530.583374	2978.242188	2257.280029	50.198063
773.383057	1531.245117	2968.758545	2257.610840	50.529316
773.699646	1533.671021	2958.282959	2255.294922	50.654068
774.016113	1537.089478	2946.924561	2250.553223	50.606186
774.332520	1537.971680	2943.947266	2243.385498	50.172550
774.648804	1539.625610	2932.699463	2237.100098	50.067303
774.965149	1537.751099	2931.486328	2235.666504	50.075180
775.281433	1539.956543	2928.178223	2232.578857	49.892776
775.597656	1539.846313	2922.885010	2229.490967	49.864452
775.913879	1540.838867	2908.549561	2223.756836	49.931465
776.229980	1539.625854	2895.647949	2218.573975	50.069103
776.546082	1542.603149	2887.598145	2213.391113	49.872898
776.862122	1539.515503	2881.974121	2212.398926	50.123215
777.178162	1536.979248	2869.513428	2210.855225	50.571011
777.494141	1540.728516	2869.292725	2211.627197	50.498024
777.809998	1537.971680	2867.638672	2211.737793	50.671795
778.125854	1533.340332	2864.220215	2208.870605	50.758171
778.441711	1534.332642	2860.581299	2205.672607	50.619465
778.757446	1531.796509	2852.420898	2203.687744	50.876785
779.073181	1534.112183	2842.276123	2202.584717	51.100060
779.388855	1534.222412	2846.466309	2200.820313	50.798325
779.704468	1531.465576	2844.040283	2201.482178	51.045979
780.020020	1532.568359	2835.549561	2193.432373	50.719383
780.335571	1528.488403	2833.233887	2195.306641	51.107151
780.651062	1527.385620	2824.853271	2198.284180	51.708305
780.966553	1523.856934	2813.605225	2202.254150	52.599194
781.281860	1524.298096	2804.231934	2206.774902	53.321259
781.597290	1525.511108	2792.984131	2203.136230	53.462685
781.912476	1522.754272	2783.169922	2201.041016	53.814529
782.227722	1523.746704	2773.355713	2201.261230	54.218121
782.542908	1521.651611	2765.857178	2194.865479	54.107929
782.858093	1520.769409	2761.225586	2188.469971	53.827019
783.173218	1522.313232	2755.491455	2185.051270	53.742275
783.488281	1521.982422	2742.258789	2179.758301	53.903843
783.803345	1523.305664	2738.840332	2174.796143	53.597031
784.118225	1517.902100	2726.930908	2170.495605	53.976673
784.433167	1519.335693	2714.801025	2165.974609	54.090981
784.748047	1521.761719	2708.625732	2157.483154	53.563122
785.062866	1518.674072	2699.252441	2154.947266	53.895042
785.377686	1521.210327	2698.039551	2153.292969	53.710651
785.692444	1517.791870	2690.100098	2146.566406	53.635597
786.007141	1519.114990	2681.057861	2143.919922	53.772430
786.321716	1519.666504	2675.654297	2142.817139	53.906334
786.636353	1516.358276	2677.639160	2147.668945	54.363304
786.950928	1516.137695	2676.205566	2142.596436	54.001904
787.265442	1519.115112	2677.087891	2138.075439	53.452061
787.579834	1520.659058	2684.365967	2138.185547	53.065464
787.894226	1519.776978	2687.784424	2132.892578	52.492439
788.208618	1517.681885	2688.776611	2137.634277	52.937851
788.522949	1519.887207	2689.327881	2136.200684	52.701561
788.837219	1519.556396	2690.871582	2134.987793	52.541912
789.151367	1519.887329	2689.438232	2138.957520	52.932301
789.465515	1520.218140	2688.004639	2144.140137	53.427746
789.779602	1521.100220	2684.806641	2144.912109	53.605606
790.093689	1523.967407	2684.475830	2145.794189	53.582272
790.407776	1522.644043	2679.623779	2145.132324	53.802868
790.721741	1523.636475	2679.403076	2146.345703	53.878460
791.035645	1523.415771	2679.072266	2146.896973	53.950390
791.349548	1525.510986	2671.573730	2148.441162	54.353931
791.663391	1529.921875	2665.619141	2148.551270	54.471329
791.977173	1531.134888	2654.701904	2148.771973	54.971096
792.290894	1533.560791	2648.195801	2152.631592	55.540226
792.604614	1532.899170	2638.381592	2147.228027	55.571110
792.918274	1532.127319	2627.244141	2143.368408	55.815147
793.231812	1534.112305	2614.783447	2139.618896	56.030605
793.545410	1535.876587	2603.315186	2140.831787	56.673534
793.858948	1531.796387	2591.957275	2141.824707	57.541107
794.172363	1531.575928	2579.827148	2140.611572	58.100163
794.485840	1531.906738	2572.990234	2136.531494	58.076488
794.799194	1533.009521	2566.925293	2131.569092	57.892490
795.112488	1534.442871	2563.065674	2133.002441	58.190384
795.425781	1536.427856	2558.434326	2125.944824	57.682312
795.738953	1536.538086	2551.928223	2126.827393	58.134235
796.052185	1540.177124	2545.752930	2125.283203	58.186172
796.365234	1536.868896	2541.672852	2121.864990	58.219925
796.678284	1533.671143	2542.995850	2120.100830	58.101192
796.991333	1533.671021	2542.113770	2122.857666	58.425392
797.304382	1533.009521	2535.828369	2118.005615	58.335171
797.617310	1534.553345	2533.402588	2114.697266	58.081230
797.930115	1532.678711	2533.733154	2114.366699	58.107529
798.242981	1527.054810	2533.402588	2114.477051	58.371693
798.555786	1524.849365	2534.505127	2113.925293	58.344234
798.868530	1521.430908	2532.189697	2112.381592	58.466045
799.181213	1523.084961	2532.300293	2114.256104	58.577305
799.493896	1520.879517	2529.984619	2114.035645	58.780411
799.806519	1518.343262	2528.661377	2110.837891	58.644363
800.119080	1519.004883	2524.360596	2101.023682	57.891827
800.431580	1520.989868	2521.603516	2090.988770	56.964935
800.744080	1523.526123	2519.287842	2084.923828	56.378719
801.056458	1525.180298	2511.678955	2085.033936	56.751587
801.368835	1527.716309	2504.952393	2081.946533	56.714058
801.681152	1525.731567	2493.814697	2076.983887	56.942665
801.993408	1522.423218	2482.677002	2075.440186	57.590710
802.305664	1521.982178	2479.148193	2068.823730	57.131317
802.617798	1516.909668	2470.877930	2060.663574	56.999161
802.929993	1518.673950	2462.607422	2060.994385	57.453247
803.242065	1518.012329	2452.241943	2057.686279	57.766735
803.554016	1519.886963	2452.241699	2051.621582	57.031364
803.865967	1521.541138	2451.249512	2053.937256	57.264851
804.177979	1520.438477	2448.823730	2054.488770	57.524643
804.489807	1519.887207	2439.670898	2053.826904	58.050571
804.801697	1522.202881	2436.583252	2053.826904	58.140358
805.113464	1522.974854	2436.031738	2052.614014	58.007248
805.425232	1525.952148	2434.598145	2049.416016	57.609219
805.736938	1523.526123	2427.981689	2047.982300	57.985844
806.048584	1525.400879	2424.673584	2045.887085	57.878574
806.360168	1529.150146	2425.004395	2047.100464	57.816360
806.671753	1527.937134	2423.239990	2051.952148	58.529358
806.983276	1526.172729	2419.160156	2053.054932	59.002197
807.294739	1525.290405	2412.654053	2052.393311	59.401001
807.606140	1521.431030	2407.360840	2052.724121	59.970112
807.917542	1521.541260	2403.611816	2050.408447	59.957470
808.228760	1522.864624	2400.524170	2048.092773	59.844177
808.540100	1523.526245	2402.068115	2051.401123	60.085342
808.851318	1523.967407	2397.877686	2052.283203	60.454239
809.162476	1525.952148	2394.900146	2052.173096	60.558392
809.473633	1524.849487	2395.230957	2050.959961	60.445965
809.784668	1525.731689	2395.010498	2054.929932	60.877850
810.095703	1526.503540	2388.614502	2054.488770	61.243301
810.406738	1527.165161	2381.226074	2053.055176	61.575233
810.717590	1526.282959	2371.742676	2049.085205	61.836445
811.028503	1521.761841	2368.103760	2045.887329	61.928337
811.339294	1521.761841	2361.046387	2038.829834	61.608189
811.650085	1522.423462	2352.776123	2033.205933	61.513920
811.960876	1523.085083	2351.121826	2032.213501	61.486210
812.271545	1523.415894	2351.232178	2026.038330	60.716663
812.582153	1522.202881	2341.197266	2022.729858	61.114822
812.892761	1516.689209	2333.809326	2015.562256	61.052597
813.203308	1519.556396	2328.626221	2010.048706	60.624226
813.513855	1520.218018	2325.428467	2009.497437	60.764168
813.824280	1516.248291	2323.884766	2005.858398	60.622585
814.134705	1519.446045	2318.701904	2001.667969	60.333862
814.445068	1518.233032	2317.819580	1998.800537	60.102001
814.755371	1517.350952	2321.458740	1996.595215	59.599506
815.065613	1516.689209	2320.466064	1995.823486	59.610359
815.375854	1513.932373	2315.172852	1992.625610	59.744015
815.686035	1514.263184	2316.496094	1989.427490	59.230217
815.996155	1515.255737	2312.085205	1985.016724	58.953766
816.306152	1518.674194	2304.807373	1981.047119	58.816105
816.616211	1516.579102	2302.822266	1981.047119	59.074348
816.926208	1518.674316	2306.020508	1978.841675	58.445366
817.236145	1520.659058	2308.997803	1981.819214	58.497715
817.546021	1525.841797	2317.157959	1986.229858	58.180038
817.855774	1526.503540	2324.105225	1989.097046	57.998062
818.165588	1525.400879	2339.763916	1995.823608	57.765728
818.475281	1524.629028	2349.908936	1999.903687	57.589512
818.784973	1525.290527	2366.339600	2011.261475	57.781521
819.094604	1526.062500	2396.885010	2020.855225	56.819008
819.404175	1527.275513	2419.821533	2033.867554	56.758087
819.713684	1526.172729	2456.762939	2047.872070	56.061127
820.023254	1524.298096	2534.284180	2073.014160	54.329071
820.332642	1524.187866	2684.475342	2114.917725	50.912369
820.642090	1523.636475	2922.443848	2183.948486	47.205357
820.951416	1522.974854	3194.376465	2272.386963	44.837345
821.260681	1523.967285	3454.178467	2366.339355	43.641445
821.569946	1525.400879	3665.019775	2446.287109	43.039730
821.879150	1529.150024	3838.809082	2509.142578	42.430180
822.188293	1528.929443	3977.311768	2560.749756	42.142941
822.497437	1528.708862	4100.045410	2606.954102	41.933262
822.806458	1526.613647	4208.553711	2646.762939	41.766384
823.115479	1529.480835	4293.243164	2678.080078	41.559265
823.424438	1529.370483	4370.543945	2707.192139	41.455467
823.733337	1527.165039	4440.566895	2730.349365	41.298264
824.042236	1525.952148	4501.988770	2745.787598	40.988590
824.351013	1526.944458	4551.832031	2760.012939	40.764107
824.659790	1526.944458	4587.119141	2773.466064	40.733673
824.968445	1522.202881	4637.402832	2787.360596	40.612408
825.277100	1523.195313	4701.140625	2807.430176	40.410854
825.585693	1521.871826	4773.699707	2830.918457	40.255718
825.894287	1523.084961	4851.772949	2855.398682	40.025192
826.202820	1521.100098	4899.300781	2878.886719	40.192596
826.511292	1524.959595	4891.250977	2881.422852	40.295479
826.819702	1528.488281	4792.556641	2867.638672	41.027031
827.128113	1529.260376	4605.093750	2817.795654	41.892231
827.436401	1532.678711	4370.654297	2745.787598	42.745571
827.744751	1533.230103	4138.199707	2665.950195	43.483044
828.052917	1533.340210	3952.059082	2593.721191	43.840607
828.361145	1528.819092	3805.065918	2543.437012	44.574162
828.669312	1527.054688	3683.545410	2502.195313	45.218864
828.977356	1525.400635	3573.272705	2463.158936	45.791840
829.285400	1525.841675	3477.335938	2426.327881	46.143421
829.593384	1523.856812	3398.711426	2398.649414	46.659222
829.901306	1522.312988	3322.182373	2372.404541	47.230736
830.209167	1524.849243	3253.482178	2349.578369	47.709904
830.517029	1525.731323	3192.501465	2329.729004	48.236866
830.824829	1524.518311	3135.821533	2317.047607	49.185608
831.132568	1527.606079	3096.564453	2296.316406	48.994946
831.440247	1530.252563	3047.713623	2279.775391	49.393215
831.747925	1528.157471	2990.372070	2257.500488	49.879341
832.055481	1528.488159	2934.133301	2240.298096	50.639378
832.363037	1530.693604	2880.430176	2225.080322	51.446091
832.670532	1532.678589	2841.614502	2204.238770	51.305809
832.977966	1532.568359	2810.517578	2191.005859	51.522980
833.285400	1533.009521	2791.440674	2177.221680	51.191689
833.592712	1533.009399	2771.150391	2169.392334	51.398262
833.900085	1531.355347	2757.917725	2159.688477	51.227165
834.207275	1529.811523	2743.692627	2146.896973	50.835739
834.514526	1529.811523	2728.254395	2141.383301	51.030533
834.821716	1531.465576	2712.705811	2132.781982	50.905514
835.128784	1532.678711	2701.347900	2128.371338	50.971878
835.435852	1535.986816	2698.260254	2125.504150	50.721054
835.742798	1532.568359	2687.894531	2126.827393	51.436474
836.049805	1535.545776	2679.734131	2121.203613	51.185440
836.356750	1536.207520	2666.501465	2114.477051	51.160988
836.663574	1530.031982	2653.048096	2111.720215	51.796963
836.970398	1527.495850	2640.036133	2109.514893	52.314423
837.277161	1529.039673	2629.339355	2103.891113	52.244987
837.583923	1527.385498	2611.916504	2102.347168	53.014774
837.890564	1527.937012	2592.287842	2099.921143	53.740189
838.197205	1528.267822	2561.301270	2101.244385	55.465443
838.503784	1532.237671	2521.272217	2090.216797	56.416546
838.810303	1530.693970	2469.223633	2073.455566	57.831055
839.116699	1530.252808	2421.255127	2060.333008	59.492573
839.423096	1531.024658	2384.203613	2048.423584	60.643658
839.729492	1529.591064	2343.182373	2035.411499	62.171318
840.035828	1528.929443	2307.123535	2024.273804	63.653061
840.342102	1526.723999	2272.056641	2017.106201	65.793739
840.648315	1525.952148	2245.150391	2013.577515	67.801247
840.954529	1526.613892	2223.205811	2006.409546	68.877579
841.260620	1527.606201	2202.033203	2002.660400	70.438194
841.566711	1527.385620	2181.963867	1998.580322	71.984474
841.872803	1526.944458	2162.004395	1995.051758	73.710724
842.178772	1525.731445	2151.308105	1986.229858	73.611824
842.484680	1522.974609	2137.193115	1980.936890	74.560158
842.790588	1521.872070	2127.158203	1981.708862	75.970154
843.096436	1525.841675	2118.667236	1973.328125	75.483665
843.402222	1526.944458	2110.837891	1970.350586	75.939568
843.707947	1523.415771	2102.346924	1969.358276	77.028587
844.013611	1522.423218	2091.429932	1965.719116	77.906975
844.319275	1526.172485	2078.527832	1960.866943	78.698334
844.624817	1527.936890	2068.162598	1949.839844	78.097534
844.930359	1527.826538	2049.857422	1940.135742	78.981766
845.235901	1526.613647	2036.955566	1933.739990	79.775208
845.541321	1525.841797	2020.855713	1925.800415	80.797447
845.846680	1525.510864	2005.638062	1917.089111	81.557190
846.152039	1528.047119	1993.287598	1910.362305	82.175819
846.457275	1528.378052	1981.929443	1902.092041	82.397278
846.762512	1530.032104	1968.806885	1898.783691	84.041199
847.067749	1533.891602	1959.543945	1893.821411	84.559578
847.372925	1534.332764	1948.736938	1889.300049	85.657265
847.677979	1535.325317	1941.789795	1887.425537	86.625092
847.983032	1537.861572	1936.937866	1881.581055	86.128761
848.288025	1535.656006	1930.211548	1875.405640	86.109459
848.592957	1541.390259	1925.138916	1872.869629	86.379288
848.897888	1539.956665	1923.926025	1872.869385	86.702942
849.202759	1540.618286	1920.617798	1870.664307	86.854324
849.507507	1541.831299	1917.199463	1872.649170	88.131577
849.812317	1539.295044	1913.560303	1871.215820	88.685974
850.117004	1541.169678	1907.936401	1870.113037	89.687347
850.421631	1541.941650	1902.863892	1871.436157	91.292381
850.726257	1541.390137	1901.540527	1868.568970	90.845062
851.030823	1540.397827	1898.673584	1864.378662	90.427788
851.335327	1539.736084	1893.821411	1864.158081	91.622551
851.639771	1540.177246	1885.881836	1862.173218	93.141945
851.944153	1540.177124	1881.470825	1863.165527	94.636497
852.248535	1538.964233	1874.854492	1868.017456	97.964500
852.552856	1535.325317	1873.641602	1868.789429	98.565788
852.857056	1534.663696	1873.089844	1868.568848	98.664108
853.161255	1537.861572	1875.515991	1865.701660	97.093376
853.465393	1536.317749	1874.192505	1866.253174	97.650215
853.769531	1532.568359	1873.310669	1862.834839	96.925583
854.073547	1527.165039	1870.884644	1860.078125	96.856010
854.377563	1524.408203	1868.458496	1860.739746	97.756508
854.681580	1520.548828	1865.150269	1864.709473	99.872086
854.985474	1517.681519	1855.446411	1866.804932	103.362846
855.289307	1517.571289	1853.020264	1868.569214	104.635269
855.593140	1517.791870	1852.910156	1868.568970	104.672623
855.896851	1516.137817	1852.469116	1872.318481	105.901733
856.200623	1517.902100	1850.153687	1873.531494	107.036179
856.504272	1518.453613	1852.800049	1870.002563	105.145119
856.807922	1515.917358	1854.454102	1865.150513	103.159599
857.111389	1513.711914	1852.579468	1866.583862	104.132706
857.414978	1516.248169	1844.419312	1865.260986	106.350853
857.718445	1516.358398	1844.419434	1866.143188	106.621864
858.021790	1517.350952	1843.978394	1864.157959	106.178162
858.325195	1517.681763	1841.993530	1860.849731	105.814224
858.628479	1515.917358	1841.000977	1856.659424	104.816742
858.931763	1516.468750	1837.141357	1854.564331	105.433258
859.234985	1515.476318	1831.297119	1854.233765	107.262550
859.538147	1512.609131	1827.547607	1853.461914	108.228371
859.841248	1511.065308	1827.988647	1855.667236	108.733528
860.144287	1514.924927	1826.996094	1860.077881	110.600716
860.447266	1520.989990	1828.098755	1859.857544	110.341217
860.750305	1525.180298	1825.121460	1861.291138	112.058922
861.053223	1529.150146	1825.011353	1859.857544	111.777885
861.356018	1530.804199	1831.076294	1860.960205	109.952278
861.658813	1531.245239	1826.555054	1857.210693	110.380836
861.961609	1528.378296	1823.247070	1855.777344	111.032120
862.264343	1529.370605	1821.813599	1852.579468	110.520294
862.567017	1529.701416	1819.718384	1853.572021	111.672989
862.869629	1529.480957	1819.608032	1856.108276	112.580780
863.172180	1532.017212	1819.497803	1858.644531	113.617172
863.474670	1527.385742	1816.961304	1855.887817	113.442612
863.777161	1522.643921	1821.151733	1857.983032	112.338470
864.079590	1521.541138	1821.151733	1857.211182	112.035439
864.381958	1521.982300	1821.703369	1858.423950	112.251587
864.684265	1520.107666	1823.688110	1860.188232	112.023216
864.986511	1518.784302	1824.680420	1861.070313	111.896164
865.288757	1520.217896	1824.901001	1861.731934	112.088272
865.590942	1520.438477	1827.106445	1866.253296	112.765221
865.893066	1519.556396	1829.532593	1870.664307	113.269310
866.195068	1517.791992	1828.429932	1869.120483	113.099030
866.497131	1518.894775	1829.311890	1866.363525	111.936081
866.799133	1514.263062	1824.459961	1863.827148	112.691032
867.100952	1509.852295	1821.703125	1859.526611	112.128708
867.402832	1512.939819	1822.364746	1858.534180	111.689247
867.704651	1513.491211	1821.372192	1854.343994	110.709267
868.006409	1515.696533	1822.364624	1854.564575	110.499939
868.308105	1519.335571	1826.775635	1852.579590	108.393166
868.609802	1517.681519	1830.524902	1848.168701	105.639816
868.911438	1515.696655	1832.620361	1844.860352	103.862122
869.213013	1517.571411	1829.863281	1842.985718	104.201981
869.514465	1518.343384	1829.311768	1841.000732	103.758888
869.815979	1522.423340	1833.281616	1842.875366	103.086212
870.117371	1526.834351	1834.825562	1842.214111	102.398949
870.418701	1529.370605	1835.487183	1841.993286	102.125366
870.720093	1530.914429	1839.015991	1838.905640	99.964180
871.021301	1533.671265	1839.787964	1839.126343	99.783867
871.322571	1535.656128	1838.133911	1838.685059	100.182213
871.623718	1534.553467	1840.339233	1842.434570	100.685234
871.924805	1534.222656	1845.191406	1841.772827	98.900665
872.225891	1536.207397	1847.837769	1838.244263	96.921509
872.526917	1541.279907	1846.845459	1837.361938	96.896400
872.827881	1541.831299	1848.389282	1843.206299	98.309296
873.128784	1544.808594	1851.476807	1847.396606	98.669510
873.429626	1546.462646	1858.203491	1850.263550	97.453033
873.730408	1542.603149	1858.313599	1848.719849	96.961220
874.031189	1541.279907	1857.651978	1851.586914	98.082932
874.331848	1539.956543	1858.534180	1850.925171	97.611565
874.632568	1537.530640	1857.431396	1850.484131	97.828308
874.933167	1537.640869	1854.123169	1854.454102	100.104568
875.233704	1539.956665	1853.130737	1858.093140	101.584549
875.534241	1538.082031	1853.902710	1859.196045	101.676056
875.834717	1537.751221	1853.351318	1858.534424	101.642303
876.135071	1536.427979	1851.256104	1860.188477	102.837219
876.435425	1533.450684	1851.035767	1858.754639	102.430489
876.735779	1531.355469	1852.579468	1855.777100	100.995453
877.036011	1528.488403	1853.240845	1859.857300	102.037384
877.336182	1526.172729	1851.586914	1859.306030	102.372093
877.636353	1526.944580	1856.659424	1860.298706	101.103767
877.936462	1525.841797	1863.276001	1860.188477	99.084999
878.236511	1527.937012	1868.348633	1860.519287	97.700035
878.536560	1527.165161	1875.295776	1864.709473	96.959099
878.836487	1523.415771	1889.961914	1869.451294	94.404358
879.136414	1521.431030	1918.963745	1873.531494	88.571442
879.436279	1522.313232	1970.460938	1887.536133	81.496101
879.736084	1522.313110	2053.055176	1911.795898	73.384567
880.035828	1522.864502	2156.711426	1947.524414	66.997238
880.335510	1523.967285	2274.923584	1988.435425	61.850224
880.635193	1523.305664	2391.922607	2028.243530	58.131248
880.934753	1524.518555	2499.879639	2063.530762	55.262836
881.234314	1524.959717	2592.508545	2097.053467	53.589470
881.533752	1523.415771	2675.213135	2123.408936	52.091904
881.833252	1523.085083	2748.654541	2147.448242	50.944740
882.132629	1521.320679	2812.833252	2171.156738	50.315891
882.431946	1519.776855	2872.160156	2190.564941	49.600441
882.731323	1522.864502	2918.805176	2212.729980	49.419399
883.030579	1526.613647	2956.518555	2231.917480	49.325226
883.329712	1526.723877	2991.364746	2247.796875	49.232067
883.628845	1526.282837	3021.027832	2262.242432	49.236465
883.927979	1529.480713	3040.325439	2270.954102	49.076744
884.226990	1530.693604	3058.410156	2273.710693	48.635796
884.526001	1530.803833	3066.460205	2276.908447	48.585388
884.824951	1530.142212	3073.297119	2278.452393	48.492226
885.123840	1530.473145	3074.620361	2278.121582	48.418209
885.422729	1530.473145	3053.227539	2270.953613	48.627701
885.721497	1530.914307	3009.008301	2255.956543	49.052513
886.020203	1532.899292	2928.619141	2233.019775	50.161964
886.318909	1532.678711	2828.602051	2201.922852	51.642262
886.617554	1529.149902	2714.249512	2160.901367	53.307880
886.916138	1528.047241	2597.140137	2119.439209	55.317173
887.214661	1524.408203	2491.829590	2087.790771	58.235489
887.513184	1524.518677	2402.067871	2053.054932	60.228676
887.811523	1527.495850	2321.127686	2023.060791	62.442673
888.109924	1514.483765	2151.307861	1919.735474	63.636364
888.408264	1528.378052	2035.521729	1884.999634	70.319633
888.706543	1546.903931	1977.628662	1884.999634	78.494614
889.004761	1565.429688	1931.314087	1908.156860	93.670891
889.302979	1509.852295	1919.735474	1935.945557	103.954803
889.601135	1470.484985	1905.841187	1894.262573	97.340431
889.899170	1489.010742	1859.526611	1794.686401	82.500015
890.197205	1468.169312	1882.683960	1878.052490	98.882675
890.495178	1528.378052	1875.736694	1838.685181	89.333351
890.793091	1560.798218	1901.209717	1824.790771	77.551010
>>>>>End Processed Spectral Data<<<<<
