Jaz Data File
++++++++++++++++++++++++++++++++++++
Date: Fri Jun 21 03:15:53 2019
User: jaz
Dark Spectrum Present: Yes
Reference Spectrum Present: Yes
Processed Spectrum Present: Yes
Spectrometers: JAZA3541
Integration Time (usec): 119000 (JAZA3541)
Spectra Averaged: 1 (JAZA3541)
Boxcar Smoothing: 10 (JAZA3541)
Correct for Electrical Dark: No (JAZA3541)
Strobe/Lamp Enabled: Yes (JAZA3541)
Correct for Detector Non-linearity: No (JAZA3541)
Correct for Stray Light: No (JAZA3541)
Number of Pixels in Processed Spectrum: 2048
>>>>>Begin Processed Spectral Data<<<<<
W	D	R	S	P
190.543274	0.000000	0.000000	0.000000	0.000000
190.921555	0.000000	0.000000	0.000000	0.000000
191.299805	1558.482544	1405.644653	1729.846069	-112.121101
191.678024	1533.009521	1440.380615	1715.951782	-197.500183
192.056229	1539.956665	1535.325317	1729.846069	-4100.089844
192.434387	1519.115234	1551.535278	1750.687622	714.287720
192.812531	1604.796997	1597.849854	1725.214600	-1733.339722
193.190659	1556.166748	1542.272461	1769.213379	-1533.339722
193.568741	1623.322754	1530.693848	1769.213379	-157.500107
193.946793	0.000000	0.000000	0.000000	0.000000
194.324829	1410.165894	1403.770142	1577.559692	-2617.265381
194.702835	1483.938232	1477.322021	1663.462036	-2713.393066
195.080811	1555.725708	1551.645752	1746.166504	-4667.716797
195.458755	1552.307251	1560.467407	1746.938232	2385.137939
195.836685	1553.520386	1565.540039	1751.459473	1646.795288
196.214569	1554.953857	1568.627808	1754.436890	1458.854492
196.592422	1551.425171	1571.164063	1755.649902	1034.631226
196.970261	1549.219727	1570.833130	1757.744995	964.796082
197.348068	1548.999146	1571.274170	1754.988281	924.753784
197.725861	1545.690796	1573.810425	1755.318970	745.487000
198.103622	1539.625854	1573.589844	1755.429321	635.389038
198.481323	1540.287598	1569.399536	1757.193604	745.075806
198.859039	1539.846436	1568.958374	1758.075684	749.621155
199.236694	1536.758789	1568.296631	1755.870361	694.757690
199.614334	1539.295166	1566.201660	1754.877808	801.229004
199.991959	1540.728760	1571.604858	1751.900635	683.933167
200.369553	1537.751465	1570.502075	1751.900635	653.878418
200.747101	1536.759033	1571.935669	1750.908081	608.782043
201.124619	1535.215210	1570.502197	1751.680054	613.440979
201.502136	1531.796631	1571.274048	1751.349121	556.147034
201.879623	1529.922119	1568.517334	1750.577393	571.716675
202.257065	1525.621216	1569.730225	1750.136353	509.000641
202.634476	1525.621216	1573.589600	1747.158813	461.840851
203.011871	1524.187744	1573.258911	1750.797852	461.798889
203.389221	1524.408203	1571.715088	1751.680054	480.420258
203.766571	1523.415649	1570.722656	1750.908081	480.885284
204.143875	1523.305542	1567.635010	1747.159058	504.976776
204.521164	1526.613770	1564.878296	1747.379517	576.946228
204.898392	1524.408203	1563.444702	1745.394531	566.101807
205.275620	1523.856812	1563.665405	1749.805420	567.587524
205.652817	1524.297852	1562.783081	1749.254150	584.526306
206.029984	1529.370483	1566.422241	1748.813110	592.259705
206.407135	1528.378052	1568.848267	1746.717773	539.507202
206.784225	1530.473389	1569.950928	1748.151367	551.397034
207.161301	1530.252808	1570.281616	1746.386963	539.946533
207.538376	1528.929443	1571.274170	1744.401978	508.853302
207.915405	1529.260376	1568.517456	1743.630005	546.066162
208.292404	1529.480835	1568.737671	1744.843140	548.598206
208.669373	1525.952148	1570.833008	1748.702881	496.315643
209.046310	1524.628784	1571.053589	1749.695068	484.797485
209.423218	1528.267822	1569.509644	1754.547241	548.664978
209.800095	1530.032227	1570.612549	1757.083496	559.510742
210.176956	1530.032227	1570.833130	1761.053345	566.215698
210.553787	1531.686279	1566.201660	1761.604736	666.133362
210.930603	1535.435425	1566.091553	1758.516968	727.689880
211.307358	1536.648438	1565.760620	1759.509277	765.524353
211.684113	1538.412842	1570.391968	1757.965576	686.550171
212.060837	1534.773804	1573.920776	1760.612183	576.898682
212.437531	1533.340210	1574.802856	1756.752563	538.828003
212.814178	1532.458130	1578.772705	1756.421631	483.570251
213.190826	1532.788940	1580.426758	1752.892822	462.036041
213.567413	1530.914307	1580.095947	1750.356812	446.187836
213.943985	1528.267822	1576.015869	1749.695068	463.740936
214.320541	1528.488281	1577.669800	1748.371826	447.085724
214.697052	1527.716431	1577.228760	1743.409546	435.635162
215.073563	1529.591064	1581.198486	1746.276611	419.872833
215.449997	1529.921875	1582.852661	1745.504883	407.292297
215.826431	1528.708862	1588.586670	1746.276733	363.353088
216.202850	1529.370483	1590.792236	1747.489990	355.117676
216.579224	1533.119751	1588.807495	1745.284180	380.989441
216.955582	1533.560791	1588.586914	1746.387085	386.773193
217.331894	1531.135010	1586.932861	1740.873535	375.889954
217.708191	1532.017090	1588.035400	1740.763184	372.639038
218.084442	1537.420532	1591.674438	1738.778320	371.139709
218.460678	1534.443115	1598.180420	1740.542603	323.357697
218.836899	1532.678711	1603.694214	1739.109009	290.683441
219.213074	1532.127563	1606.892090	1740.873291	279.204254
219.589233	1531.024658	1605.348389	1741.204224	282.789307
219.965347	1533.891846	1609.869385	1737.565308	268.070618
220.341431	1535.987061	1615.713867	1741.424805	257.677124
220.717499	1535.435669	1614.721558	1744.071289	263.143433
221.093552	1534.002075	1619.242554	1744.843140	247.348526
221.469543	1535.104858	1625.197510	1749.143799	237.576477
221.845535	1536.207642	1630.380249	1749.364258	226.346725
222.221466	1537.310303	1634.350098	1751.128906	220.341156
222.597397	1535.435547	1642.069214	1754.436890	205.377304
222.973297	1537.420532	1647.362183	1755.098389	197.993988
223.349167	1536.979492	1655.853271	1757.414063	185.435822
223.725006	1537.530640	1662.359375	1759.950562	178.180069
224.100800	1538.082153	1671.952881	1757.303955	163.756332
224.476578	1538.854004	1682.097900	1758.737549	153.502914
224.852325	1537.971680	1701.726563	1758.406616	134.612747
225.228058	1541.279907	1724.332397	1762.376465	120.783150
225.603760	1540.838867	1750.246460	1759.178589	104.265427
225.979416	1536.317749	1779.248169	1757.083496	90.876122
226.355057	1535.325195	1813.322388	1757.414429	79.889023
226.730652	1533.671143	1852.028076	1760.171265	71.146599
227.106232	1534.773926	1886.543335	1757.303955	63.260201
227.481796	1531.575928	1920.286865	1755.318970	57.560265
227.857315	1528.378052	1946.972900	1759.729858	55.268669
228.232788	1528.819214	1971.673950	1759.840088	52.166286
228.608246	1531.465698	1999.903687	1761.935425	49.199623
228.983704	1534.112305	2022.950684	1764.802490	47.191505
229.359100	1531.575928	2040.263428	1764.251099	45.740295
229.734482	1528.378052	2061.546143	1764.471680	44.281277
230.109833	1529.039795	2075.881592	1765.243652	43.194183
230.485153	1528.488403	2087.349609	1763.258789	42.008709
230.860443	1521.541260	2101.575195	1763.699951	41.749054
231.235703	1520.879517	2121.534668	1767.118286	40.995033
231.610931	1519.225464	2137.523926	1768.992920	40.395935
231.986145	1517.240479	2152.079834	1775.829834	40.733036
232.361313	1516.468506	2165.532959	1779.909912	40.587864
232.736465	1519.115112	2169.833984	1782.997803	40.552486
233.111572	1517.571289	2172.921387	1780.681885	40.148098
233.486664	1518.894653	2171.708252	1784.982544	40.760162
233.861725	1517.350586	2169.944092	1787.518555	41.399120
234.236755	1520.107422	2156.931885	1789.172852	42.251114
234.611771	1522.313110	2138.516357	1787.959839	43.110245
234.986740	1523.415771	2132.671875	1787.739258	43.384628
235.361679	1526.062256	2128.922607	1789.944580	43.771717
235.736588	1526.393188	2124.952881	1787.959839	43.699341
236.111496	1527.936890	2122.196045	1788.841919	43.904251
236.486343	1528.819092	2122.857666	1791.929443	44.291794
236.861160	1527.716309	2128.371582	1791.819336	43.969151
237.235962	1529.370483	2138.626465	1792.591187	43.203632
237.610733	1532.016968	2152.962158	1797.994629	42.834320
237.985474	1532.016968	2177.111572	1799.759155	41.504330
238.360199	1533.009521	2207.988037	1806.044434	40.450905
238.734879	1534.994385	2240.628662	1811.888916	39.240517
239.109543	1532.347900	2281.539551	1812.329956	37.371220
239.484177	1533.450562	2334.360352	1819.277344	35.687763
239.858749	1535.325195	2397.105469	1822.254639	33.294964
240.233322	1530.804199	2464.923096	1826.775879	31.684584
240.607864	1528.709106	2528.660889	1833.943481	30.524910
240.982391	1529.370728	2583.025391	1843.096191	29.774981
241.356857	1527.826904	2627.685547	1842.765259	28.634439
241.731308	1533.340454	2665.288574	1844.529541	27.491463
242.105728	1529.150024	2699.583252	1841.662354	26.700569
242.480118	1528.708984	2736.414307	1848.058228	26.442646
242.854492	1529.480957	2770.378418	1854.784790	26.215206
243.228836	1527.606323	2818.898193	1860.408813	25.772833
243.603134	1531.245361	2883.187256	1871.546265	25.171267
243.977402	1529.150146	2971.956787	1881.691406	24.434408
244.351654	1526.724121	3079.692871	1887.315308	23.219475
244.725861	1527.495972	3195.809814	1899.224731	22.281704
245.100067	1529.260376	3309.391113	1910.141968	21.396271
245.474213	1530.693970	3406.872070	1917.530151	20.618309
245.848343	1529.150146	3476.453857	1930.983398	20.635366
246.222443	1528.378174	3532.362061	1937.379150	20.409395
246.596512	1530.252808	3565.884766	1938.040771	20.032499
246.970566	1530.804077	3581.543457	1942.892700	20.094637
247.344574	1531.134888	3573.714355	1940.025513	20.018347
247.718567	1528.157471	3552.431641	1939.584473	20.324667
248.092529	1533.561035	3529.936035	1937.158325	20.216507
248.466431	1533.891724	3510.307617	1933.629883	20.225407
248.840332	1534.002197	3506.668945	1930.872925	20.118488
249.214203	1533.891846	3516.923828	1937.048340	20.330307
249.588043	1529.811768	3538.868408	1943.334106	20.582911
249.961838	1525.952148	3566.656982	1951.163330	20.836487
250.335617	1524.629028	3592.460938	1951.494263	20.643129
250.709381	1522.423584	3603.377930	1954.471191	20.761993
251.083084	1521.320801	3591.468262	1954.802246	20.939640
251.456787	1521.982422	3561.474365	1948.075684	20.892128
251.830460	1521.762085	3509.425293	1944.436523	21.264893
252.204071	1522.203125	3429.367188	1938.040894	21.803986
252.577667	1521.761963	3337.069092	1932.637451	22.633938
252.951248	1521.541260	3250.725830	1927.123901	23.455139
253.324799	1517.020142	3177.835449	1918.522705	24.175028
253.698303	1516.248169	3130.969482	1909.700684	24.366589
254.071793	1518.233032	3092.374268	1906.061768	24.637480
254.445236	1520.769287	3078.479736	1904.959106	24.663750
254.818665	1521.541260	3072.855957	1902.091919	24.530849
255.192062	1521.320801	3089.396729	1903.194702	24.353024
255.565430	1525.511108	3120.272949	1905.620850	23.834890
255.938782	1522.092651	3155.891113	1908.487671	23.650103
256.312103	1523.636475	3214.445801	1916.868286	23.257017
256.685364	1522.202881	3288.438721	1923.594849	22.725842
257.058594	1520.107666	3374.341064	1930.983276	22.158787
257.431793	1523.195435	3472.593750	1939.694702	21.365530
257.804993	1527.716431	3583.969238	1952.706787	20.668194
258.178162	1529.150024	3682.222412	1967.814331	20.373878
258.551270	1530.032227	3768.455322	1974.541260	19.858133
258.924377	1529.370483	3840.132080	1980.495728	19.522793
259.297485	1525.290405	3899.569580	1987.001465	19.446367
259.670502	1529.149780	3942.906982	1987.552979	18.991272
260.043518	1533.891602	3992.750732	1995.382202	18.768484
260.416473	1530.362793	4040.167725	1995.933838	18.550089
260.789459	1527.606079	4078.542725	1998.801147	18.471455
261.162354	1530.803955	4110.521484	2005.086670	18.385063
261.535278	1529.149902	4134.229980	2009.938843	18.455822
261.908142	1529.370483	4159.372070	2012.254517	18.360600
262.280975	1526.613647	4174.479004	2015.562744	18.465784
262.653717	1530.583374	4190.909668	2020.965942	18.433174
263.026520	1530.914307	4200.062012	2024.384521	18.487932
263.399261	1525.952148	4207.781250	2021.406860	18.474506
263.771973	1526.834351	4219.911133	2025.156006	18.503805
264.144653	1523.084961	4213.735840	2024.604858	18.639353
264.517334	1525.290405	4186.388184	2027.251465	18.862932
264.889954	1525.952148	4137.316406	2026.479370	19.167269
265.262543	1526.393188	4074.020508	2020.524536	19.395746
265.635071	1529.480835	3996.830078	2011.592651	19.539667
266.007599	1528.047363	3930.997070	2001.998901	19.723740
266.380127	1524.408325	3887.770752	1995.603271	19.937483
266.752594	1526.503418	3869.796143	1995.161987	20.000002
267.125031	1525.952148	3869.355225	1997.257202	20.111992
267.497437	1520.879517	3888.873535	1998.029175	20.149950
267.869843	1518.674072	3911.148438	1997.588013	20.017515
268.242218	1521.430908	3946.104980	2002.109131	19.824448
268.614532	1521.872070	4017.010498	2008.284424	19.494404
268.986816	1519.004883	4098.060547	2014.349365	19.206429
269.359100	1521.871948	4188.152832	2022.619751	18.780760
269.731354	1522.092407	4275.819824	2032.433960	18.532755
270.103516	1523.084961	4346.615234	2040.042603	18.308910
270.475708	1518.784424	4407.816406	2043.902344	18.176258
270.847839	1522.092529	4464.496094	2049.636475	17.929014
271.219971	1526.944702	4510.920898	2060.002197	17.864000
271.592041	1529.921875	4535.180664	2058.017334	17.572378
271.964081	1532.237671	4553.485840	2056.583984	17.355288
272.336151	1532.237671	4574.547852	2053.937256	17.148140
272.708130	1531.686279	4593.956055	2052.944824	17.021967
273.080109	1530.804077	4614.908203	2054.268311	16.972977
273.452026	1530.252686	4644.680664	2058.899658	16.974127
273.823914	1533.560913	4678.535156	2061.766846	16.795238
274.195770	1535.435425	4714.483887	2068.383057	16.764376
274.567627	1536.979126	4748.447754	2073.124512	16.694710
274.939423	1537.420288	4784.065918	2072.793701	16.490047
275.311249	1538.853882	4807.002441	2077.976807	16.496281
275.682983	1536.979370	4827.954590	2076.653564	16.398611
276.054688	1534.443115	4832.806641	2082.056885	16.602591
276.426422	1536.648560	4815.052734	2080.292480	16.582577
276.798065	1537.530640	4785.389648	2081.174805	16.738541
277.169708	1537.199951	4757.159668	2078.197266	16.801369
277.541321	1539.515625	4739.075195	2072.683594	16.663792
277.912903	1539.074585	4743.375977	2076.653320	16.776785
278.284424	1539.736206	4756.277344	2078.086914	16.736946
278.655945	1535.656250	4777.670410	2080.954346	16.819733
279.027435	1538.523315	4811.523926	2083.821045	16.660484
279.398865	1537.971924	4872.173828	2092.643066	16.635799
279.770294	1538.412964	4936.683105	2103.780518	16.636923
280.141663	1538.082275	4996.009766	2113.374023	16.636894
280.513031	1541.500610	5055.887695	2119.659668	16.451206
280.884369	1538.523193	5092.829102	2124.511475	16.486715
281.255676	1540.177368	5132.637207	2128.040283	16.363798
281.626953	1538.412964	5166.601074	2135.208252	16.448853
281.998199	1539.736206	5202.770996	2138.406006	16.343548
282.369385	1540.508057	5250.519043	2145.573730	16.309000
282.740540	1542.603271	5308.743164	2153.513428	16.221123
283.111694	1540.397827	5362.334961	2161.232422	16.243979
283.482819	1541.059326	5430.263184	2177.221680	16.357136
283.853912	1542.382813	5511.203613	2183.176514	16.145695
284.224945	1538.743774	5583.652832	2190.564697	16.114599
284.595978	1542.272461	5653.455566	2197.952881	15.948704
284.966980	1541.941650	5715.318359	2205.010498	15.888065
285.337952	1537.861450	5756.670410	2213.170654	16.007105
285.708893	1539.405273	5777.953613	2211.296143	15.851910
286.079803	1540.949097	5798.574219	2218.022461	15.902607
286.450684	1543.154785	5811.917480	2222.102783	15.905030
286.821533	1537.861572	5818.423340	2226.734131	16.093042
287.192322	1536.097412	5819.305176	2232.799316	16.265890
287.563110	1538.082275	5831.985840	2238.092285	16.302416
287.933868	1538.854126	5849.850098	2241.620850	16.301725
288.304596	1538.523315	5884.034668	2251.655762	16.410784
288.675262	1538.743896	5930.018555	2263.896240	16.513483
289.045929	1537.641113	5962.328613	2269.961182	16.550776
289.416565	1536.869141	5990.999023	2276.357178	16.602301
289.787170	1538.302734	5998.938477	2280.326904	16.634941
290.157745	1535.545898	6001.916016	2280.878418	16.687656
290.528259	1536.317749	5993.204102	2290.251221	16.916147
290.898773	1539.736084	6004.672852	2296.206055	16.942457
291.269226	1537.751221	6002.908691	2295.654785	16.973726
291.639679	1538.192261	5995.741211	2302.602051	17.148657
292.010101	1540.397827	6016.803223	2307.453613	17.135530
292.380463	1537.199829	6050.877441	2315.944824	17.253004
292.750824	1539.625854	6085.503418	2324.546143	17.266640
293.121155	1537.640869	6131.597168	2334.580811	17.347574
293.491455	1534.884155	6201.399414	2349.578125	17.458294
293.861725	1532.458130	6279.141602	2360.164063	17.437563
294.231964	1532.458130	6366.808594	2369.757813	17.319796
294.602142	1535.766235	6463.296875	2385.967773	17.254108
294.972321	1533.009399	6543.686035	2399.200439	17.286907
295.342468	1527.716309	6605.217773	2409.676270	17.369959
295.712555	1525.731445	6647.011230	2416.072266	17.385124
296.082672	1529.370483	6671.602051	2421.585693	17.350740
296.452728	1529.811523	6675.351074	2423.570801	17.369593
296.822693	1528.378052	6675.020020	2426.327637	17.447290
297.192657	1527.495850	6668.844727	2422.026855	17.398762
297.562622	1525.510986	6691.009766	2427.319824	17.458309
297.932556	1531.355469	6707.330566	2433.826172	17.435762
298.302460	1530.693848	6710.307129	2429.194580	17.346869
298.672333	1529.260376	6708.653320	2431.289795	17.415735
299.042145	1529.260376	6706.778809	2431.841309	17.432693
299.411957	1527.716553	6705.897461	2425.445313	17.336760
299.781677	1527.716553	6663.441406	2424.232422	17.456463
300.151428	1527.496094	6619.552734	2415.851807	17.445911
300.521149	1524.629028	6556.917969	2410.779297	17.609287
300.890839	1525.842041	6491.747559	2403.501221	17.673700
301.260468	1526.503662	6415.769531	2394.128174	17.745497
301.630096	1525.621338	6328.434570	2384.975586	17.892725
301.999695	1525.290527	6236.907715	2373.066162	17.993305
302.369232	1523.526245	6126.966309	2356.966553	18.104729
302.738739	1525.952148	6024.302246	2339.322754	18.081532
303.108246	1529.922119	5926.270020	2324.436279	18.072142
303.477692	1530.363159	5852.166504	2317.599365	18.215458
303.847137	1526.724121	5775.858398	2308.998047	18.410196
304.216553	1530.363037	5724.691406	2301.058105	18.374697
304.585876	1531.465820	5688.742188	2298.411621	18.448277
304.955231	1535.215088	5666.687988	2299.845215	18.507448
305.324493	1534.443115	5638.126953	2298.632080	18.622025
305.693787	1530.252686	5612.212891	2296.206055	18.764351
306.063049	1530.032227	5607.581055	2302.270996	18.938799
306.432251	1528.708740	5606.588379	2299.183350	18.894001
306.801422	1529.260132	5598.097656	2303.042725	19.017290
307.170593	1532.568481	5595.450684	2305.909912	19.034306
307.539673	1528.819092	5608.573730	2308.666748	19.115063
307.908783	1531.575928	5615.080078	2312.085205	19.113714
308.277832	1531.355347	5644.522949	2310.541504	18.943701
308.646851	1534.773926	5681.133301	2313.959717	18.792048
309.015839	1536.207520	5715.649414	2317.929688	18.703985
309.384796	1538.082153	5746.415039	2320.245361	18.586058
309.753723	1535.766357	5771.998047	2326.861572	18.674503
310.122620	1533.891724	5793.611816	2334.250244	18.788992
310.491486	1532.899292	5812.357422	2343.402832	18.939398
310.860352	1530.914307	5821.179199	2346.049316	18.999643
311.229126	1534.332886	5826.031250	2347.151855	18.939331
311.597931	1529.701416	5843.123535	2344.836426	18.897642
311.966675	1526.613892	5869.699219	2348.806152	18.931063
312.335388	1526.834351	5896.274414	2351.673096	18.877447
312.704071	1522.974854	5922.739746	2355.201904	18.915262
313.072723	1524.959717	5931.230957	2358.620361	18.919867
313.441345	1523.526245	5931.341309	2357.517822	18.920748
313.809875	1523.195313	5911.823242	2353.327637	18.915531
314.178436	1523.195190	5885.688477	2354.099121	19.046537
314.546967	1521.982178	5851.614258	2346.380127	19.040833
314.915466	1519.446045	5811.254883	2345.608154	19.249743
315.283936	1523.967163	5773.100586	2343.954346	19.297752
315.652374	1523.195557	5733.402344	2343.512939	19.484015
316.020752	1523.416016	5692.822266	2342.410400	19.642950
316.389130	1525.842041	5654.116699	2342.079346	19.771875
316.757416	1525.621460	5628.202637	2340.645996	19.866140
317.125732	1523.085205	5605.376465	2338.661377	19.978392
317.494019	1524.739258	5578.800781	2336.455811	20.022305
317.862274	1526.062378	5549.468262	2330.390869	19.991234
318.230469	1529.922119	5524.436523	2324.436035	19.890125
318.598663	1533.671265	5506.020996	2318.812012	19.765146
318.966797	1531.245239	5488.487793	2316.275635	19.837812
319.334930	1533.781494	5473.932129	2316.937256	19.876289
319.703003	1532.678711	5446.804688	2313.739502	19.954922
320.071045	1530.583374	5422.875000	2306.682129	19.939379
320.439056	1532.127197	5403.687988	2306.240967	19.994875
320.807037	1537.199829	5414.494629	2303.483887	19.763369
321.175049	1538.192261	5435.997559	2308.115723	19.752743
321.542969	1539.074463	5475.586426	2315.062744	19.712585
321.910828	1539.956665	5513.740234	2320.686279	19.647009
322.278717	1543.375122	5567.442871	2329.508057	19.535778
322.646515	1543.375122	5607.582031	2330.610840	19.369970
323.014313	1543.595581	5643.199707	2332.595703	19.245764
323.382111	1542.492798	5687.860352	2337.006592	19.166304
323.749817	1541.941650	5724.360840	2340.866455	19.101980
324.117523	1535.876587	5743.216797	2341.417480	19.146084
324.485199	1533.781372	5748.399414	2345.277344	19.254318
324.852814	1537.971680	5759.096191	2349.467773	19.224642
325.220428	1539.736084	5759.537598	2347.813477	19.149652
325.588013	1537.751221	5774.203125	2349.136719	19.152477
325.955536	1536.317627	5782.694336	2354.540283	19.268724
326.323059	1532.678711	5803.094727	2366.670654	19.529524
326.690552	1531.465698	5815.775879	2369.868408	19.569141
327.058014	1530.914307	5817.209473	2373.948486	19.668133
327.425415	1534.773804	5825.149414	2377.477051	19.641714
327.792816	1535.986938	5825.590332	2379.351807	19.660671
328.160187	1538.082031	5828.567871	2376.594971	19.543543
328.527496	1530.032227	5812.688477	2377.035889	19.777531
328.894775	1529.039673	5795.044434	2378.359131	19.909014
329.262054	1528.929443	5777.400879	2378.028564	19.985991
329.629303	1532.678711	5770.233398	2375.491943	19.889141
329.996490	1530.473267	5766.263672	2374.279053	19.920856
330.363647	1532.237549	5787.656738	2381.336426	19.953356
330.730774	1527.826660	5805.520996	2389.386475	20.140753
331.097839	1528.157593	5829.229004	2392.363525	20.092806
331.464935	1527.936890	5850.953125	2397.656738	20.118359
331.831970	1528.488159	5875.543457	2402.729248	20.111111
332.198975	1526.503296	5903.552734	2403.942383	20.046360
332.565948	1526.613647	5927.261230	2407.802002	20.024061
332.932892	1525.069824	5965.636719	2416.293213	20.070036
333.299744	1527.716431	5998.608398	2420.373047	19.965961
333.666656	1527.936890	6036.652344	2423.460693	19.862061
334.033478	1526.062256	6062.897461	2422.027100	19.748676
334.400299	1526.282837	6098.184570	2428.202393	19.727448
334.767090	1527.385620	6137.110352	2426.327637	19.500992
335.133850	1523.746704	6170.633301	2430.958984	19.523012
335.500549	1522.423462	6201.068848	2439.560303	19.602615
335.867218	1517.681763	6233.599121	2447.610107	19.718927
336.233917	1517.791992	6266.350586	2452.903320	19.692530
336.600525	1517.902222	6286.419434	2448.712891	19.519918
336.967102	1518.453491	6298.108398	2446.728027	19.421371
337.333649	1514.814697	6301.747070	2449.926270	19.534672
337.700195	1515.365967	6302.960449	2453.785645	19.601068
338.066681	1514.814697	6287.301270	2454.447266	19.688534
338.433136	1514.924805	6274.620605	2451.249268	19.671940
338.799591	1517.791992	6256.425781	2448.603027	19.643024
339.165985	1518.674072	6243.192871	2449.043945	19.692373
339.532318	1518.233032	6246.500977	2449.484863	19.695412
339.898651	1522.864380	6259.623535	2453.234375	19.641487
340.264954	1521.320679	6270.540039	2457.976318	19.722307
340.631226	1519.446045	6293.697754	2460.953369	19.720520
340.997467	1514.042603	6324.463379	2464.702637	19.762512
341.363678	1512.278320	6352.583984	2470.877686	19.804522
341.729828	1514.704224	6393.384766	2479.037842	19.766279
342.095947	1517.902100	6440.028809	2487.087891	19.690386
342.462067	1519.335693	6484.028320	2502.084961	19.794767
342.828156	1520.769165	6534.422852	2510.465576	19.740023
343.194183	1523.526001	6589.118164	2519.287598	19.657358
343.560211	1529.811523	6630.911621	2529.322266	19.594023
343.926178	1529.590942	6675.130859	2539.026611	19.617682
344.292114	1528.598511	6720.674316	2553.582520	19.741314
344.658020	1526.723877	6756.071289	2563.506836	19.826239
345.023926	1530.252563	6774.155273	2567.697266	19.783827
345.389771	1530.473267	6798.194824	2569.351318	19.721582
345.755585	1531.024414	6824.880859	2565.161133	19.534657
346.121368	1537.089478	6843.737305	2570.012939	19.464706
346.487122	1534.443115	6866.122559	2574.865234	19.513966
346.852844	1536.869019	6899.425781	2581.260742	19.475630
347.218536	1538.853882	6923.574219	2585.671631	19.440523
347.584167	1539.184814	6951.252930	2589.090088	19.399336
347.949768	1540.177246	6975.071289	2591.626221	19.346264
348.315369	1540.838867	6981.578125	2595.155029	19.378178
348.680939	1544.477905	6995.692871	2597.691162	19.320707
349.046448	1547.786133	7005.065430	2598.793945	19.258823
349.411957	1546.793701	7011.351074	2598.132324	19.239227
349.777435	1543.706055	7011.021484	2597.691162	19.277927
350.142792	1546.903931	7013.336914	2596.367920	19.198332
350.508209	1547.675903	7017.306641	2594.272949	19.134693
350.873566	1545.911499	7036.273926	2594.272949	19.094578
351.238892	1545.470459	7057.776855	2597.470703	19.084574
351.604187	1549.109253	7084.462891	2600.668457	18.997147
351.969482	1553.079102	7127.248535	2608.718262	18.938053
352.334717	1553.851196	7176.099609	2620.297119	18.968317
352.699890	1551.535400	7256.376465	2630.001221	18.904398
353.065063	1551.976318	7340.295410	2643.895752	18.864187
353.430237	1551.314819	7438.216309	2671.243408	19.024076
353.795319	1548.778442	7545.511719	2688.886963	19.012159
354.160370	1548.668213	7656.886230	2712.154297	19.047882
354.525421	1547.014282	7778.847656	2728.254150	18.954933
354.890442	1547.786133	7926.062500	2750.749756	18.860325
355.255402	1544.367676	8060.375000	2776.884521	18.915216
355.620331	1547.345093	8211.227539	2806.547852	18.895933
355.985260	1548.006714	8359.985352	2829.484375	18.812120
356.350098	1549.440186	8488.122070	2848.230713	18.718117
356.714935	1547.455322	8615.155273	2868.410400	18.690027
357.079742	1548.116943	8735.904297	2891.237061	18.686142
357.444519	1544.588135	8862.386719	2911.306641	18.676634
357.809296	1537.530762	9007.835938	2934.353516	18.698336
358.173981	1534.663574	9175.340820	2963.796387	18.704269
358.538605	1535.104736	9362.474609	2997.649902	18.685013
358.903259	1535.104736	9576.954102	3037.017578	18.676212
359.267914	1535.214966	9815.033203	3076.053955	18.609575
359.632477	1534.001831	10056.529297	3108.694580	18.476828
359.997009	1532.237549	10270.126953	3139.239990	18.391197
360.361542	1533.671021	10432.007813	3166.367188	18.348330
360.726013	1533.009399	10550.330078	3190.847412	18.385040
361.090485	1533.119751	10621.235352	3199.007813	18.330402
361.454895	1537.640869	10669.645508	3204.301025	18.250759
361.819244	1538.081787	10689.494141	3206.616699	18.232540
362.183594	1538.964233	10671.849609	3208.601563	18.281597
362.547913	1538.523071	10616.161133	3202.316162	18.328482
362.912201	1539.515625	10574.367188	3196.141113	18.335945
363.276489	1536.097168	10510.079102	3181.144043	18.331291
363.640686	1532.568359	10443.033203	3172.101563	18.400085
364.004883	1531.686279	10386.685547	3170.447510	18.506622
364.369049	1529.701416	10336.401367	3161.736328	18.531742
364.733154	1531.024780	10286.117188	3158.538330	18.589334
365.097198	1537.200073	10230.098633	3156.001953	18.622118
365.461273	1542.272461	10137.360352	3148.833984	18.691624
365.825287	1545.580688	10013.523438	3132.513672	18.740479
366.189270	1546.132080	9845.798828	3111.782227	18.864012
366.553223	1545.690796	9649.182617	3079.802979	18.931496
366.917114	1546.132080	9422.791992	3045.066895	19.030081
367.281006	1547.014282	9187.691406	3011.875000	19.171869
367.644867	1549.991577	8990.744141	2980.006104	19.218681
368.008698	1548.337524	8831.179688	2956.958984	19.341644
368.372498	1548.999146	8707.012695	2940.197754	19.435539
368.736237	1547.124634	8622.102539	2927.626709	19.512457
369.099976	1540.728760	8559.579102	2922.664551	19.688919
369.463654	1538.854126	8522.858398	2920.018311	19.776108
369.827332	1534.994629	8489.886719	2918.694824	19.895351
370.190948	1534.884277	8472.683594	2919.687256	19.960262
370.554535	1533.450684	8443.021484	2916.599609	20.017870
370.918091	1534.002075	8424.715820	2917.592285	20.079054
371.281647	1538.854126	8421.626953	2922.554688	20.103825
371.645111	1536.427979	8420.744141	2923.216064	20.144165
372.008575	1536.648560	8415.342773	2928.619873	20.235981
372.371979	1535.876465	8419.863281	2926.083252	20.194792
372.735382	1531.906738	8436.183594	2926.414307	20.197735
373.098724	1531.686157	8473.456055	2929.832520	20.141064
373.462067	1529.149902	8530.798828	2942.624268	20.187735
373.825348	1528.708740	8601.592773	2950.563721	20.102903
374.188599	1525.731445	8696.095703	2961.370605	20.021845
374.551819	1522.643677	8812.875000	2985.850586	20.070787
374.915009	1517.130005	8930.976563	3009.228760	20.125837
375.278168	1514.152588	9048.197266	3033.378418	20.164810
375.641266	1512.829468	9160.785156	3048.816406	20.083628
376.004395	1510.624023	9243.048828	3060.395020	20.042498
376.367462	1513.491211	9303.587891	3071.642822	20.001698
376.730469	1516.689209	9354.423828	3075.943604	19.894197
377.093475	1522.092529	9382.984375	3080.905762	19.829981
377.456421	1522.864380	9423.675781	3083.883301	19.757704
377.819336	1524.298096	9463.595703	3095.020752	19.784151
378.182281	1526.172607	9498.992188	3102.298828	19.768744
378.545135	1521.872070	9540.673828	3108.253418	19.783272
378.907928	1522.864502	9571.441406	3116.303467	19.797771
379.270752	1523.305542	9599.780273	3123.912109	19.818134
379.633484	1526.282959	9631.869141	3129.315918	19.776892
379.996246	1524.077393	9659.878906	3138.247803	19.840336
380.358948	1525.069824	9686.673828	3148.723633	19.893808
380.721558	1521.430786	9715.344727	3155.560303	19.943211
381.084198	1523.305298	9733.429688	3156.332520	19.890409
381.446747	1525.951782	9744.015625	3165.705322	19.953041
381.809326	1527.275146	9746.000977	3167.469971	19.956802
382.171875	1527.495850	9729.791016	3166.367188	19.980644
382.534363	1528.488403	9709.280273	3163.169189	19.981937
382.896790	1533.229858	9671.567383	3163.168945	20.027912
383.259247	1531.245117	9648.851563	3171.880615	20.210829
383.621613	1532.017090	9663.408203	3172.211670	20.171144
383.983948	1527.716431	9692.850586	3185.002930	20.297113
384.346283	1523.195068	9736.739258	3200.110840	20.416470
384.708588	1519.225342	9811.723633	3214.446045	20.442823
385.070831	1519.887085	9891.341797	3232.971680	20.463404
385.433075	1519.335693	9960.373047	3244.661133	20.439734
385.795258	1517.020142	10042.305664	3257.562988	20.416243
386.157440	1518.784424	10104.719727	3274.214355	20.445412
386.519531	1514.042603	10178.823242	3289.431641	20.489717
386.881622	1519.335815	10246.749023	3302.002930	20.426065
387.243683	1517.350830	10314.126953	3317.330322	20.461807
387.605713	1519.556274	10383.047852	3329.129150	20.416029
387.967682	1522.643921	10443.366211	3334.422607	20.309774
388.329651	1525.069824	10513.719727	3351.184082	20.315779
388.691559	1523.746704	10610.648438	3377.649658	20.401926
389.053467	1521.431030	10715.627930	3391.543945	20.340143
389.415314	1519.887085	10810.132813	3415.583252	20.405231
389.777130	1518.784180	10914.560547	3431.241699	20.354439
390.138885	1520.328125	10994.397461	3454.068359	20.410873
390.500641	1518.012329	11088.901367	3463.882813	20.331137
390.862366	1521.872070	11165.982422	3474.358643	20.245378
391.224060	1525.510864	11220.676758	3493.105225	20.294592
391.585693	1529.921875	11295.551758	3505.896484	20.233971
391.947296	1536.317749	11367.119141	3522.326904	20.201904
392.308868	1535.766235	11409.905273	3532.582275	20.222685
392.670441	1535.656006	11454.014648	3542.286377	20.231476
393.031952	1533.119751	11484.449219	3551.549072	20.283012
393.393433	1537.310059	11495.697266	3560.701904	20.318470
393.754883	1537.089600	11506.393555	3568.752197	20.379183
394.116302	1538.523071	11496.689453	3564.781982	20.347712
394.477692	1529.701294	11492.830078	3566.876953	20.447147
394.839020	1527.936890	11479.376953	3565.443848	20.474493
395.200348	1526.834229	11463.718750	3567.538574	20.536661
395.561646	1529.480835	11443.759766	3572.391113	20.605736
395.922882	1529.150024	11409.354492	3569.193115	20.647783
396.284088	1529.480835	11337.236328	3555.849609	20.660881
396.645264	1527.275513	11269.638672	3545.263428	20.713535
397.006409	1530.914429	11181.641602	3535.229248	20.768536
397.367523	1533.450684	11090.887695	3527.179199	20.860493
397.728577	1538.964355	11024.392578	3516.592529	20.849119
398.089600	1539.074707	10949.627930	3514.497314	20.991568
398.450592	1539.625977	10886.000000	3508.542725	21.066103
398.811584	1539.074463	10829.209961	3496.853760	21.073742
399.172546	1537.971680	10760.399414	3484.613770	21.107697
399.533447	1528.819214	10692.691406	3470.168213	21.184811
399.894318	1532.127441	10638.768555	3464.433838	21.218653
400.255127	1532.237671	10596.091797	3460.022949	21.268934
400.615936	1531.355469	10585.175781	3455.391846	21.251101
400.976685	1529.150146	10593.115234	3456.935303	21.268675
401.337433	1531.575928	10626.307617	3466.639160	21.276749
401.698151	1531.355591	10702.835938	3483.951904	21.289871
402.058807	1537.861572	10785.099609	3499.059814	21.208475
402.419434	1539.736206	10877.398438	3522.988525	21.239281
402.780060	1538.633423	10977.195313	3537.103760	21.173464
403.140594	1534.663696	11064.090820	3553.093262	21.181017
403.501129	1535.986938	11144.919922	3566.877197	21.135441
403.861633	1537.420532	11224.757813	3584.741455	21.133991
404.222076	1539.625977	11293.236328	3599.848633	21.122667
404.582550	1535.986938	11374.728516	3614.294189	21.123709
404.942932	1535.656128	11422.916992	3625.211670	21.133818
405.303284	1530.804077	11480.369141	3636.018311	21.158857
405.663605	1531.245117	11533.189453	3645.722168	21.140659
406.023895	1532.568481	11582.260742	3657.631592	21.145552
406.384125	1530.914307	11629.016602	3673.731445	21.219997
406.744354	1529.811523	11684.814453	3688.397705	21.256382
407.104553	1536.317627	11746.566406	3707.915527	21.268805
407.464691	1536.868896	11813.392578	3723.794922	21.280796
407.824829	1537.420288	11876.467773	3741.218018	21.315289
408.184906	1538.522949	11926.201172	3756.656738	21.353510
408.544922	1538.633423	11974.169922	3769.558350	21.378153
408.904938	1537.971680	12007.030273	3770.220703	21.322348
409.264923	1536.317627	11999.752930	3772.977295	21.375959
409.624847	1534.112183	11979.573242	3776.946777	21.471857
409.984802	1533.560791	11956.416016	3767.353027	21.431673
410.344666	1535.656006	11935.685547	3772.977051	21.512642
410.704529	1534.774048	11906.352539	3774.079590	21.590790
411.064331	1531.355591	11896.317383	3777.057373	21.666281
411.424133	1532.017090	11892.458008	3778.380615	21.682121
411.783875	1531.245117	11887.385742	3787.753418	21.789085
412.143555	1536.317749	11895.656250	3789.848145	21.753611
412.503235	1535.986938	11932.376953	3797.566895	21.753513
412.862885	1536.317749	11957.078125	3804.625000	21.767193
413.222473	1535.876587	12000.966797	3816.093018	21.788788
413.582062	1530.473267	12055.992188	3827.120117	21.819799
413.941559	1529.480713	12132.080078	3835.611328	21.750614
414.301086	1532.237549	12203.647461	3844.432617	21.667192
414.660522	1531.796509	12282.932617	3859.319824	21.649094
415.019958	1529.150024	12364.093750	3876.963623	21.668903
415.379364	1530.142456	12462.125977	3899.018311	21.669224
415.738708	1528.708984	12566.443359	3927.247803	21.730354
416.098053	1529.591187	12702.960938	3959.557373	21.747837
416.457336	1526.503540	12866.385742	3998.703857	21.800934
416.816559	1528.047363	13056.165039	4036.307373	21.757759
417.175812	1526.834351	13278.144531	4081.960449	21.743328
417.535004	1528.488525	13530.667969	4139.633301	21.755589
417.894135	1528.157715	13808.997070	4194.769531	21.713594
418.253265	1528.047363	14142.681641	4264.572266	21.693254
418.612335	1530.583618	14503.713867	4331.066406	21.586794
418.971405	1528.378174	14871.801758	4402.963867	21.543089
419.330414	1527.054810	15239.122070	4479.603027	21.532482
419.689423	1521.871948	15591.002930	4553.044434	21.544844
420.048370	1521.210327	15940.676758	4628.581055	21.549829
420.407257	1519.997314	16263.223633	4693.200684	21.523127
420.766144	1519.887085	16600.767578	4762.782715	21.503357
421.125000	1524.518555	16922.103516	4833.136719	21.487904
421.483795	1525.180176	17245.310547	4906.247559	21.507883
421.842560	1520.769287	17599.064453	4986.415527	21.554811
422.201324	1520.328125	17935.947266	5051.145996	21.508892
422.560028	1519.887085	18241.623047	5113.449707	21.490368
422.918671	1520.769287	18531.310547	5181.157227	21.518351
423.277283	1524.077515	18778.761719	5227.250977	21.461843
423.635925	1525.841919	18955.306641	5262.869629	21.440865
423.994476	1527.385742	19096.347656	5288.894043	21.409964
424.353027	1529.921997	19197.578125	5308.191406	21.385233
424.711487	1530.914429	19260.099609	5321.865723	21.382545
425.069946	1529.701416	19272.009766	5328.481934	21.410858
425.428375	1529.701538	19241.906250	5330.797852	21.460321
425.786743	1531.576050	19143.101563	5305.655273	21.429598
426.145081	1531.796509	18994.343750	5288.894531	21.515179
426.503418	1530.914307	18822.097656	5257.797852	21.553663
426.861725	1533.561035	18640.148438	5214.459961	21.517435
427.219971	1537.751343	18467.904297	5178.952148	21.507195
427.578186	1539.405396	18302.933594	5145.319336	21.510473
427.936371	1542.051880	18152.521484	5121.721191	21.550682
428.294495	1545.249756	17946.314453	5085.772461	21.587152
428.652618	1543.485352	17745.066406	5047.838379	21.629698
429.010712	1544.477905	17538.191406	5013.984863	21.692940
429.368744	1549.991455	17290.296875	4970.316895	21.729727
429.726746	1550.432617	17043.066406	4930.066895	21.814459
430.084717	1548.999023	16817.117188	4889.265625	21.877396
430.442688	1548.337280	16581.134766	4832.916016	21.849417
430.800568	1549.660645	16415.947266	4803.914063	21.890156
431.158417	1548.668213	16272.815430	4776.786621	21.923975
431.516235	1546.903809	16145.229492	4759.253906	22.004921
431.874023	1542.492920	16049.514648	4749.660156	22.107689
432.231812	1543.816162	15953.795898	4735.104004	22.146374
432.589508	1543.706055	15895.242188	4723.966797	22.159723
432.947205	1543.595825	15808.457031	4704.559082	22.159090
433.304840	1542.052002	15756.189453	4699.266113	22.211788
433.662476	1541.831421	15700.720703	4682.725098	22.183191
434.020050	1545.029541	15676.790039	4682.174316	22.199249
434.377594	1544.147339	15649.995117	4686.585449	22.277555
434.735138	1536.869263	15624.854492	4687.908203	22.366854
435.092621	1536.648682	15592.102539	4681.622559	22.375469
435.450043	1536.979492	15602.911133	4679.968750	22.344692
435.807465	1532.789063	15644.480469	4685.483398	22.341009
436.164856	1532.017090	15690.354492	4697.282227	22.356192
436.522156	1531.576050	15735.567383	4700.810547	22.312281
436.879486	1527.936890	15802.060547	4715.477051	22.330898
437.236755	1525.510986	15877.817383	4734.002441	22.355232
437.593994	1529.701416	15964.602539	4750.984863	22.315937
437.951172	1528.267822	16095.165039	4778.663086	22.313572
438.308380	1526.944458	16181.729492	4799.504395	22.330999
438.665497	1526.503296	16304.906250	4828.836914	22.345673
439.022583	1530.252686	16441.642578	4853.207031	22.284672
439.379608	1531.906860	16545.410156	4874.819824	22.266043
439.736633	1532.568604	16637.816406	4894.558594	22.257099
440.093628	1535.104736	16715.669922	4910.328125	22.233845
440.450562	1534.773926	16800.359375	4931.610352	22.251595
440.807495	1534.222534	16869.169922	4947.269531	22.256659
441.164368	1534.773926	16950.664063	4974.727539	22.314337
441.521210	1534.773926	17015.833984	4988.731934	22.310862
441.878021	1532.899292	17084.865234	5004.169922	22.320461
442.234833	1536.979492	17175.837891	5027.658203	22.320547
442.591522	1538.854126	17250.492188	5053.902832	22.372263
442.948242	1535.766479	17338.599609	5080.699219	22.432261
443.304901	1538.082275	17434.316406	5107.605469	22.455149
443.661530	1541.169800	17547.126953	5132.857910	22.439695
444.018127	1542.382935	17676.144531	5170.570801	22.488171
444.374664	1544.367798	17807.478516	5197.145996	22.460514
444.731201	1552.197021	17927.343750	5225.266602	22.430759
445.087738	1551.535400	18043.792969	5253.606445	22.447327
445.444183	1552.307251	18093.746094	5272.131836	22.487915
445.800598	1548.888794	18151.085938	5289.334961	22.529827
446.156982	1546.352539	18172.921875	5293.194336	22.535265
446.513336	1545.359985	18160.902344	5296.171875	22.574116
446.869598	1546.793579	18160.683594	5302.236816	22.604239
447.225891	1546.021606	18175.570313	5312.271484	22.647938
447.582153	1546.352417	18179.318359	5316.572266	22.667150
447.938354	1548.999023	18181.964844	5310.507324	22.614779
448.294495	1548.006592	18183.066406	5314.036133	22.639109
448.650665	1544.147095	18170.828125	5308.191406	22.638578
449.006775	1537.971924	18154.617188	5309.515137	22.697382
449.362823	1539.405396	18162.666016	5317.455078	22.727491
449.718842	1541.610718	18152.962891	5317.675293	22.731831
450.074860	1540.838867	18172.703125	5313.815918	22.685234
450.430817	1544.918945	18136.753906	5303.008789	22.650234
450.786713	1541.831299	18068.271484	5282.167480	22.632439
451.142578	1537.861450	17979.615234	5263.530762	22.659805
451.498444	1534.001831	17847.619141	5231.882813	22.667450
451.854248	1533.119629	17694.558594	5205.748535	22.724640
452.210022	1529.039551	17510.074219	5177.959473	22.832813
452.565765	1527.385376	17293.279297	5137.378906	22.897488
452.921478	1529.370361	17109.785156	5102.643066	22.934387
453.277191	1531.796387	16919.673828	5065.150391	22.961933
453.632813	1531.906738	16753.052734	5041.111328	23.054798
453.988434	1531.245117	16601.978516	5010.456055	23.085876
454.343964	1528.819214	16476.490234	4982.888184	23.107740
454.699524	1529.591187	16350.117188	4956.643066	23.123684
455.054993	1527.385742	16251.754883	4940.102539	23.177338
455.410400	1526.282959	16187.574219	4938.778809	23.275549
455.765839	1523.636475	16166.403320	4939.220215	23.326082
456.121216	1525.400879	16186.471680	4954.106934	23.386465
456.476593	1529.591187	16245.579102	4970.868164	23.384613
456.831909	1529.480957	16359.379883	4997.002441	23.381964
457.187195	1528.267822	16504.277344	5035.598145	23.419659
457.542450	1528.157593	16688.544922	5082.904785	23.447599
457.897644	1528.267944	16878.652344	5128.447754	23.453352
458.252808	1531.024780	17079.128906	5176.416504	23.445890
458.607971	1536.317749	17244.759766	5216.445313	23.427704
458.963013	1539.956787	17343.453125	5243.352051	23.434025
459.318085	1542.934204	17441.373047	5264.413574	23.407831
459.673096	1541.831421	17513.933594	5274.007324	23.366840
460.028076	1541.610718	17581.533203	5286.027344	23.344355
460.383057	1541.059570	17632.478516	5289.004395	23.291574
460.737976	1542.272461	17654.751953	5291.650391	23.270025
461.092865	1543.265015	17668.205078	5297.053711	23.279394
461.447723	1543.375244	17674.822266	5301.024414	23.293938
461.802551	1546.573120	17650.451172	5303.560059	23.329702
462.157288	1547.786133	17647.472656	5304.772461	23.335773
462.512054	1548.337646	17629.390625	5307.639648	23.377213
462.866760	1545.911621	17608.216797	5305.875977	23.408623
463.221405	1547.676025	17561.681641	5299.920898	23.431019
463.576019	1547.896484	17482.503906	5277.094238	23.403135
463.930603	1548.447876	17383.810547	5265.516113	23.473213
464.285156	1546.242432	17249.832031	5236.073242	23.496735
464.639709	1547.345093	17084.640625	5196.706543	23.487751
464.994171	1543.706055	16863.326172	5148.407227	23.529964
465.348633	1542.603271	16613.998047	5103.415527	23.626295
465.703033	1539.295044	16373.494141	5054.123047	23.694088
466.057434	1532.899170	16159.786133	5007.036621	23.751722
466.411774	1530.032104	16020.070313	4976.491211	23.785023
466.766083	1522.864380	15879.141602	4946.717773	23.849174
467.120331	1521.100098	15783.867188	4926.868164	23.878733
467.474548	1521.430908	15706.787109	4915.621094	23.927423
467.828735	1519.997314	15633.897461	4909.225098	24.013403
468.182922	1520.438232	15605.998047	4910.327637	24.066416
468.537048	1521.871704	15567.403320	4898.528809	24.040794
468.891144	1520.879272	15539.833008	4894.338867	24.063560
469.245178	1517.571289	15543.692383	4896.875000	24.092932
469.599213	1514.483398	15538.730469	4892.905273	24.089863
469.953186	1512.278076	15543.582031	4887.282227	24.053391
470.307129	1512.719116	15539.062500	4890.258789	24.079971
470.661041	1515.255493	15572.252930	4890.369629	24.010208
471.014923	1517.019775	15620.001953	4902.830566	24.007765
471.368713	1514.483521	15633.895508	4899.521973	23.974360
471.722504	1516.799194	15624.414063	4897.095703	23.960793
472.076294	1515.696533	15594.748047	4893.787109	23.993736
472.429993	1517.571167	15538.951172	4891.141113	24.060184
472.783722	1517.681396	15533.877930	4889.376465	24.055706
473.137329	1521.210205	15559.459961	4904.593750	24.101177
473.490967	1524.628662	15589.895508	4915.069336	24.105059
473.844543	1525.069702	15655.178711	4936.461914	24.142715
474.198090	1525.731445	15736.008789	4962.597168	24.185776
474.551605	1524.849243	15840.216797	4988.842285	24.197725
474.905060	1525.400635	15973.979492	5024.240234	24.215803
475.258484	1526.834229	16111.156250	5059.967773	24.225559
475.611877	1525.180176	16262.120117	5094.152344	24.217865
475.965240	1522.974731	16434.146484	5139.695313	24.255108
476.318573	1525.731445	16599.001953	5187.663574	24.294210
476.671844	1529.149902	16778.083984	5225.486816	24.239969
477.025116	1531.024536	16965.107422	5274.889160	24.257124
477.378326	1533.340210	17172.417969	5321.864746	24.224730
477.731506	1535.435425	17399.578125	5368.178711	24.159788
478.084656	1534.773926	17628.064453	5427.174805	24.186481
478.437744	1532.788940	17876.400391	5484.516602	24.179035
478.790833	1532.347900	18179.759766	5560.273926	24.195509
479.143890	1529.149902	18532.742188	5652.902832	24.252247
479.496826	1527.606079	18959.386719	5754.463867	24.247997
479.849823	1528.488281	19549.675781	5885.247559	24.175762
480.202728	1529.039673	20281.115234	6054.185059	24.131437
480.555603	1525.952148	21176.748047	6267.342285	24.128233
480.908478	1522.974731	22400.552734	6564.856934	24.149748
481.261292	1522.974731	23963.777344	6951.804199	24.191780
481.614075	1524.628906	25732.109375	7383.852539	24.204185
481.966797	1526.834229	27496.359375	7818.105469	24.225594
482.319489	1527.606079	29080.205078	8180.682129	24.146818
482.672150	1526.393188	30462.691406	8488.563477	24.060335
483.024780	1524.739014	31572.472656	8732.044922	23.986187
483.377350	1523.636353	32530.302734	8941.452148	23.923294
483.729919	1522.313110	33403.109375	9118.330078	23.826309
484.082428	1523.856812	34220.453125	9297.854492	23.776169
484.434937	1524.187622	35104.066406	9499.101563	23.749084
484.787384	1523.636230	36042.925781	9725.050781	23.758930
485.139771	1526.503296	37078.054688	9967.098633	23.741850
485.492157	1529.921753	38098.410156	10211.683594	23.741100
485.844482	1531.355347	39044.769531	10438.072266	23.742752
486.196777	1530.693726	39872.480469	10625.426758	23.720161
486.549072	1531.796509	40529.593750	10762.053711	23.668663
486.901276	1531.134888	40987.113281	10862.954102	23.651218
487.253448	1530.363037	41207.882813	10909.378906	23.638109
487.605591	1528.047241	41187.921875	10900.997070	23.633333
487.957703	1529.039917	40949.730469	10832.627930	23.600773
488.309784	1533.450806	40448.871094	10712.651367	23.587564
488.661835	1533.450806	39685.007813	10509.307617	23.526840
489.013855	1533.560913	38832.492188	10292.512695	23.483120
489.365814	1533.340454	38064.773438	10104.056641	23.461208
489.717743	1533.009521	37422.546875	9957.614258	23.473705
490.069611	1532.017090	36896.214844	9838.190430	23.487522
490.421509	1533.561035	36463.058594	9738.613281	23.490326
490.773315	1538.633545	36034.433594	9639.587891	23.483885
491.125092	1539.625977	35581.214844	9543.760742	23.512812
491.476807	1534.553345	35043.742188	9429.188477	23.559614
491.828522	1536.317749	34357.406250	9273.262695	23.573090
492.180176	1533.230225	33541.167969	9084.476563	23.591793
492.531830	1530.804199	32589.628906	8871.319336	23.634233
492.883423	1527.495972	31597.392578	8640.629883	23.655333
493.234985	1525.290405	30630.853516	8416.223633	23.675657
493.586487	1528.047363	29768.414063	8221.814453	23.702833
493.937988	1528.929443	29037.640625	8068.977051	23.774462
494.289429	1532.788818	28473.484375	7945.581055	23.803366
494.640869	1531.686157	28000.085938	7846.224609	23.856895
494.992218	1531.686157	27623.722656	7761.755859	23.877285
495.343567	1529.149902	27261.039063	7686.770020	23.929918
495.694855	1530.362915	26811.238281	7575.174805	23.910612
496.046112	1533.230103	26245.205078	7448.582031	23.937189
496.397339	1532.899292	25526.890625	7279.754395	23.951225
496.748535	1534.663574	24699.515625	7084.462891	23.957846
497.099670	1534.994385	23875.558594	6899.757324	24.013550
497.450806	1536.097046	23117.435547	6739.641602	24.111315
497.801880	1540.177124	22517.664063	6615.032715	24.191914
498.152924	1536.648560	22015.919922	6517.992676	24.323835
498.503937	1535.766357	21626.441406	6441.684570	24.418880
498.854889	1541.279907	21339.951172	6381.806641	24.448746
499.205841	1537.089600	21112.789063	6337.255371	24.521046
499.556702	1541.941650	20926.869141	6299.211426	24.541075
499.907562	1539.956787	20761.572266	6268.003906	24.597553
500.258362	1540.838867	20609.949219	6235.804688	24.620792
500.609161	1544.588257	20483.576172	6211.654785	24.642639
500.959900	1543.926636	20330.847656	6176.808594	24.660143
501.310608	1543.595703	20167.863281	6143.616699	24.699070
501.661255	1540.949097	19978.414063	6107.336914	24.766895
502.011902	1544.257324	19809.808594	6071.388184	24.785078
502.362488	1545.249756	19609.330078	6029.374023	24.823429
502.713043	1546.352539	19430.138672	5990.227539	24.848627
503.063568	1541.279907	19261.421875	5961.997559	24.947416
503.414063	1538.523071	19106.378906	5926.048340	24.974735
503.764496	1541.059204	18964.458984	5897.597656	25.003952
504.114899	1539.295166	18838.527344	5864.295898	25.001116
504.465271	1538.743774	18744.794922	5840.586914	25.001921
504.815613	1535.656128	18675.433594	5822.392090	25.010452
505.165894	1529.701416	18602.212891	5815.003906	25.100599
505.516174	1527.716553	18584.128906	5806.071777	25.083561
505.866394	1527.937012	18570.455078	5814.342773	25.151247
506.216583	1523.305664	18563.177734	5822.723633	25.231518
506.566711	1523.856934	18600.339844	5827.906250	25.204542
506.916840	1523.085083	18640.369141	5843.234375	25.238523
507.266907	1521.872070	18704.107422	5852.056152	25.201519
507.616882	1518.674072	18761.666016	5859.885254	25.176668
507.966858	1516.689209	18802.027344	5869.920410	25.184532
508.316803	1516.248169	18854.185547	5894.511719	25.252506
508.666748	1516.579102	18909.541016	5901.348145	25.210020
509.016632	1515.145508	18965.890625	5909.838867	25.183413
509.366486	1513.932373	19011.984375	5929.908691	25.236959
509.716309	1512.940063	19094.466797	5953.947754	25.259510
510.066040	1512.609253	19168.130859	5972.804688	25.262325
510.415771	1515.476318	19257.892578	5992.764160	25.234940
510.765503	1514.263428	19336.626953	6016.031250	25.259094
511.115173	1516.248169	19421.427734	6032.902832	25.225409
511.464752	1516.578979	19503.468750	6059.258301	25.255501
511.814270	1518.012451	19575.478516	6077.232910	25.248396
512.163818	1518.563843	19630.283203	6096.750977	25.277485
512.513306	1516.578857	19691.484375	6106.785156	25.255733
512.862793	1520.328003	19720.816406	6120.680176	25.275982
513.212219	1519.887085	19769.556641	6126.414063	25.241699
513.561646	1518.563721	19808.925781	6134.133301	25.234982
513.911011	1515.255615	19836.164063	6148.910156	25.291618
514.260315	1513.932251	19890.197266	6161.812012	25.292843
514.609558	1514.593994	19954.156250	6181.661133	25.310076
514.958801	1517.460938	20057.042969	6208.898438	25.304979
515.308044	1517.019897	20201.500000	6241.869629	25.287561
515.657227	1518.894531	20392.933594	6281.457520	25.233406
516.006348	1520.989746	20606.861328	6338.579102	25.241653
516.355408	1523.415771	20836.009766	6398.457031	25.242807
516.704529	1523.856812	21066.146484	6444.992676	25.181982
517.053467	1523.415649	21249.308594	6487.998535	25.167850
517.402466	1526.062256	21397.183594	6530.783691	25.185905
517.751404	1523.084961	21517.271484	6554.933594	25.166557
518.100281	1525.290405	21624.896484	6573.128906	25.114117
518.449219	1520.548950	21691.941406	6607.643555	25.219353
518.798035	1517.571411	21757.333984	6622.860840	25.224060
519.146851	1516.689331	21826.916016	6649.546875	25.272280
519.495544	1517.020020	21905.869141	6670.278320	25.274885
519.844299	1522.313110	21994.197266	6699.169434	25.287640
520.192932	1520.218018	22093.333984	6718.467773	25.267199
520.541626	1522.313110	22156.630859	6740.411621	25.288446
520.890198	1527.937012	22260.949219	6765.665039	25.262745
521.238770	1530.583496	22355.783203	6790.808105	25.258940
521.587280	1531.796387	22446.537109	6813.413086	25.253082
521.935791	1530.693726	22546.884766	6828.079590	25.206211
522.284180	1532.788940	22645.027344	6858.734375	25.226814
522.632629	1534.994385	22760.375000	6899.315430	25.273146
522.981018	1530.693726	22887.296875	6939.564941	25.326458
523.329346	1530.693848	23058.660156	6976.836426	25.297989
523.677551	1525.731567	23236.419922	7024.915039	25.329386
524.025818	1523.415771	23458.398438	7079.610352	25.330288
524.374023	1521.100098	23722.173828	7147.758301	25.344080
524.722229	1520.438477	24090.261719	7223.186035	25.267134
525.070374	1520.548584	24555.941406	7341.949219	25.271549
525.418457	1519.556274	25200.154297	7509.232910	25.293604
525.766541	1524.849365	26106.705078	7726.358398	25.227993
526.114563	1525.621338	27271.955078	8024.315430	25.241241
526.462585	1522.974854	28579.017578	8361.419922	25.275112
526.810547	1526.172729	29825.097656	8669.630859	25.242859
527.158447	1526.172607	30890.884766	8919.067383	25.176117
527.506348	1528.157593	31764.574219	9137.738281	25.166939
527.854065	1528.598633	32475.056641	9306.013672	25.131844
528.201904	1522.202759	33035.906250	9442.531250	25.132967
528.549622	1520.879639	33462.882813	9539.019531	25.102180
528.897339	1520.879517	33790.281250	9616.763672	25.088423
529.245056	1519.997314	34014.574219	9684.911133	25.127007
529.592712	1516.027466	34193.992188	9734.864258	25.151007
529.940369	1515.365845	34378.804688	9785.590820	25.165428
530.287903	1517.571289	34558.000000	9812.385742	25.105043
530.635437	1514.704346	34745.679688	9870.830078	25.145592
530.982910	1517.020020	35013.753906	9933.686523	25.126825
531.330383	1518.233032	35248.523438	9994.556641	25.129707
531.677795	1521.651489	35370.593750	10015.948242	25.094719
532.025208	1522.643921	35337.398438	10019.147461	25.126617
532.372498	1521.320801	35142.769531	9972.060547	25.134968
532.719788	1522.643921	34723.730469	9866.970703	25.132694
533.067078	1520.659180	34028.792969	9687.999023	25.123989
533.414307	1523.195435	33081.554688	9447.714844	25.110683
533.761536	1525.290649	32011.136719	9164.314453	25.057610
534.108643	1523.085083	31022.433594	8922.375977	25.082897
534.455811	1523.856934	30247.216797	8736.786133	25.111719
534.802856	1527.275635	29614.585938	8581.744141	25.116213
535.149902	1524.408447	29126.521484	8473.014648	25.174183
535.496887	1523.195313	28710.240234	8367.705078	25.175631
535.843811	1522.864624	28364.095703	8294.594727	25.228836
536.190796	1520.328247	28066.687500	8222.586914	25.247375
536.537659	1526.613892	27817.033203	8161.496094	25.236883
536.884460	1527.826782	27578.732422	8100.957031	25.231869
537.231323	1525.180298	27296.324219	8036.446289	25.265724
537.578064	1525.952148	27017.113281	7976.127930	25.303579
537.924805	1524.518677	26697.654297	7901.583496	25.332821
538.271423	1526.062500	26405.654297	7837.514160	25.367987
538.618164	1527.275391	26236.941406	7810.275879	25.427298
538.964783	1526.062378	26303.761719	7843.798340	25.497669
539.311279	1525.290405	26509.308594	7912.499023	25.565178
539.657776	1529.811523	26777.714844	7989.137695	25.583614
540.004333	1534.001831	27009.066406	8048.906250	25.573652
540.350769	1530.914307	27213.953125	8114.407715	25.633621
540.697144	1534.773926	27352.234375	8157.305176	25.651365
541.043518	1534.773926	27429.089844	8177.815430	25.654438
541.389893	1532.788940	27431.296875	8179.470215	25.664341
541.736145	1533.009521	27319.259766	8165.685059	25.721754
542.082458	1531.465698	27184.619141	8137.346191	25.750753
542.428711	1530.032104	27028.029297	8100.956055	25.770351
542.774902	1534.443115	26874.091797	8073.828125	25.806929
543.121033	1534.001953	26771.865234	8049.678711	25.817070
543.467102	1535.766357	26708.130859	8042.950684	25.850510
543.813171	1530.473389	26658.839844	8039.973145	25.904985
544.159180	1527.826782	26623.990234	8033.467285	25.922848
544.505127	1527.275269	26580.546875	8013.728516	25.890644
544.851135	1525.510986	26465.642578	7993.438965	25.933817
545.197021	1529.039673	26279.062500	7949.109375	25.939651
545.542908	1529.811523	25915.710938	7857.143066	25.946682
545.888733	1528.598633	25382.431641	7718.309570	25.948498
546.234558	1529.701416	24666.982422	7538.785645	25.971436
546.580322	1529.370483	23875.119141	7333.237305	25.973024
546.926025	1522.754150	23061.306641	7137.503906	26.068371
547.271667	1516.799438	22344.753906	6971.874023	26.191120
547.617371	1515.917236	21688.521484	6806.354980	26.225853
547.962952	1510.513916	21087.759766	6661.015625	26.308613
548.308533	1506.985229	20539.593750	6531.555664	26.399797
548.654053	1510.513916	20035.978516	6408.601074	26.439753
548.999573	1510.072876	19574.046875	6299.873535	26.515764
549.344971	1509.631836	19205.074219	6209.560059	26.560108
549.690430	1511.727051	18895.871094	6131.597168	26.575193
550.035767	1514.704468	18655.806641	6072.160156	26.587881
550.381104	1517.461182	18424.896484	6022.427246	26.644880
550.726440	1517.350952	18201.921875	5968.062988	26.675615
551.071655	1521.872070	17961.861328	5907.523438	26.676731
551.416931	1523.305664	17699.191406	5850.622559	26.751654
551.762085	1523.305664	17417.554688	5781.261230	26.789284
552.107178	1526.393188	17137.240234	5714.877441	26.830603
552.452332	1527.937012	16865.531250	5645.074707	26.843439
552.797424	1528.488281	16617.859375	5594.018555	26.943007
553.142395	1529.039551	16403.378906	5549.358398	27.028553
553.487366	1531.906494	16235.324219	5512.086426	27.069759
553.832336	1533.450439	16092.630859	5484.408203	27.137226
554.177185	1538.192261	15982.911133	5452.869629	27.101097
554.522095	1537.199707	15885.650391	5432.579102	27.148432
554.866943	1540.508057	15797.429688	5418.133789	27.198196
555.211731	1540.177246	15707.779297	5394.976074	27.208549
555.556396	1542.162109	15630.037109	5383.507324	27.267031
555.901123	1536.758667	15550.971680	5368.069336	27.338749
556.245789	1533.891602	15491.977539	5357.482910	27.393379
556.590454	1533.340454	15421.841797	5347.117676	27.459965
556.934998	1535.656006	15336.601563	5334.657227	27.527109
557.279541	1531.135010	15230.741211	5314.587402	27.617233
557.624023	1529.260376	15136.675781	5282.277344	27.580677
557.968567	1528.488403	15005.562500	5252.283691	27.630592
558.312988	1526.393188	14903.338867	5229.787598	27.684904
558.657349	1528.267822	14807.733398	5202.770996	27.670565
559.001770	1528.708862	14752.045898	5196.596191	27.737986
559.346069	1524.628784	14695.036133	5187.774414	27.813457
559.690308	1524.187622	14652.139648	5176.306152	27.819408
560.034485	1519.445923	14622.696289	5163.293457	27.808731
560.378723	1517.681519	14593.473633	5150.612305	27.783638
560.722900	1515.365845	14547.491211	5146.532227	27.863195
561.067017	1513.380981	14502.721680	5134.512695	27.877718
561.411072	1513.932251	14474.269531	5131.094238	27.909475
561.755127	1513.380859	14445.488281	5120.287598	27.891098
562.099182	1512.057617	14444.275391	5111.796387	27.835432
562.443115	1513.711914	14463.792969	5114.442871	27.804699
562.787048	1512.609131	14476.474609	5112.567871	27.769178
563.130920	1517.020142	14514.077148	5125.139160	27.761047
563.474792	1519.997437	14593.033203	5144.326172	27.723694
563.818604	1519.887085	14671.437500	5164.726563	27.714142
564.162354	1516.689209	14778.511719	5181.819336	27.636702
564.506042	1522.202881	14880.733398	5208.394531	27.594290
564.849731	1525.290405	14948.110352	5238.608887	27.664219
565.193420	1526.723999	15022.654297	5259.340332	27.657347
565.537048	1527.054688	15072.498047	5275.770996	27.675110
565.880615	1524.959595	15111.315430	5291.099121	27.720015
566.224121	1526.723877	15117.048828	5288.011230	27.676212
566.567627	1533.781372	15125.760742	5287.349609	27.616055
566.911072	1532.788940	15127.083008	5300.582031	27.715988
567.254517	1536.758789	15147.593750	5311.168457	27.730919
567.597839	1535.104858	15172.957031	5316.351074	27.726110
567.941223	1534.002075	15221.255859	5322.856934	27.681629
568.284485	1532.678833	15281.576172	5333.113281	27.641741
568.627808	1534.663696	15341.895508	5351.639160	27.644756
568.970947	1535.876709	15414.675781	5373.803711	27.653164
569.314148	1538.633545	15486.792969	5394.645508	27.645311
569.657288	1534.774048	15551.301758	5417.251465	27.699284
570.000366	1534.112305	15612.943359	5439.526367	27.739618
570.343445	1532.348022	15662.568359	5443.275879	27.677753
570.686462	1528.378174	15679.879883	5438.864746	27.633015
571.029419	1526.723999	15675.358398	5434.895020	27.622248
571.372314	1526.613770	15632.462891	5425.742676	27.641930
571.715210	1521.651367	15592.434570	5412.510254	27.652042
572.058105	1520.989990	15575.562500	5403.246582	27.622730
572.400879	1521.872070	15552.845703	5395.307129	27.606318
572.743713	1518.563843	15550.087891	5396.188965	27.635094
573.086426	1520.328125	15549.425781	5405.341309	27.692537
573.429077	1521.982178	15559.351563	5417.030762	27.747711
573.771790	1517.902100	15557.585938	5422.654297	27.812252
574.114441	1517.571289	15556.593750	5420.779297	27.802563
574.457031	1516.248047	15535.863281	5411.185547	27.782057
574.799561	1519.115112	15488.666992	5407.436523	27.834259
575.142029	1518.674072	15425.588867	5399.937500	27.908875
575.484436	1520.438477	15341.343750	5378.434570	27.914207
575.826904	1518.674194	15231.954102	5351.858887	27.952353
576.169250	1519.666626	15101.721680	5322.085449	27.995903
576.511597	1518.012573	14939.840820	5281.946289	28.043375
576.853943	1521.320679	14764.176758	5232.103027	28.021011
577.196167	1524.518555	14579.801758	5181.598145	28.012259
577.538391	1523.526123	14387.044922	5143.664551	28.142677
577.880554	1526.503296	14197.925781	5102.422852	28.220346
578.222717	1527.606079	14013.992188	5054.123047	28.242897
578.564819	1527.936890	13843.730469	5017.402344	28.333256
578.906860	1531.906860	13668.176758	4982.115234	28.428905
579.248901	1529.039795	13486.114258	4934.146484	28.477758
579.590942	1528.488525	13311.665039	4897.425781	28.591078
579.932861	1530.473267	13130.047852	4847.913574	28.599674
580.274780	1531.576050	12965.851563	4792.557129	28.519350
580.616638	1528.929443	12799.669922	4746.573242	28.548647
580.958496	1528.267822	12642.088867	4701.913086	28.555841
581.300232	1525.400757	12493.443359	4662.986816	28.606617
581.641968	1525.841919	12354.940430	4629.463867	28.660023
581.983704	1524.187744	12222.283203	4599.800781	28.749163
582.325317	1525.841919	12101.534180	4572.894531	28.811852
582.666992	1527.275391	11995.232422	4551.060059	28.886101
583.008606	1529.591187	11896.317383	4529.997559	28.942657
583.350098	1530.693970	11814.714844	4503.201660	28.904140
583.691589	1529.039917	11735.871094	4489.527832	29.004965
584.033081	1530.473511	11675.662109	4471.332520	28.987720
584.374512	1529.150146	11635.742188	4464.385254	29.042778
584.715881	1530.804199	11580.606445	4451.925293	29.066452
585.057190	1531.245361	11526.683594	4440.015625	29.100977
585.398499	1526.613770	11487.756836	4434.722656	29.194530
585.739807	1531.355469	11463.937500	4423.805664	29.120829
586.081055	1531.134888	11458.313477	4412.006348	29.020044
586.422180	1532.347900	11440.449219	4415.976074	29.103741
586.763367	1531.134888	11435.597656	4415.755371	29.124453
587.104431	1532.237671	11436.257813	4415.865234	29.115726
587.445496	1529.370483	11437.471680	4419.725098	29.171627
587.786499	1529.039795	11440.559570	4419.504395	29.162680
588.127502	1532.237671	11449.160156	4423.033203	29.150126
588.468445	1533.340332	11450.815430	4420.275879	29.109583
588.809326	1533.560913	11456.659180	4426.892578	29.157541
589.150208	1536.207520	11464.377930	4423.364258	29.080452
589.491028	1537.751343	11463.717773	4419.504395	29.032467
589.831848	1533.450562	11459.858398	4417.850098	29.057837
590.172546	1529.591187	11462.835938	4416.967773	29.067806
590.513245	1527.385620	11457.653320	4421.489258	29.144266
590.853943	1526.723999	11469.452148	4422.151367	29.121054
591.194458	1523.084961	11473.973633	4425.239258	29.164776
591.535095	1526.282837	11476.620117	4420.828125	29.089924
591.875610	1528.819214	11484.891602	4428.547852	29.125225
592.216125	1524.739014	11512.017578	4435.053711	29.140219
592.556580	1528.819214	11542.123047	4443.544434	29.108526
592.897034	1527.385620	11559.435547	4453.910156	29.171749
593.237366	1524.408203	11564.838867	4466.591797	29.303360
593.577698	1529.260254	11603.103516	4471.113281	29.202885
593.918030	1530.252686	11650.410156	4484.787109	29.194551
594.258301	1531.686401	11705.215820	4501.106934	29.187712
594.598511	1533.450684	11771.158203	4521.065918	29.182465
594.938721	1535.325317	11857.501953	4545.546387	29.162659
595.278809	1534.443115	11935.464844	4572.563477	29.209827
595.618958	1537.861328	11997.327148	4583.590332	29.119354
595.958984	1535.876587	12031.291016	4597.153809	29.167761
596.299011	1534.663574	12048.934570	4605.203613	29.203545
596.638977	1534.112305	12065.916992	4608.071289	29.187391
596.978943	1536.317749	12067.018555	4608.842773	29.176830
597.318848	1538.302490	12054.998047	4598.367188	29.097208
597.658630	1541.720947	12036.031250	4591.089355	29.057348
597.998474	1541.941650	12002.398438	4583.149414	29.073374
598.338257	1541.610718	11959.060547	4575.540527	29.123535
598.677979	1536.648438	11904.476563	4565.726074	29.216125
599.017700	1535.986938	11873.490234	4553.927246	29.194096
599.357361	1536.317749	11823.316406	4541.907227	29.217358
599.696960	1537.530640	11767.958984	4536.062500	29.309933
600.036560	1535.104736	11732.892578	4528.454102	29.352928
600.376038	1537.420532	11709.957031	4515.000977	29.270779
600.715576	1535.215088	11680.955078	4511.251465	29.332867
601.055054	1530.473267	11653.055664	4504.304199	29.378187
601.394409	1530.142456	11614.680664	4502.099121	29.470428
601.733826	1529.260376	11593.729492	4495.372559	29.471127
602.073120	1523.195435	11560.426758	4487.983887	29.537912
602.412415	1519.335693	11560.868164	4490.410156	29.587860
602.751587	1515.366089	11583.473633	4500.995605	29.654325
603.090820	1516.578979	11618.099609	4507.061035	29.604275
603.429993	1518.563843	11665.185547	4521.065430	29.591143
603.769104	1517.902100	11700.142578	4533.526367	29.616510
604.108154	1517.240479	11724.841797	4546.208008	29.673645
604.447205	1517.571289	11761.012695	4562.858887	29.729145
604.786194	1516.358276	11777.001953	4572.232422	29.782478
605.125183	1519.666504	11801.591797	4582.157227	29.785187
605.464111	1522.423340	11833.351563	4590.427734	29.754883
605.802979	1524.849121	11869.520508	4599.028809	29.717518
606.141846	1523.415527	11894.111328	4603.108398	29.696108
606.480652	1525.621338	11927.525391	4617.444336	29.723625
606.819336	1524.187622	11986.520508	4623.178711	29.620461
607.158020	1522.202759	12036.363281	4634.977539	29.605549
607.496765	1518.453491	12074.296875	4656.371094	29.726828
607.835388	1515.255615	12102.967773	4661.333008	29.714422
608.173950	1520.328369	12105.945313	4658.465820	29.645294
608.512512	1522.313110	12089.955078	4650.084961	29.597635
608.851013	1523.415771	12038.128906	4640.601563	29.645943
609.189514	1528.708862	11961.158203	4622.075684	29.651394
609.527893	1531.575928	11846.584961	4583.921875	29.591307
609.866333	1536.428101	11725.615234	4555.802246	29.633120
610.204712	1538.082153	11597.809570	4523.050781	29.672461
610.542969	1536.317749	11477.282227	4489.638184	29.708588
610.881226	1535.545898	11375.941406	4457.217773	29.690594
611.219482	1536.538330	11296.544922	4432.295898	29.669626
611.557678	1534.774048	11222.221680	4407.925781	29.658503
611.895813	1534.001953	11170.172852	4391.936523	29.658405
612.233948	1529.370605	11119.116211	4375.285156	29.676641
612.571960	1530.693848	11067.949219	4366.022461	29.728977
612.910034	1530.693848	11004.432617	4352.790039	29.788624
613.247986	1530.032227	10945.435547	4339.888184	29.843182
613.585938	1525.510986	10878.611328	4312.981934	29.802641
613.923828	1526.723877	10775.286133	4292.471191	29.904619
614.261658	1528.708740	10655.861328	4265.233887	29.982244
614.599487	1530.583374	10533.898438	4228.843262	29.969624
614.937317	1532.899170	10426.493164	4203.260254	30.025669
615.275024	1529.921753	10327.688477	4178.890137	30.109554
615.612732	1525.951904	10242.007813	4160.474121	30.226084
615.950378	1524.297852	10159.083008	4138.971191	30.280699
616.288025	1523.856812	10087.185547	4120.444824	30.322178
616.625549	1523.415649	10036.679688	4106.551270	30.342485
616.963074	1522.092407	9979.669922	4100.486328	30.486202
617.300537	1521.761597	9949.125000	4093.539063	30.516987
617.638000	1521.761597	9913.396484	4093.098145	30.641663
617.975464	1523.636230	9882.080078	4091.223145	30.718481
618.312744	1525.952026	9843.483398	4087.584473	30.797989
618.650024	1523.746582	9816.908203	4082.071045	30.848600
618.987305	1523.526001	9787.244141	4076.116455	30.889128
619.324585	1529.370483	9754.933594	4071.815918	30.909071
619.661743	1528.267822	9729.902344	4060.898926	30.879589
619.998901	1531.465820	9711.817383	4055.715820	30.857475
620.336060	1534.001953	9686.896484	4051.855713	30.882942
620.673096	1539.184814	9661.203125	4048.216797	30.891729
621.010193	1538.633423	9631.980469	4037.409912	30.874449
621.347168	1535.766357	9616.762695	4038.181885	30.966671
621.684082	1534.773926	9601.544922	4031.124512	30.946095
622.020996	1535.545898	9580.703125	4020.759277	30.890799
622.357849	1540.397827	9554.568359	4014.473877	30.871269
622.694641	1540.397827	9528.212891	4005.100830	30.855787
623.031433	1541.941650	9508.142578	4004.218750	30.909050
623.368164	1542.162231	9502.850586	3996.830322	30.834869
623.704895	1541.059570	9505.497070	4001.461670	30.892353
624.041504	1537.971924	9534.609375	4000.248535	30.791399
624.378174	1534.663818	9550.929688	4000.799561	30.764147
624.714783	1534.994629	9583.019531	4001.460938	30.646852
625.051331	1531.906982	9605.955078	4012.819092	30.726994
625.387756	1531.024780	9641.573242	4018.664063	30.671652
625.724304	1531.906860	9667.598633	4026.383301	30.660902
626.060669	1535.656128	9673.332031	4035.977051	30.725245
626.397034	1532.678955	9680.831055	4042.372314	30.800766
626.733337	1532.568604	9681.161133	4042.813721	30.805872
627.069641	1527.716553	9676.640625	4044.908936	30.889875
627.405884	1528.267944	9668.479492	4043.254883	30.895842
627.742126	1527.937012	9663.517578	4041.931641	30.901232
628.078308	1523.526123	9658.775391	4040.277588	30.936378
628.414429	1523.526123	9645.101563	4027.816650	30.835035
628.750488	1524.959595	9631.758789	4022.634277	30.809629
629.086548	1526.062256	9595.479492	4023.736572	30.952351
629.422546	1523.526123	9564.051758	4014.914795	30.985397
629.758545	1525.069824	9526.228516	3999.035400	30.920092
630.094421	1524.187744	9472.195313	3980.950439	30.910421
630.430298	1525.290405	9417.831055	3974.885498	31.036840
630.766113	1526.282959	9351.777344	3954.926025	31.035013
631.101929	1529.260254	9271.388672	3935.187012	31.075779
631.437622	1531.575928	9189.014648	3913.684082	31.108421
631.773376	1529.149902	9111.272461	3894.717529	31.199280
632.109070	1529.149902	9044.116211	3872.001465	31.175810
632.444641	1525.510864	8975.857422	3855.019287	31.267113
632.780273	1528.378052	8906.606445	3836.714355	31.285782
633.115784	1525.069946	8849.706055	3814.659668	31.258751
633.451294	1521.872070	8788.946289	3795.251953	31.283289
633.786682	1520.438477	8727.304688	3785.106445	31.423756
634.122131	1521.982178	8668.307617	3767.132080	31.416845
634.457458	1520.107666	8613.833008	3750.149902	31.436827
634.792847	1519.997314	8549.323242	3732.837402	31.480116
635.128113	1524.739136	8485.807617	3719.825439	31.533758
635.463318	1526.613770	8434.750000	3706.041260	31.548704
635.798584	1525.841919	8377.078125	3694.131592	31.648149
636.133728	1525.952148	8329.109375	3674.502930	31.581671
636.468872	1525.290527	8283.125000	3664.688721	31.658043
636.803955	1524.739136	8240.559570	3656.639160	31.744446
637.139038	1526.613770	8204.279297	3650.794678	31.810232
637.473999	1525.069946	8163.147949	3636.789795	31.812216
637.808899	1525.400757	8111.651855	3628.850342	31.936981
638.143799	1522.202759	8053.869141	3616.168945	32.058685
638.478638	1523.415771	7994.541504	3608.891113	32.227394
638.813538	1528.047363	7933.230469	3596.099365	32.287163
639.148315	1530.252808	7868.169434	3579.889160	32.339275
639.483032	1530.583496	7802.336914	3557.834717	32.323517
639.817749	1529.150024	7742.680176	3536.883301	32.312279
640.152405	1527.165161	7685.999023	3517.144043	32.310966
640.487000	1529.480835	7628.216309	3500.603516	32.320187
640.821594	1528.819214	7575.727539	3482.518311	32.309059
641.156128	1528.598511	7530.735840	3470.829590	32.358994
641.490662	1528.267822	7483.979980	3463.000488	32.485329
641.825134	1524.959595	7437.886230	3451.863037	32.587982
642.159546	1522.092651	7393.886719	3440.945801	32.679165
642.493896	1519.666626	7349.887695	3429.036377	32.749527
642.828186	1517.902222	7319.563477	3420.986572	32.802406
643.162537	1516.358398	7284.606934	3412.275391	32.868156
643.496765	1515.696777	7244.688477	3404.997314	32.977890
643.830994	1516.027588	7218.002441	3395.183105	32.956223
644.165100	1513.380981	7196.499023	3380.296143	32.850189
644.499268	1510.293457	7173.011230	3375.995605	32.947117
644.833313	1509.301025	7158.014160	3371.363770	32.964371
645.167358	1515.035156	7139.157715	3363.754883	32.871258
645.501343	1513.491211	7132.981934	3357.689697	32.817894
645.835327	1509.962524	7123.058105	3349.419189	32.770805
646.169189	1508.529053	7114.456055	3342.692627	32.718292
646.503052	1512.057617	7104.311035	3342.692627	32.735195
646.836914	1513.932251	7088.541504	3344.677734	32.840786
647.170654	1516.578979	7080.492676	3344.347168	32.850407
647.504395	1517.461182	7083.359375	3342.362061	32.787174
647.838074	1520.107666	7085.785156	3345.891113	32.804333
648.171753	1518.563965	7084.130859	3345.009033	32.816875
648.505371	1519.666626	7081.926270	3337.399902	32.679764
648.838928	1519.666626	7087.440430	3339.936768	32.692959
649.172424	1521.982300	7097.144531	3342.693359	32.657543
649.505920	1522.754150	7098.687500	3346.442627	32.706425
649.839294	1523.526245	7092.181641	3345.560303	32.719463
650.172729	1525.070068	7090.195801	3350.853516	32.807587
650.506104	1525.731567	7093.063965	3346.001221	32.695545
650.839355	1524.959595	7090.638184	3350.742920	32.804325
651.172668	1528.157593	7082.256836	3347.545410	32.757568
651.505859	1533.671265	7068.252441	3345.670410	32.739590
651.839111	1538.082153	7056.342773	3345.449707	32.752487
652.172241	1535.876709	7041.786621	3342.582275	32.813931
652.505371	1535.435547	7022.710449	3334.422363	32.784702
652.838379	1536.648560	7007.603516	3336.958740	32.906689
653.171387	1536.758789	6991.062500	3331.886230	32.912128
653.504333	1537.310181	6964.927734	3326.152100	32.958141
653.837280	1534.001953	6946.622559	3317.220215	32.945560
654.170227	1533.781494	6934.712891	3319.866699	33.069946
654.503052	1535.214966	6922.582520	3319.094482	33.112267
654.835876	1537.751221	6907.695801	3312.698975	33.053375
655.168579	1542.713379	6891.927246	3314.353027	33.119625
655.501343	1541.279907	6883.436035	3311.706055	33.140667
655.833984	1544.477783	6877.039551	3311.375488	33.134129
656.166626	1543.044312	6878.804199	3308.839355	33.093601
656.499268	1544.588013	6896.999023	3313.801270	33.054508
656.831787	1545.580444	6924.126465	3319.204590	32.975903
657.164307	1540.287598	6959.083496	3325.380127	32.942604
657.496765	1539.625854	6995.473145	3337.510010	32.953346
657.829224	1541.059448	7031.642090	3347.655029	32.903534
658.161621	1538.302612	7066.819336	3365.299072	33.046776
658.493958	1535.986938	7092.732910	3372.466553	33.049549
658.826233	1532.568604	7112.912109	3371.915283	32.961170
659.158508	1530.032227	7145.002441	3376.436279	32.883595
659.490723	1530.914429	7156.470215	3385.589355	32.968742
659.822876	1531.576050	7165.181641	3382.391357	32.853123
660.154968	1531.245239	7168.710449	3385.258301	32.887352
660.487061	1529.921875	7173.231934	3386.691650	32.902142
660.819153	1531.906860	7170.034180	3390.551270	32.965633
661.151123	1530.473267	7159.007324	3384.706787	32.943455
661.483093	1531.134888	7142.245605	3385.809570	33.053608
661.815002	1528.708740	7124.049805	3378.421143	33.058083
662.146851	1524.077393	7100.892090	3364.196045	32.995872
662.478760	1521.320557	7082.146484	3355.154053	32.977718
662.810486	1519.666504	7055.461426	3347.655029	33.021248
663.142212	1519.004883	7017.968750	3341.369873	33.140152
663.473938	1521.430908	6967.243164	3323.725830	33.095058
663.805603	1521.320557	6898.985352	3305.751465	33.182262
664.137207	1523.967041	6828.961914	3289.541260	33.281353
664.468689	1525.400635	6759.269531	3267.597168	33.286972
664.800293	1526.172607	6684.834961	3244.440186	33.308395
665.131775	1529.921875	6612.826660	3225.473145	33.357918
665.463196	1529.480713	6554.823730	3209.924805	33.439392
665.794617	1531.906860	6497.812500	3197.464355	33.539852
666.125916	1537.530640	6446.314941	3188.752686	33.638107
666.457275	1537.971802	6413.785156	3173.535400	33.544426
666.788574	1536.979370	6383.789551	3164.933838	33.588161
667.119812	1539.295044	6353.906250	3159.089355	33.643303
667.450928	1540.397827	6330.308105	3156.773438	33.745426
667.782104	1540.177368	6313.988281	3154.678223	33.819958
668.113159	1540.397827	6295.461914	3146.628418	33.779369
668.444214	1535.876709	6287.633301	3133.946533	33.631138
668.775208	1536.758789	6277.928711	3137.365234	33.759735
669.106201	1540.067017	6267.453125	3138.357422	33.809177
669.437134	1543.044312	6245.729004	3138.137207	33.918774
669.768005	1546.904053	6219.263184	3128.543457	33.850979
670.098877	1548.999146	6209.559570	3120.272949	33.714268
670.429688	1548.227295	6190.813477	3121.265625	33.882805
670.760437	1550.101929	6188.717773	3116.192871	33.762032
671.091187	1550.542969	6176.477539	3111.451172	33.742550
671.421814	1549.109375	6162.472656	3108.584229	33.803425
671.752441	1546.573120	6143.506836	3104.614502	33.893059
672.083008	1542.934204	6130.383789	3097.005615	33.876587
672.413574	1544.367798	6119.577148	3086.640137	33.709328
672.744080	1539.846558	6102.816406	3083.772949	33.835999
673.074524	1536.758911	6089.362793	3079.913330	33.896084
673.404968	1535.876709	6066.977539	3076.163818	33.993664
673.735352	1536.869019	6040.401855	3074.620361	34.145447
674.065613	1533.560913	6016.141602	3070.209473	34.280445
674.395935	1531.355469	6001.144531	3068.224609	34.383484
674.726196	1528.819214	5980.192871	3064.034180	34.488567
675.056335	1529.150024	5964.313965	3059.512939	34.505215
675.386536	1531.796509	5940.384766	3054.109619	34.530624
675.716614	1528.929443	5925.387695	3043.082520	34.440296
676.046692	1526.503296	5913.808594	3037.789551	34.446800
676.376770	1526.834229	5913.698730	3039.553711	34.482933
676.706726	1523.856812	5920.866699	3036.686768	34.405880
677.036621	1524.518555	5919.323242	3034.812012	34.365429
677.366516	1525.290405	5932.114746	3032.716797	34.206638
677.696411	1521.210327	5936.635254	3039.112549	34.377262
678.026184	1518.343384	5951.631836	3040.876465	34.343197
678.355957	1517.902100	5965.967285	3046.280029	34.360508
678.685669	1519.997314	5992.542969	3058.740967	34.404202
679.015320	1519.666626	6014.707520	3064.585449	34.369404
679.344971	1521.210449	6027.168945	3071.532471	34.406044
679.674561	1522.313232	6048.010254	3076.164063	34.333954
680.004150	1517.240723	6064.110352	3077.156738	34.307472
680.333618	1518.453735	6078.115234	3081.347168	34.276524
680.663086	1517.791992	6094.435059	3084.214355	34.226448
680.992493	1519.997437	6107.778320	3086.861084	34.152977
681.321899	1521.761719	6110.093750	3080.134033	33.963810
681.651184	1523.746704	6108.219238	3071.753418	33.766300
681.980530	1526.393188	6103.146973	3070.981445	33.748554
682.309753	1526.723999	6094.655762	3074.620605	33.886158
682.638977	1527.385498	6081.533691	3070.540283	33.884594
682.968079	1528.929199	6066.426270	3075.281982	34.079422
683.297241	1531.024414	6046.797852	3074.620361	34.182316
683.626343	1532.678589	6027.499512	3078.479980	34.390724
683.955383	1530.803955	5996.403320	3077.928467	34.645393
684.284363	1533.340332	5959.351563	3069.657959	34.711109
684.613281	1533.119751	5924.835938	3059.623047	34.758694
684.942139	1531.355469	5886.681641	3050.029541	34.869354
685.271057	1532.348022	5854.041016	3040.656250	34.900867
685.599792	1529.260376	5815.224121	3021.137939	34.808449
685.928589	1530.363037	5784.348633	3011.765137	34.823864
686.257324	1527.716553	5753.692871	3004.156250	34.937244
686.585999	1528.488525	5724.580566	2995.224121	34.954803
686.914612	1531.024780	5680.582031	2987.174072	35.091679
687.243164	1531.024780	5642.647949	2976.477783	35.155289
687.571777	1531.245117	5601.516602	2964.678711	35.217148
687.900269	1530.363037	5560.385254	2952.658936	35.292507
688.228699	1528.378052	5526.420898	2947.917236	35.505852
688.557129	1530.362915	5496.758301	2946.924561	35.714081
688.885498	1526.393188	5467.314941	2941.411377	35.905766
689.213867	1525.510986	5442.834473	2934.905029	35.978497
689.542114	1524.628906	5421.772461	2929.281250	36.043125
689.870361	1523.636475	5396.079102	2917.923096	36.005352
690.198608	1522.313110	5375.126465	2905.462402	35.899719
690.526794	1522.533813	5343.258301	2893.222168	35.875088
690.854858	1522.313110	5320.982910	2883.848877	35.842434
691.182922	1516.248169	5299.259277	2877.673340	35.987869
691.510986	1516.358398	5276.433105	2874.365234	36.116486
691.838928	1521.320679	5241.477051	2865.874268	36.142395
692.166931	1522.974731	5200.455566	2858.044922	36.303932
692.494812	1526.282837	5167.484375	2850.766846	36.374916
692.822632	1525.841797	5120.288086	2842.386230	36.627182
693.150452	1527.495850	5083.236328	2836.100586	36.802593
693.478149	1525.952148	5042.655762	2822.647217	36.872459
693.805908	1527.826782	5017.734375	2814.818115	36.877518
694.133606	1527.606079	4996.671875	2808.201660	36.914707
694.461243	1529.039673	4976.712402	2802.688232	36.942268
694.788818	1530.583496	4963.038086	2803.019043	37.070717
695.116333	1532.458130	4961.714844	2796.843750	36.870544
695.443848	1532.347900	4954.547363	2793.535645	36.853134
695.771301	1534.663452	4967.780273	2795.961670	36.739159
696.098755	1536.869019	4989.614258	2804.232178	36.705959
696.426147	1538.302612	5020.049316	2822.647461	36.887947
696.753418	1537.751343	5064.489258	2835.108643	36.786327
697.080688	1537.530640	5103.635742	2850.105957	36.806973
697.407898	1537.199829	5152.597168	2866.866943	36.777897
697.735107	1537.310059	5187.553223	2878.555908	36.744015
698.062317	1540.066895	5222.729980	2887.818848	36.597210
698.389404	1541.831421	5252.503906	2890.796143	36.353645
698.716492	1540.949097	5280.292480	2897.743408	36.284294
699.043457	1536.427979	5295.730957	2905.020996	36.405499
699.370483	1534.884155	5303.449219	2911.196289	36.520855
699.697388	1536.207397	5314.476563	2913.622314	36.456242
700.024292	1536.648438	5318.777832	2915.717529	36.462769
700.351135	1538.192261	5310.507324	2918.694824	36.595634
700.677917	1537.309937	5302.567383	2914.835449	36.585163
701.004639	1538.192139	5290.989258	2911.085938	36.583214
701.331299	1538.853760	5274.338379	2910.865479	36.729149
701.658020	1535.876465	5256.915039	2902.374512	36.723564
701.984619	1535.435303	5223.171387	2898.515137	36.962509
702.311218	1537.640747	5193.177246	2888.039307	36.941185
702.637756	1539.074341	5146.642578	2875.137451	37.035004
702.964233	1536.207275	5091.506348	2860.581543	37.250713
703.290649	1532.678711	5023.027344	2836.211182	37.346771
703.617065	1532.237671	4950.688477	2814.267090	37.503231
703.943481	1531.024658	4864.344727	2790.006836	37.769615
704.269775	1528.708862	4791.344238	2767.070068	37.955856
704.596008	1528.267822	4730.583984	2749.978027	38.150829
704.922241	1525.510986	4663.869141	2736.304199	38.580467
705.248474	1526.503418	4603.991211	2725.938721	38.974495
705.574585	1524.959717	4556.352539	2716.124512	39.294308
705.900696	1525.400757	4518.529297	2702.229980	39.317699
706.226746	1526.503540	4489.969238	2691.974365	39.327965
706.552734	1525.621338	4460.085449	2684.585938	39.494930
706.878723	1523.526245	4434.391602	2679.513428	39.712837
707.204651	1522.533813	4421.049316	2672.345703	39.668991
707.530518	1526.282959	4410.683105	2673.338135	39.767548
707.856323	1523.526123	4401.089844	2671.573975	39.896523
708.182068	1521.761719	4400.096680	2665.178223	39.724930
708.507813	1526.282837	4397.781250	2666.170654	39.696617
708.833496	1525.841797	4395.465332	2671.905029	39.937756
709.159180	1522.092407	4407.264648	2680.285645	40.142948
709.484802	1519.335693	4415.645020	2688.115234	40.354099
709.810303	1521.982178	4421.489746	2688.225342	40.222111
710.135864	1522.643799	4431.855469	2693.297852	40.239563
710.461304	1523.415771	4434.281738	2696.164795	40.288666
710.786743	1522.754150	4447.514648	2700.024414	40.251850
711.112122	1522.974731	4447.183594	2701.898926	40.316002
711.437500	1524.739136	4451.043457	2697.708496	40.083645
711.762817	1526.723999	4454.351074	2698.811279	40.035404
712.088013	1525.952148	4456.335938	2698.039307	39.997734
712.413269	1532.017090	4455.343262	2697.046875	39.852882
712.738403	1533.009521	4461.628906	2700.134521	39.852398
713.063538	1530.142578	4457.989746	2703.332275	40.070045
713.388611	1526.282959	4458.431152	2703.332275	40.142899
713.713623	1523.085083	4456.666992	2696.605469	40.002987
714.038574	1522.533691	4455.343750	2697.708252	40.069916
714.363525	1517.571411	4444.757813	2693.187012	40.161964
714.688477	1518.784424	4438.692871	2695.282471	40.292294
715.013306	1518.233032	4424.467285	2695.061768	40.493248
715.338135	1517.240479	4405.832031	2692.635742	40.690948
715.662842	1516.799438	4392.268066	2684.585938	40.612038
715.987549	1514.704346	4365.250977	2674.992432	40.704056
716.312195	1515.586548	4337.020996	2666.060547	40.776207
716.636841	1510.072876	4309.893555	2650.401855	40.728642
716.961426	1512.940063	4277.473633	2636.948486	40.658157
717.285950	1510.624390	4246.596680	2629.119141	40.881073
717.610474	1510.513916	4219.910645	2619.525391	40.932045
717.934937	1511.616699	4188.042480	2609.931641	41.036629
718.259277	1510.293579	4158.048828	2604.858887	41.339367
718.583679	1511.065308	4126.400391	2593.170166	41.375381
718.908020	1511.506470	4098.060059	2584.568848	41.486183
719.232239	1507.205811	4065.860107	2574.093018	41.697201
719.556519	1505.882568	4031.344971	2561.191162	41.786747
719.880737	1508.529053	4001.350830	2552.479492	41.878262
720.204834	1513.270752	3963.527588	2544.870605	42.101704
720.528931	1516.248047	3929.343262	2541.783203	42.498745
720.852966	1519.335693	3900.341797	2537.482666	42.761208
721.176941	1523.305542	3871.340088	2524.580811	42.643120
721.500916	1525.069824	3841.566650	2513.002197	42.647690
721.824829	1525.510986	3815.542480	2505.283203	42.784225
722.148743	1523.967041	3794.039063	2495.799561	42.810646
722.472534	1524.849243	3771.322266	2488.742188	42.906944
722.796326	1528.047241	3750.590820	2488.521973	43.215115
723.119995	1527.716553	3727.654297	2483.779785	43.458649
723.443665	1531.796631	3714.201172	2486.205811	43.732002
723.767334	1531.686279	3707.695801	2487.197998	43.911194
724.090942	1534.774048	3705.820801	2487.749512	43.894745
724.414551	1535.435547	3699.424561	2488.741943	44.053200
724.737976	1536.207520	3699.755615	2489.293213	44.051975
725.061462	1539.405396	3692.477783	2488.852051	44.097298
725.384888	1539.405518	3692.257324	2489.513916	44.132549
725.708252	1540.949341	3693.801270	2495.468506	44.337425
726.031616	1539.736206	3705.379883	2501.092529	44.391254
726.354858	1541.390381	3719.053223	2505.283203	44.262722
726.678162	1537.751343	3719.604980	2512.450684	44.672997
727.001404	1536.317749	3735.263428	2519.838867	44.726936
727.324463	1538.964355	3741.769775	2518.074707	44.448338
727.647583	1536.758911	3746.511230	2518.626221	44.433361
727.970642	1536.648682	3750.922363	2528.660889	44.800797
728.293701	1536.758789	3754.451172	2536.710938	45.089760
728.616699	1534.002075	3762.831543	2546.194336	45.413624
728.939575	1531.465820	3774.961670	2555.788086	45.657417
729.262512	1528.929443	3786.760742	2561.853027	45.748486
729.585266	1530.473267	3800.875732	2557.552734	45.237774
729.908142	1531.796631	3818.629883	2562.845459	45.086315
730.230896	1532.678711	3826.128418	2569.792480	45.220688
730.553467	1533.450562	3835.611572	2577.180908	45.336979
730.876160	1534.773926	3837.927002	2578.283447	45.307865
731.198792	1536.097290	3846.527832	2587.987549	45.527885
731.521362	1536.758911	3854.026855	2597.360596	45.769485
731.843872	1535.656128	3861.084473	2606.513184	46.049885
732.166321	1532.678711	3866.487793	2612.357666	46.262524
732.488770	1532.017212	3865.495117	2611.034424	46.240726
732.811157	1530.032227	3856.783447	2607.726074	46.317535
733.133484	1528.378174	3843.440918	2612.688477	46.837189
733.455811	1530.693848	3832.854248	2606.843994	46.745228
733.778015	1531.576172	3824.032715	2597.912109	46.514992
734.100281	1528.157593	3820.725098	2600.117432	46.758053
734.422424	1527.385742	3806.279053	2599.014404	47.024082
734.744507	1525.511108	3792.605713	2601.219971	47.448784
735.066589	1524.077515	3784.444824	2600.668457	47.629028
735.388611	1525.511108	3774.409912	2592.398438	47.440430
735.710571	1528.598755	3754.340820	2589.641602	47.671417
736.032532	1531.576172	3740.666748	2588.428711	47.841068
736.354431	1531.024780	3725.558838	2593.721680	48.424713
736.676270	1527.165161	3713.097900	2589.972412	48.620312
736.998108	1525.070068	3704.386475	2586.333496	48.697079
737.319824	1523.967407	3695.013428	2582.032715	48.735279
737.641541	1519.225586	3684.647949	2583.024902	49.126644
737.963135	1520.107788	3675.936768	2577.621582	49.053692
738.284790	1520.218018	3657.190430	2571.446289	49.192413
738.606323	1518.894775	3644.950439	2567.586670	49.325703
738.927856	1519.776978	3628.299072	2568.910156	49.756805
739.249390	1520.659180	3611.537598	2569.792480	50.176678
739.570740	1524.518677	3597.863770	2572.438965	50.542488
739.892212	1525.731567	3585.733643	2566.484375	50.521935
740.213562	1527.385620	3582.977051	2569.572021	50.700077
740.534790	1527.054810	3572.390625	2570.895264	51.035164
740.856079	1529.701416	3558.496582	2569.461914	51.250145
741.177246	1532.458130	3555.850098	2565.271484	51.043663
741.498413	1534.222534	3552.652588	2560.529541	50.846794
741.819580	1531.245117	3538.096436	2555.787842	51.052250
742.140625	1531.796509	3528.392578	2555.787842	51.286854
742.461670	1531.796509	3519.239502	2552.700439	51.367710
742.782654	1530.032104	3500.052002	2548.951172	51.721256
743.103577	1527.275146	3486.708984	2545.422363	51.961296
743.424438	1528.488159	3469.396484	2544.429688	52.343613
743.745300	1528.929443	3453.737305	2546.083740	52.844460
744.066101	1529.260132	3436.093750	2545.863281	53.313679
744.386902	1534.442871	3418.780762	2542.113770	53.476124
744.707581	1532.899048	3395.182617	2538.475098	53.996937
745.028198	1531.906616	3382.722168	2535.938965	54.248104
745.348816	1530.693726	3369.268555	2530.976563	54.405338
745.669373	1530.583374	3360.998535	2528.881104	54.539417
745.989929	1529.921753	3352.176758	2524.911377	54.602108
746.310364	1530.804077	3345.119141	2520.059570	54.525013
746.630798	1530.583496	3336.958740	2524.360107	55.014961
746.951172	1528.378052	3327.034180	2519.177002	55.085514
747.271545	1526.393066	3320.858887	2522.595703	55.515274
747.591858	1525.621216	3316.999268	2522.595703	55.654053
747.912109	1525.621216	3315.676025	2528.991699	56.052502
748.232300	1522.533569	3319.976563	2531.638184	56.141121
748.552429	1526.834229	3321.961426	2531.858643	55.986252
748.872559	1528.267822	3316.889160	2529.101807	55.955608
749.192627	1528.488403	3319.645752	2523.808350	55.568539
749.512695	1530.362915	3321.299805	2519.949219	55.255230
749.832642	1533.781494	3316.337891	2518.515625	55.242805
750.152588	1536.538208	3315.455322	2516.751221	55.101669
750.472473	1537.310181	3308.948975	2512.560791	55.047935
750.792358	1538.854126	3300.789551	2509.032227	55.063206
751.112122	1539.515747	3296.157715	2506.826660	55.065910
751.431824	1540.397827	3291.968018	2505.503418	55.099453
751.751587	1542.162109	3293.952393	2505.723877	55.004402
752.071228	1546.021606	3284.909912	2507.047119	55.266663
752.390869	1547.786133	3282.925537	2507.819092	55.328865
752.710327	1550.542847	3281.712402	2507.157471	55.258286
753.029846	1546.793579	3276.198730	2506.936768	55.518696
753.349304	1546.793579	3271.787598	2503.628662	55.468891
753.668762	1546.793579	3271.125732	2504.841553	55.560524
753.988098	1547.786011	3263.627197	2501.423096	55.578400
754.307434	1547.786011	3258.113770	2500.871826	55.725330
754.626770	1548.006470	3243.006348	2499.769287	56.151203
754.946045	1548.557861	3226.465820	2495.799561	56.453735
755.265259	1546.462646	3212.791748	2492.491455	56.773228
755.584351	1544.698242	3212.901855	2496.791992	57.072994
755.903442	1543.816162	3206.836670	2497.453613	57.343697
756.222534	1541.059204	3204.521484	2503.959717	57.885323
756.541565	1536.097046	3203.859863	2501.533691	57.888126
756.860535	1534.553223	3199.559082	2501.643799	58.083313
757.179443	1535.104614	3201.985107	2500.871826	57.938599
757.498291	1532.237549	3200.220703	2497.894287	57.893673
757.817139	1529.260254	3202.977295	2493.042480	57.583344
758.135925	1529.811523	3206.947510	2486.536377	57.045158
758.454651	1529.370483	3203.639160	2480.802246	56.826706
758.773376	1526.944580	3206.837158	2475.288574	56.452656
759.092041	1526.282959	3200.110596	2461.394287	55.866646
759.410645	1522.864502	3200.110596	2456.432129	55.660744
759.729187	1524.628784	3204.411133	2456.542480	55.478241
760.047607	1525.841797	3205.844971	2447.610352	54.867073
760.366089	1527.716431	3206.396240	2437.024170	54.168026
760.684509	1528.047119	3214.887207	2429.525635	53.441849
761.002869	1528.157471	3226.245117	2427.761230	52.977463
761.321228	1526.834229	3258.114258	2428.643311	52.089153
761.639465	1523.415771	3301.450928	2439.670654	51.531876
761.957642	1524.628784	3355.594971	2451.910889	50.644413
762.275879	1524.297974	3392.095215	2462.055908	50.206623
762.593994	1528.047241	3424.294678	2477.714600	50.081406
762.912109	1529.811646	3457.266357	2478.376221	49.213326
763.230103	1533.781494	3481.416016	2483.559082	48.765697
763.548157	1530.914429	3510.197266	2492.822266	48.598808
763.866150	1530.142578	3521.555176	2501.644043	48.784538
764.184021	1533.671265	3534.346680	2507.929443	48.696465
764.501892	1533.561157	3543.609863	2515.096924	48.831444
764.819702	1535.545898	3548.902832	2519.618164	48.877190
765.137451	1534.443115	3551.218262	2522.044189	48.969318
765.455200	1535.215088	3557.062988	2526.565186	49.031883
765.772888	1536.317749	3558.386230	2533.512695	49.315586
766.090515	1535.215088	3556.290527	2539.577637	49.694462
766.408081	1536.758789	3554.195313	2538.585205	49.658386
766.725586	1537.310181	3549.674805	2543.437256	49.997253
767.043091	1536.207397	3542.837891	2551.928467	50.618240
767.360535	1533.671143	3533.905518	2559.095947	51.265232
767.677917	1533.560791	3512.953613	2555.567383	51.632328
767.995239	1531.686157	3482.959473	2549.612549	52.167290
768.312500	1535.104614	3428.705322	2536.821045	52.900089
768.629822	1532.678711	3368.716797	2524.360352	54.012039
768.947021	1531.576050	3315.345703	2508.370850	54.760143
769.264160	1528.378174	3279.175537	2494.256104	55.167889
769.581299	1528.488281	3238.375000	2489.293457	56.191158
769.898376	1523.856812	3201.103027	2481.574707	57.100613
770.215393	1529.260132	3163.059082	2467.680176	57.437916
770.532349	1530.252563	3136.483643	2457.976074	57.757786
770.849304	1527.495850	3109.136230	2451.800781	58.439640
771.166199	1529.590942	3082.450195	2447.059082	59.082504
771.483032	1529.921753	3060.395264	2444.743408	59.773766
771.799866	1530.031982	3043.634033	2440.332520	60.141338
772.116577	1529.590942	3022.461670	2435.149658	60.658882
772.433350	1529.591064	3013.529541	2434.047119	60.949699
772.749939	1528.929443	2994.341797	2427.541016	61.321415
773.066589	1530.583374	2978.242188	2425.666260	61.829685
773.383057	1531.245117	2968.758545	2423.681641	62.081963
773.699646	1533.671021	2958.282959	2421.806641	62.342285
774.016113	1537.089478	2946.924561	2418.057373	62.487301
774.332520	1537.971680	2943.947266	2415.852051	62.439232
774.648804	1539.625610	2932.699463	2414.749268	62.819618
774.965149	1537.751099	2931.486328	2415.741699	62.995510
775.281433	1539.956543	2928.178223	2412.764404	62.872368
775.597656	1539.846313	2922.885010	2417.175293	63.434883
775.913879	1540.838867	2908.549561	2412.874756	63.758797
776.229980	1539.625854	2895.647949	2403.170654	63.682209
776.546082	1542.603149	2887.598145	2404.162842	64.056725
776.862122	1539.515503	2881.974121	2407.802246	64.678848
777.178162	1536.979248	2869.513428	2408.463623	65.400528
777.494141	1540.728516	2869.292725	2405.486328	65.089653
777.809998	1537.971680	2867.638672	2403.942627	65.126907
778.125854	1533.340332	2864.220215	2401.185791	65.208397
778.441711	1534.332642	2860.581299	2399.531738	65.236565
778.757446	1531.796509	2852.420898	2401.626953	65.865089
779.073181	1534.112183	2842.276123	2401.075439	66.273285
779.388855	1534.222412	2846.466309	2400.744385	66.033607
779.704468	1531.465576	2844.040283	2398.979980	66.092575
780.020020	1532.568359	2835.549561	2398.097900	66.426865
780.335571	1528.488403	2833.233887	2392.694092	66.235573
780.651062	1527.385620	2824.853271	2390.047607	66.488129
780.966553	1523.856934	2813.605225	2386.188232	66.860435
781.281860	1524.298096	2804.231934	2379.792480	66.838951
781.597290	1525.511108	2792.984131	2373.948242	66.939262
781.912476	1522.754272	2783.169922	2371.853516	67.366608
782.227722	1523.746704	2773.355713	2366.009033	67.402069
782.542908	1521.651611	2765.857178	2363.251953	67.641586
782.858093	1520.769409	2761.225586	2363.362549	67.926071
783.173218	1522.313232	2755.491455	2357.738525	67.745705
783.488281	1521.982422	2742.258789	2352.004395	68.019180
783.803345	1523.305664	2738.840332	2346.600830	67.731117
784.118225	1517.902100	2726.930908	2341.858887	68.150299
784.433167	1519.335693	2714.801025	2337.337646	68.425400
784.748047	1521.761719	2708.625732	2336.565674	68.651840
785.062866	1518.674072	2699.252441	2338.991699	69.484383
785.377686	1521.210327	2698.039551	2332.265137	68.918648
785.692444	1517.791870	2690.100098	2327.964355	69.109169
786.007141	1519.114990	2681.057861	2325.979492	69.440979
786.321716	1519.666504	2675.654297	2325.869141	69.741447
786.636353	1516.358276	2677.639160	2320.686523	69.262161
786.950928	1516.137695	2676.205566	2323.443604	69.591263
787.265442	1519.115112	2677.087891	2326.751221	69.745689
787.579834	1520.659058	2684.365967	2329.397949	69.496788
787.894226	1519.776978	2687.784424	2333.477783	69.665718
788.208618	1517.681885	2688.776611	2331.934082	69.529152
788.522949	1519.887207	2689.327881	2329.839111	69.259766
788.837219	1519.556396	2690.871582	2328.846436	69.092422
789.151367	1519.887329	2689.438232	2325.538574	68.885521
789.465515	1520.218140	2688.004639	2327.633789	69.140694
789.779602	1521.100220	2684.806641	2324.435791	69.032494
790.093689	1523.967407	2684.475830	2322.781494	68.833115
790.407776	1522.644043	2679.623779	2316.937012	68.652283
790.721741	1523.636475	2679.403076	2316.165283	68.571701
791.035645	1523.415771	2679.072266	2312.967285	68.320602
791.349548	1525.510986	2671.573730	2309.328369	68.392189
791.663391	1529.921875	2665.619141	2302.932373	68.064835
791.977173	1531.134888	2654.701904	2300.506592	68.475815
792.290894	1533.560791	2648.195801	2297.308594	68.519989
792.604614	1532.899170	2638.381592	2292.346436	68.698265
792.918274	1532.127319	2627.244141	2283.634766	68.623497
793.231812	1534.112305	2614.783447	2281.539551	69.163246
793.545410	1535.876587	2603.315186	2274.482422	69.194221
793.858948	1531.796387	2591.957275	2265.770752	69.232353
794.172363	1531.575928	2579.827148	2261.580566	69.640236
794.485840	1531.906738	2572.990234	2256.949219	69.643066
794.799194	1533.009521	2566.925293	2255.846680	69.912575
795.112488	1534.442871	2563.065674	2256.287598	70.175842
795.425781	1536.427856	2558.434326	2254.964355	70.306450
795.738953	1536.538086	2551.928223	2255.515625	70.808006
796.052185	1540.177124	2545.752930	2252.427734	70.830124
796.365234	1536.868896	2541.672852	2252.758545	71.246696
796.678284	1533.671143	2542.995850	2253.640625	71.331802
796.991333	1533.671021	2542.113770	2254.412598	71.470749
797.304382	1533.009521	2535.828369	2255.735840	72.069481
797.617310	1534.553345	2533.402588	2258.382568	72.466316
797.930115	1532.678711	2533.733154	2255.184814	72.174507
798.242981	1527.054810	2533.402588	2254.412842	72.277008
798.555786	1524.849365	2534.505127	2253.089600	72.127579
798.868530	1521.430908	2532.189697	2249.891846	72.070702
799.181213	1523.084961	2532.300293	2248.678467	71.896797
799.493896	1520.879517	2529.984619	2246.693604	71.926514
799.806519	1518.343262	2528.661377	2239.856689	71.414482
800.119080	1519.004883	2524.360596	2240.518311	71.766983
800.431580	1520.989868	2521.603516	2236.548584	71.511986
800.744080	1523.526123	2519.287842	2231.475830	71.096298
801.056458	1525.180298	2511.678955	2225.080322	70.947891
801.368835	1527.716309	2504.952393	2220.338623	70.875641
801.681152	1525.731567	2493.814697	2213.832520	71.078705
801.993408	1522.423218	2482.677002	2205.341553	71.118523
802.305664	1521.982178	2479.148193	2201.041016	70.944733
802.617798	1516.909668	2470.877930	2199.607422	71.563988
802.929993	1518.673950	2462.607422	2199.827881	72.161224
803.242065	1518.012329	2452.241943	2191.778076	72.119934
803.554016	1519.886963	2452.241699	2184.720703	71.306953
803.865967	1521.541138	2451.249512	2182.073975	71.047318
804.177979	1520.438477	2448.823730	2174.686035	70.471558
804.489807	1519.887207	2439.670898	2174.685791	71.190498
804.801697	1522.202881	2436.583252	2173.362793	71.213242
805.113464	1522.974854	2436.031738	2172.591064	71.147400
805.425232	1525.952148	2434.598145	2171.487793	71.043694
805.736938	1523.526123	2427.981689	2171.046875	71.592323
806.048584	1525.400879	2424.673584	2174.575684	72.188873
806.360168	1529.150146	2425.004395	2179.868652	72.636650
806.671753	1527.937134	2423.239990	2175.568115	72.336525
806.983276	1526.172729	2419.160156	2171.267334	72.240051
807.294739	1525.290405	2412.654053	2170.716064	72.735191
807.606140	1521.431030	2407.360840	2170.385010	73.251175
807.917542	1521.541260	2403.611816	2169.613281	73.471680
808.228760	1522.864624	2400.524170	2170.495361	73.790657
808.540100	1523.526245	2402.068115	2169.392578	73.515717
808.851318	1523.967407	2397.877686	2168.951660	73.804405
809.162476	1525.952148	2394.900146	2164.320313	73.464485
809.473633	1524.849487	2395.230957	2161.342773	73.128082
809.784668	1525.731689	2395.010498	2160.130127	72.979858
810.095703	1526.503540	2388.614502	2159.909424	73.471504
810.406738	1527.165161	2381.226074	2155.498291	73.570061
810.717590	1526.282959	2371.742676	2152.631104	74.083733
811.028503	1521.761841	2368.103760	2146.786621	73.850151
811.339294	1521.761841	2361.046387	2146.565918	74.444847
811.650085	1522.423462	2352.776123	2147.337891	75.258919
811.960876	1523.085083	2351.121826	2144.140137	75.003319
812.271545	1523.415894	2351.232178	2140.942139	74.597015
812.582153	1522.202881	2341.197266	2132.672119	74.538879
812.892761	1516.689209	2333.809326	2125.614502	74.520905
813.203308	1519.556396	2328.626221	2120.210938	74.240135
813.513855	1520.218018	2325.428467	2124.401367	75.034218
813.824280	1516.248291	2323.884766	2120.100830	74.767860
814.134705	1519.446045	2318.701904	2116.572021	74.710243
814.445068	1518.233032	2317.819580	2112.712402	74.348343
814.755371	1517.350952	2321.458740	2109.073730	73.587494
815.065613	1516.689209	2320.466064	2108.412109	73.617805
815.375854	1513.932373	2315.172852	2107.970947	74.139862
815.686035	1514.263184	2316.496094	2108.853271	74.116890
815.996155	1515.255737	2312.085205	2103.449951	73.816826
816.306152	1518.674194	2304.807373	2100.252197	73.979576
816.616211	1516.579102	2302.822266	2096.502930	73.758842
816.926208	1518.674316	2306.020508	2094.738281	73.165268
817.236145	1520.659058	2308.997803	2097.605469	73.185089
817.546021	1525.841797	2317.157959	2102.347168	72.853989
817.855774	1526.503540	2324.105225	2105.104004	72.542534
818.165588	1525.400879	2339.763916	2104.221680	71.076508
818.475281	1524.629028	2349.908936	2114.036133	71.419052
818.784973	1525.290527	2366.339600	2116.020996	70.237335
819.094604	1526.062500	2396.885010	2129.364014	69.279503
819.404175	1527.275513	2419.821533	2141.494141	68.816467
819.713684	1526.172729	2456.762939	2157.483398	67.839813
820.023254	1524.298096	2534.284180	2182.405029	65.160004
820.332642	1524.187866	2684.475342	2237.872070	61.509258
820.642090	1523.636475	2922.443848	2321.569092	57.043781
820.951416	1522.974854	3194.376465	2425.776367	54.014637
821.260681	1523.967285	3454.178467	2538.033936	52.536564
821.569946	1525.400879	3665.019775	2624.487549	51.368340
821.879150	1529.150024	3838.809082	2692.746338	50.379566
822.188293	1528.929443	3977.311768	2745.015381	49.668957
822.497437	1528.708862	4100.045410	2795.410156	49.262371
822.806458	1526.613647	4208.553711	2838.085449	48.900120
823.115479	1529.480835	4293.243164	2877.894043	48.789047
823.424438	1529.370483	4370.543945	2908.329346	48.534836
823.733337	1527.165039	4440.566895	2931.596680	48.205902
824.042236	1525.952148	4501.988770	2951.666504	47.906479
824.351013	1526.944458	4551.832031	2963.686035	47.497353
824.659790	1526.944458	4587.119141	2979.124268	47.454147
824.968445	1522.202881	4637.402832	2988.607666	47.072575
825.277100	1523.195313	4701.140625	3011.654541	46.837158
825.585693	1521.871826	4773.699707	3033.929443	46.498699
825.894287	1523.084961	4851.772949	3063.372314	46.273106
826.202820	1521.100098	4899.300781	3087.301270	46.361992
826.511292	1524.959595	4891.250977	3091.161133	46.526024
826.819702	1528.488281	4792.556641	3056.425293	46.810814
827.128113	1529.260376	4605.093750	2992.908203	47.585403
827.436401	1532.678711	4370.654297	2899.286621	48.154324
827.744751	1533.230103	4138.199707	2802.026367	48.706757
828.052917	1533.340210	3952.059082	2726.048584	49.311577
828.361145	1528.819092	3805.065918	2664.737305	49.903122
828.669312	1527.054688	3683.545410	2615.776123	50.485794
828.977356	1525.400635	3573.272705	2570.564209	51.036564
829.285400	1525.841675	3477.335938	2532.961670	51.607632
829.593384	1523.856812	3398.711426	2500.872314	52.111534
829.901306	1522.312988	3322.182373	2473.745117	52.861176
830.209167	1524.849243	3253.482178	2447.279785	53.361851
830.517029	1525.731323	3192.501465	2424.894531	53.946442
830.824829	1524.518311	3135.821533	2407.250732	54.783756
831.132568	1527.606079	3096.564453	2392.474365	55.123726
831.440247	1530.252563	3047.713623	2376.815186	55.788094
831.747925	1528.157471	2990.372070	2357.186768	56.696827
832.055481	1528.488159	2934.133301	2339.653564	57.707695
832.363037	1530.693604	2880.430176	2318.150391	58.341518
832.670532	1532.678589	2841.614502	2298.852783	58.534126
832.977966	1532.568359	2810.517578	2281.650146	58.615929
833.285400	1533.009521	2791.440674	2276.798096	59.104431
833.592712	1533.009399	2771.150391	2272.607666	59.734577
833.900085	1531.355347	2757.917725	2273.048828	60.469284
834.207275	1529.811523	2743.692627	2263.896240	60.474186
834.514526	1529.811523	2728.254395	2259.375000	60.875950
834.821716	1531.465576	2712.705811	2255.736084	61.314411
835.128784	1532.678711	2701.347900	2253.199707	61.653118
835.435852	1535.986816	2698.260254	2254.633057	61.831081
835.742798	1532.568359	2687.894531	2255.294922	62.556061
836.049805	1535.545776	2679.734131	2252.979248	62.702393
836.356750	1536.207520	2666.501465	2248.016846	62.975594
836.663574	1530.031982	2653.048096	2249.781250	64.090736
836.970398	1527.495850	2640.036133	2247.134766	64.684303
837.277161	1529.039673	2629.339355	2243.826660	64.962936
837.583923	1527.385498	2611.916504	2233.461182	65.104240
837.890564	1527.937012	2592.287842	2226.183105	65.603004
838.197205	1528.267822	2561.301270	2222.654297	67.218201
838.503784	1532.237671	2521.272217	2208.870361	68.413452
838.810303	1530.693970	2469.223633	2193.321777	70.602753
839.116699	1530.252808	2421.255127	2174.685547	72.326721
839.423096	1531.024658	2384.203613	2160.129639	73.736580
839.729492	1529.591064	2343.182373	2146.676270	75.847076
840.035828	1528.929443	2307.123535	2133.774414	77.724182
840.342102	1526.723999	2272.056641	2118.998047	79.464394
840.648315	1525.952148	2245.150391	2110.396729	81.263351
840.954529	1526.613892	2223.205811	2101.685059	82.554955
841.260620	1527.606201	2202.033203	2092.863281	83.812935
841.566711	1527.385620	2181.963867	2085.805908	85.309937
841.872803	1526.944458	2162.004395	2075.109375	86.317039
842.178772	1525.731445	2151.308105	2065.515869	86.285896
842.484680	1522.974609	2137.193115	2058.899414	87.253120
842.790588	1521.872070	2127.158203	2056.693848	88.358505
843.096436	1525.841675	2118.667236	2049.305664	88.299835
843.402222	1526.944458	2110.837891	2041.366089	88.101974
843.707947	1523.415771	2102.346924	2037.065430	88.723793
844.013611	1522.423218	2091.429932	2036.403809	90.329445
844.319275	1526.172485	2078.527832	2032.433838	91.655014
844.624817	1527.936890	2068.162598	2020.855225	91.243034
844.930359	1527.826538	2049.857422	2010.710205	92.500977
845.235901	1526.613647	2036.955566	2002.219360	93.193542
845.541321	1525.841797	2020.855713	1992.515381	94.274841
845.846680	1525.510864	2005.638062	1985.127197	95.728035
846.152039	1528.047119	1993.287598	1978.952148	96.918701
846.457275	1528.378052	1981.929443	1970.571411	97.495758
846.762512	1530.032104	1968.806885	1967.704224	99.748695
847.067749	1533.891602	1959.543945	1963.954834	101.036263
847.372925	1534.332764	1948.736938	1960.315796	102.794098
847.677979	1535.325317	1941.789795	1955.684326	103.418388
847.983032	1537.861572	1936.937866	1950.170776	103.315887
848.288025	1535.656006	1930.211548	1947.303711	104.332001
848.592957	1541.390259	1925.138916	1946.862305	105.660835
848.897888	1539.956665	1923.926025	1944.767334	105.427856
849.202759	1540.618286	1920.617798	1940.135742	105.136307
849.507507	1541.831299	1917.199463	1940.576782	106.227837
849.812317	1539.295044	1913.560303	1937.599487	106.423035
850.117004	1541.169678	1907.936401	1935.173706	107.426331
850.421631	1541.941650	1902.863892	1934.070923	108.646469
850.726257	1541.390137	1901.540527	1934.622192	109.185516
851.030823	1540.397827	1898.673584	1935.504272	110.279984
851.335327	1539.736084	1893.821411	1934.622192	111.522865
851.639771	1540.177246	1885.881836	1934.181152	113.971268
851.944153	1540.177124	1881.470825	1934.842651	115.638092
852.248535	1538.964233	1874.854492	1936.607178	118.384781
852.552856	1535.325317	1873.641602	1937.379150	118.839630
852.857056	1534.663696	1873.089844	1939.584473	119.648193
853.161255	1537.861572	1875.515991	1937.489624	118.354156
853.465393	1536.317749	1874.192505	1935.063599	118.015877
853.769531	1532.568359	1873.310669	1934.181152	117.864082
854.073547	1527.165039	1870.884644	1932.747803	117.998146
854.377563	1524.408203	1868.458496	1936.386475	119.743622
854.681580	1520.548828	1865.150269	1935.725098	120.480133
854.985474	1517.681519	1855.446411	1930.542358	122.233200
855.289307	1517.571289	1853.020264	1924.366943	121.269012
855.593140	1517.791870	1852.910156	1923.484985	121.059677
855.896851	1516.137817	1852.469116	1918.301880	119.573784
856.200623	1517.902100	1850.153687	1922.823120	121.871811
856.504272	1518.453613	1852.800049	1924.477173	121.437981
856.807922	1515.917358	1854.454102	1923.595093	120.423485
857.111389	1513.711914	1852.579468	1925.800537	121.607574
857.414978	1516.248169	1844.419312	1923.043579	123.958313
857.718445	1516.358398	1844.419434	1922.823120	123.899117
858.021790	1517.350952	1843.978394	1918.301758	122.754784
858.325195	1517.681763	1841.993530	1917.088745	123.155258
858.628479	1515.917358	1841.000977	1913.670166	122.353996
858.931763	1516.468750	1837.141357	1914.331787	124.071411
859.234985	1515.476318	1831.297119	1909.921143	124.895134
859.538147	1512.609131	1827.547607	1908.928711	125.840317
859.841248	1511.065308	1827.988647	1907.495117	125.086975
860.144287	1514.924927	1826.996094	1903.635620	124.558350
860.447266	1520.989990	1828.098755	1905.179321	125.098785
860.750305	1525.180298	1825.121460	1903.194336	126.029396
861.053223	1529.150146	1825.011353	1905.730835	127.282890
861.356018	1530.804199	1831.076294	1907.715820	125.523361
861.658813	1531.245239	1826.555054	1914.552856	129.798462
861.961609	1528.378296	1823.247070	1916.537598	131.637985
862.264343	1529.370605	1821.813599	1920.617798	133.785797
862.567017	1529.701416	1819.718384	1917.861084	133.840332
862.869629	1529.480957	1819.608032	1917.861084	133.865524
863.172180	1532.017212	1819.497803	1918.081665	134.292358
863.474670	1527.385742	1816.961304	1912.898804	133.130386
863.777161	1522.643921	1821.151733	1915.324829	131.547943
864.079590	1521.541138	1821.151733	1916.648071	131.873489
864.381958	1521.982300	1821.703369	1917.199585	131.861694
864.684265	1520.107666	1823.688110	1916.758423	130.657547
864.986511	1518.784302	1824.680420	1916.427490	129.992889
865.288757	1520.217896	1824.901001	1915.545044	129.750275
865.590942	1520.438477	1827.106445	1915.214233	128.730682
865.893066	1519.556396	1829.532593	1916.316772	127.997047
866.195068	1517.791992	1828.429932	1918.853027	129.108841
866.497131	1518.894775	1829.311890	1919.404419	129.023056
866.799133	1514.263062	1824.459961	1917.529785	130.003464
867.100952	1509.852295	1821.703125	1916.537354	130.410126
867.402832	1512.939819	1822.364746	1912.236938	129.044907
867.704651	1513.491211	1821.372192	1913.780884	130.014420
868.006409	1515.696533	1822.364624	1907.385010	127.723907
868.308105	1519.335571	1826.775635	1904.517822	125.286942
868.609802	1517.681519	1830.524902	1900.658325	122.418060
868.911438	1515.696655	1832.620361	1902.091919	121.920593
869.213013	1517.571411	1829.863281	1899.555786	122.316467
869.514465	1518.343384	1829.311768	1899.445557	122.553352
869.815979	1522.423340	1833.281616	1899.776245	121.390656
870.117371	1526.834351	1834.825562	1897.681030	120.408203
870.418701	1529.370605	1835.487183	1893.931885	119.092300
870.720093	1530.914429	1839.015991	1893.600952	117.716545
871.021301	1533.671265	1839.787964	1894.483032	117.867393
871.322571	1535.656128	1838.133911	1894.593384	118.665657
871.623718	1534.553467	1840.339233	1892.829224	117.165611
871.924805	1534.222656	1845.191406	1894.152344	115.744652
872.225891	1536.207397	1847.837769	1896.137085	115.498909
872.526917	1541.279907	1846.845459	1895.806396	116.023056
872.827881	1541.831299	1848.389282	1900.106934	116.870430
873.128784	1544.808594	1851.476807	1900.548218	116.001465
873.429626	1546.462646	1858.203491	1897.129639	112.486702
873.730408	1542.603149	1858.313599	1899.445313	113.028305
874.031189	1541.279907	1857.651978	1898.011475	112.756973
874.331848	1539.956543	1858.534180	1902.532715	113.810928
874.632568	1537.530640	1857.431396	1903.194214	114.305321
874.933167	1537.640869	1854.123169	1905.399902	116.202087
875.233704	1539.956665	1853.130737	1902.863647	115.880280
875.534241	1538.082031	1853.902710	1906.833496	116.759758
875.834717	1537.751221	1853.351318	1905.620483	116.561836
876.135071	1536.427979	1851.256104	1903.194336	116.497330
876.435425	1533.450684	1851.035767	1903.856201	116.631897
876.735779	1531.355469	1852.579468	1908.598022	117.439095
877.036011	1528.488403	1853.240845	1907.274780	116.638496
877.336182	1526.172729	1851.586914	1907.715820	117.248451
877.636353	1526.944580	1856.659424	1908.708130	115.785973
877.936462	1525.841797	1863.276001	1907.054077	112.973808
878.236511	1527.937012	1868.348633	1909.149414	111.985718
878.536560	1527.165161	1875.295776	1911.906250	110.516304
878.836487	1523.415771	1889.961914	1916.317139	107.190155
879.136414	1521.431030	1918.963745	1924.587646	101.414703
879.436279	1522.313232	1970.460938	1943.444214	93.971466
879.736084	1522.313110	2053.055176	1976.305420	85.539162
880.035828	1522.864502	2156.711426	2018.870728	78.253311
880.335510	1523.967285	2274.923584	2067.500977	72.378868
880.635193	1523.305664	2391.922607	2110.396729	67.589180
880.934753	1524.518555	2499.879639	2151.969727	64.330139
881.234314	1524.959717	2592.508545	2187.697998	62.080372
881.533752	1523.415771	2675.213135	2218.022949	60.306370
881.833252	1523.085083	2748.654541	2243.496094	58.781738
882.132629	1521.320679	2812.833252	2265.771240	57.641758
882.431946	1519.776855	2872.160156	2291.574951	57.069477
882.731323	1522.864502	2918.805176	2310.210938	56.402573
883.030579	1526.613647	2956.518555	2325.318115	55.857174
883.329712	1526.723877	2991.364746	2342.961670	55.729553
883.628845	1526.282837	3021.027832	2357.076660	55.580975
883.927979	1529.480713	3040.325439	2367.001221	55.433922
884.226990	1530.693604	3058.410156	2375.271484	55.283676
884.526001	1530.803833	3066.460205	2379.241211	55.249168
884.824951	1530.142212	3073.297119	2378.248779	54.959263
885.123840	1530.473145	3074.620361	2378.358887	54.909645
885.422729	1530.473145	3053.227539	2368.765381	55.051048
885.721497	1530.914307	3009.008301	2349.688232	55.393902
886.020203	1532.899292	2928.619141	2321.127686	56.474686
886.318909	1532.678711	2828.602051	2281.208984	57.760384
886.617554	1529.149902	2714.249512	2233.020020	59.393330
886.916138	1528.047241	2597.140137	2185.162109	61.464710
887.214661	1524.408203	2491.829590	2145.573730	64.208374
887.513184	1524.518677	2402.067871	2109.845703	66.700195
887.811523	1527.495850	2321.127686	2079.520752	69.556801
888.109924	1514.483765	2151.307861	2007.733032	77.454552
888.408264	1528.378052	2035.521729	1940.577026	81.278542
888.706543	1546.903931	1977.628662	1910.472656	84.408600
889.004761	1565.429688	1931.314087	1942.892700	103.164558
889.302979	1509.852295	1919.735474	1966.050049	111.299454
889.601135	1470.484985	1905.841187	1915.104004	102.127640
889.899170	1489.010742	1859.526611	1820.159302	89.375000
890.197205	1468.169312	1882.683960	1919.735474	108.938530
890.495178	1528.378052	1875.736694	1903.525391	108.000000
890.793091	1560.798218	1901.209717	1859.526611	87.755081
>>>>>End Processed Spectral Data<<<<<
