Jaz Data File
++++++++++++++++++++++++++++++++++++
Date: Fri Jun 21 03:16:00 2019
User: jaz
Dark Spectrum Present: Yes
Reference Spectrum Present: Yes
Processed Spectrum Present: Yes
Spectrometers: JAZA3541
Integration Time (usec): 119000 (JAZA3541)
Spectra Averaged: 1 (JAZA3541)
Boxcar Smoothing: 10 (JAZA3541)
Correct for Electrical Dark: No (JAZA3541)
Strobe/Lamp Enabled: Yes (JAZA3541)
Correct for Detector Non-linearity: No (JAZA3541)
Correct for Stray Light: No (JAZA3541)
Number of Pixels in Processed Spectrum: 2048
>>>>>Begin Processed Spectral Data<<<<<
W	D	R	S	P
190.543274	0.000000	0.000000	0.000000	0.000000
190.921555	0.000000	0.000000	0.000000	0.000000
191.299805	1558.482544	1405.644653	1660.374390	-66.666611
191.678024	1533.009521	1440.380615	1736.793335	-220.000244
192.056229	1539.956665	1535.325317	1709.004639	-3650.081787
192.434387	1519.115234	1551.535278	1713.635986	600.001526
192.812531	1604.796997	1597.849854	1743.740479	-2000.008789
193.190659	1556.166748	1542.272461	1715.951782	-1150.005249
193.568741	1623.322754	1530.693848	1741.424683	-127.500076
193.946793	0.000000	0.000000	0.000000	0.000000
194.324829	1410.165894	1403.770142	1578.221313	-2627.610107
194.702835	1483.938232	1477.322021	1659.161499	-2648.393066
195.080811	1555.725708	1551.645752	1741.865845	-4562.307617
195.458755	1552.307251	1560.467407	1743.078857	2337.842529
195.836685	1553.520386	1565.540039	1743.961182	1584.411743
196.214569	1554.953857	1568.627808	1743.850586	1381.434937
196.592422	1551.425171	1571.164063	1742.306885	967.033569
196.970261	1549.219727	1570.833130	1744.181519	902.041138
197.348068	1548.999146	1571.274170	1744.953491	879.704285
197.725861	1545.690796	1573.810425	1745.173950	709.408936
198.103622	1539.625854	1573.589844	1749.584839	618.181152
198.481323	1540.287598	1569.399536	1750.026001	720.454956
198.859039	1539.846436	1568.958374	1747.158813	712.121521
199.236694	1536.758789	1568.296631	1747.489746	668.184448
199.614334	1539.295166	1566.201660	1743.189209	757.787476
199.991959	1540.728760	1571.604858	1746.607544	666.790161
200.369553	1537.751465	1570.502075	1745.394531	634.012817
200.747101	1536.759033	1571.935669	1744.843140	591.540649
201.124619	1535.215210	1570.502197	1742.968384	588.752930
201.502136	1531.796631	1571.274048	1746.827881	544.694336
201.879623	1529.922119	1568.517334	1742.417236	550.573730
202.257065	1525.621216	1569.730225	1739.329590	484.500519
202.634476	1525.621216	1573.589600	1739.660400	446.208862
203.011871	1524.187744	1573.258911	1740.321777	440.450165
203.389221	1524.408203	1571.715088	1742.306763	460.606445
203.766571	1523.415649	1570.722656	1743.189209	464.568726
204.143875	1523.305542	1567.635010	1744.401978	498.757263
204.521164	1526.613770	1564.878296	1748.592407	580.115967
204.898392	1524.408203	1563.444702	1743.961182	562.429993
205.275620	1523.856812	1563.665405	1745.505005	556.784790
205.652817	1524.297852	1562.783081	1746.828125	578.222534
206.029984	1529.370483	1566.422241	1746.387085	585.712036
206.407135	1528.378052	1568.848267	1748.261475	543.321594
206.784225	1530.473389	1569.950928	1748.261719	551.676575
207.161301	1530.252808	1570.281616	1750.577515	550.415344
207.538376	1528.929443	1571.274170	1748.813110	519.270508
207.915405	1529.260376	1568.517456	1750.356934	563.201721
208.292404	1529.480835	1568.737671	1751.790527	566.295471
208.669373	1525.952148	1570.833008	1753.224121	506.389526
209.046310	1524.628784	1571.053589	1756.532227	499.524872
209.423218	1528.267822	1569.509644	1751.680298	541.713379
209.800095	1530.032227	1570.612549	1755.208862	554.891174
210.176956	1530.032227	1570.833130	1756.862915	555.945251
210.553787	1531.686279	1566.201660	1758.627197	657.506653
210.930603	1535.435425	1566.091553	1757.965576	725.891235
211.307358	1536.648438	1565.760620	1756.311401	754.539673
211.684113	1538.412842	1570.391968	1754.767700	676.550232
212.060837	1534.773804	1573.920776	1753.775269	559.433960
212.437531	1533.340210	1574.802856	1749.474731	521.275269
212.814178	1532.458130	1578.772705	1753.664795	477.617828
213.190826	1532.788940	1580.426758	1754.877930	466.203125
213.567413	1530.914307	1580.095947	1753.334106	452.241516
213.943985	1528.267822	1576.015869	1752.562500	469.746277
214.320541	1528.488281	1577.669800	1751.459473	453.363770
214.697052	1527.716431	1577.228760	1753.223999	455.457397
215.073563	1529.591064	1581.198486	1755.318970	437.394257
215.449997	1529.921875	1582.852661	1753.995728	423.333710
215.826431	1528.708862	1588.586670	1748.040894	366.299377
216.202850	1529.370483	1590.792236	1745.284180	351.526428
216.579224	1533.119751	1588.807495	1742.306885	375.643036
216.955582	1533.560791	1588.586914	1740.542603	376.151917
217.331894	1531.135010	1586.932861	1740.211670	374.703796
217.708191	1532.017090	1588.035400	1737.895996	367.520721
218.084442	1537.420532	1591.674438	1736.462646	366.871490
218.460678	1534.443115	1598.180420	1735.249390	315.052979
218.836899	1532.678711	1603.694214	1734.808228	284.627319
219.213074	1532.127563	1606.892090	1736.462402	273.304535
219.589233	1531.024658	1605.348389	1736.572754	276.557831
219.965347	1533.891846	1609.869385	1735.911255	265.893585
220.341431	1535.987061	1615.713867	1740.542603	256.570587
220.717499	1535.435669	1614.721558	1741.204224	259.527344
221.093552	1534.002075	1619.242554	1742.858276	245.019974
221.469543	1535.104858	1625.197510	1744.843140	232.802872
221.845535	1536.207642	1630.380249	1749.915894	226.932495
222.221466	1537.310303	1634.350098	1752.121460	221.363983
222.597397	1535.435547	1642.069214	1751.349487	202.481964
222.973297	1537.420532	1647.362183	1748.372070	191.875900
223.349167	1536.979492	1655.853271	1751.569702	180.519379
223.725006	1537.530640	1662.359375	1755.870361	174.911423
224.100800	1538.082153	1671.952881	1757.414063	163.838593
224.476578	1538.854004	1682.097900	1758.296509	153.195007
224.852325	1537.971680	1701.726563	1756.201050	133.265869
225.228058	1541.279907	1724.332397	1759.399048	119.156609
225.603760	1540.838867	1750.246460	1758.957764	104.159973
225.979416	1536.317749	1779.248169	1765.463867	94.325821
226.355057	1535.325195	1813.322388	1769.764893	84.331680
226.730652	1533.671143	1852.028076	1774.065674	75.511009
227.106232	1534.773926	1886.543335	1778.035400	69.153679
227.481796	1531.575928	1920.286865	1781.563965	64.312065
227.857315	1528.378052	1946.972900	1787.408447	61.880932
228.232788	1528.819214	1971.673950	1785.864746	58.042854
228.608246	1531.465698	1999.903687	1784.761963	54.072529
228.983704	1534.112305	2022.950684	1782.887085	50.891006
229.359100	1531.575928	2040.263428	1780.902344	49.013672
229.734482	1528.378052	2061.546143	1776.491455	46.535683
230.109833	1529.039795	2075.881592	1775.829956	45.130085
230.485153	1528.488403	2087.349609	1775.499023	44.198921
230.860443	1521.541260	2101.575195	1778.586670	44.315582
231.235703	1520.879517	2121.534668	1776.712036	42.592247
231.610931	1519.225464	2137.523926	1780.791992	42.304249
231.986145	1517.240479	2152.079834	1782.335693	41.757843
232.361313	1516.468506	2165.532959	1786.856934	41.658180
232.736465	1519.115112	2169.833984	1787.518433	41.247200
233.111572	1517.571289	2172.921387	1785.974731	40.955734
233.486664	1518.894653	2171.708252	1789.282959	41.418915
233.861725	1517.350586	2169.944092	1789.613892	41.720200
234.236755	1520.107422	2156.931885	1790.606445	42.476231
234.611771	1522.313110	2138.516357	1790.275269	43.486004
234.986740	1523.415771	2132.671875	1788.070068	43.438923
235.361679	1526.062256	2128.922607	1781.563965	42.381573
235.736588	1526.393188	2124.952881	1782.556396	42.796600
236.111496	1527.936890	2122.196045	1785.974731	43.421768
236.486343	1528.819092	2122.857666	1789.283081	43.846310
236.861160	1527.716309	2128.371582	1790.275635	43.712151
237.235962	1529.370483	2138.626465	1791.708862	43.058811
237.610733	1532.016968	2152.962158	1796.119751	42.532383
237.985474	1532.016968	2177.111572	1799.648682	41.487206
238.360199	1533.009521	2207.988037	1805.492920	40.369194
238.734879	1534.994385	2240.628662	1809.683228	38.927933
239.109543	1532.347900	2281.539551	1812.219482	37.356472
239.484177	1533.450562	2334.360352	1813.763550	34.999321
239.858749	1535.325195	2397.105469	1817.953735	32.795895
240.233322	1530.804199	2464.923096	1823.467651	31.330429
240.607864	1528.709106	2528.660889	1833.171631	30.447721
240.982391	1529.370728	2583.025391	1841.662720	29.638933
241.356857	1527.826904	2627.685547	1845.852905	28.915171
241.731308	1533.340454	2665.288574	1848.058228	27.803198
242.105728	1529.150024	2699.583252	1848.389160	27.275297
242.480118	1528.708984	2736.414307	1848.609741	26.488312
242.854492	1529.480957	2770.378418	1853.241211	26.090815
243.228836	1527.606323	2818.898193	1863.937744	26.046120
243.603134	1531.245361	2883.187256	1868.679321	24.959206
243.977402	1529.150146	2971.956787	1877.611450	24.151628
244.351654	1526.724121	3079.692871	1886.653687	23.176870
244.725861	1527.495972	3195.809814	1897.570679	22.182560
245.100067	1529.260376	3309.391113	1910.141724	21.396257
245.474213	1530.693970	3406.872070	1920.066406	20.753490
245.848343	1529.150146	3476.453857	1929.439331	20.556074
246.222443	1528.378174	3532.362061	1930.983276	20.090237
246.596512	1530.252808	3565.884766	1933.298706	19.799547
246.970566	1530.804077	3581.543457	1938.371460	19.874168
247.344574	1531.134888	3573.714355	1940.466675	20.039944
247.718567	1528.157471	3552.431641	1943.664429	20.526220
248.092529	1533.561035	3529.936035	1938.040771	20.260710
248.466431	1533.891724	3510.307617	1936.055786	20.348150
248.840332	1534.002197	3506.668945	1939.143433	20.537743
249.214203	1533.891846	3516.923828	1937.158691	20.335873
249.588043	1529.811768	3538.868408	1941.128540	20.473129
249.961838	1525.952148	3566.656982	1946.421509	20.604124
250.335617	1524.629028	3592.460938	1951.494019	20.643118
250.709381	1522.423584	3603.377930	1955.904907	20.830891
251.083084	1521.320801	3591.468262	1954.912354	20.944960
251.456787	1521.982422	3561.474365	1952.376343	21.102997
251.830460	1521.762085	3509.425293	1950.611938	21.575579
252.204071	1522.203125	3429.367188	1944.877563	22.162458
252.577667	1521.761963	3337.069092	1935.945557	22.816172
252.951248	1521.541260	3250.725830	1928.226318	23.518892
253.324799	1517.020142	3177.835449	1919.183960	24.214844
253.698303	1516.248169	3130.969482	1910.031616	24.387085
254.071793	1518.233032	3092.374268	1911.465088	24.980736
254.445236	1520.769287	3078.479736	1908.598022	24.897358
254.818665	1521.541260	3072.855957	1910.031616	25.042652
255.192062	1521.320801	3089.396729	1909.039063	24.725733
255.565430	1525.511108	3120.272949	1910.583008	24.146044
255.938782	1522.092651	3155.891113	1917.420044	24.196827
256.312103	1523.636475	3214.445801	1924.697754	23.720078
256.685364	1522.202881	3288.438721	1928.777710	23.019283
257.058594	1520.107666	3374.341064	1937.158447	22.491817
257.431793	1523.195435	3472.593750	1947.303589	21.755850
257.804993	1527.716431	3583.969238	1958.551392	20.952431
258.178162	1529.150024	3682.222412	1970.901733	20.517273
258.551270	1530.032227	3768.455322	1976.966919	19.966497
258.924377	1529.370483	3840.132080	1985.347656	19.732765
259.297485	1525.290405	3899.569580	1991.082031	19.618233
259.670502	1529.149780	3942.906982	1991.633423	19.160320
260.043518	1533.891602	3992.750732	1996.485474	18.813354
260.416473	1530.362793	4040.167725	2004.094360	18.875235
260.789459	1527.606079	4078.542725	2009.056519	18.873478
261.162354	1530.803955	4110.521484	2014.900879	18.765501
261.535278	1529.149902	4134.229980	2020.193848	18.849476
261.908142	1529.370483	4159.372070	2021.517090	18.712788
262.280975	1526.613647	4174.479004	2027.030640	18.898884
262.653717	1530.583374	4190.909668	2027.361572	18.673582
263.026520	1530.914307	4200.062012	2031.221191	18.744068
263.399261	1525.952148	4207.781250	2031.441772	18.848688
263.771973	1526.834351	4219.911133	2033.757446	18.823196
264.144653	1523.084961	4213.735840	2030.890381	18.872959
264.517334	1525.290405	4186.388184	2029.567139	18.949953
264.889954	1525.952148	4137.316406	2022.178711	19.002579
265.262543	1526.393188	4074.020508	2014.900635	19.174995
265.635071	1529.480835	3996.830078	2007.071411	19.356424
266.007599	1528.047363	3930.997070	1999.572754	19.622774
266.380127	1524.408325	3887.770752	1997.036499	19.998127
266.752594	1526.503418	3869.796143	1995.492554	20.014109
267.125031	1525.952148	3869.355225	1991.522705	19.867285
267.497437	1520.879517	3888.873535	1993.176880	19.945040
267.869843	1518.674072	3911.148438	1994.831055	19.902281
268.242218	1521.430908	3946.104980	1998.029053	19.656174
268.614532	1521.872070	4017.010498	2001.888550	19.238070
268.986816	1519.004883	4098.060547	2007.622925	18.945618
269.359100	1521.871948	4188.152832	2012.585205	18.404411
269.731354	1522.092407	4275.819824	2018.208862	18.016178
270.103516	1523.084961	4346.615234	2019.311768	17.574694
270.475708	1518.784424	4407.816406	2025.266235	17.531195
270.847839	1522.092529	4464.496094	2031.442017	17.310659
271.219971	1526.944702	4510.920898	2038.057983	17.128599
271.592041	1529.921875	4535.180664	2040.042969	16.974281
271.964081	1532.237671	4553.485840	2043.461304	16.920942
272.336151	1532.237671	4574.547852	2043.792236	16.814676
272.708130	1531.686279	4593.956055	2050.849609	16.953547
273.080109	1530.804077	4614.908203	2050.959961	16.865705
273.452026	1530.252686	4644.680664	2050.739258	16.712109
273.823914	1533.560913	4678.535156	2053.165283	16.521738
274.195770	1535.435425	4714.483887	2055.812012	16.368942
274.567627	1536.979126	4748.447754	2057.135254	16.196831
274.939423	1537.420288	4784.065918	2065.405762	16.262493
275.311249	1538.853882	4807.002441	2065.185303	16.104881
275.682983	1536.979370	4827.954590	2067.059814	16.107094
276.054688	1534.443115	4832.806641	2065.515869	16.101099
276.426422	1536.648560	4815.052734	2061.215332	16.000673
276.798065	1537.530640	4785.389648	2057.796875	16.018745
277.169708	1537.199951	4757.159668	2056.142578	16.116432
277.541321	1539.515625	4739.075195	2053.716797	16.070999
277.912903	1539.074585	4743.375977	2055.922119	16.129805
278.284424	1539.736206	4756.277344	2053.165283	15.962150
278.655945	1535.656250	4777.670410	2057.135010	16.085024
279.027435	1538.523315	4811.523926	2054.157715	15.754180
279.398865	1537.971924	4872.173828	2060.884033	15.683277
279.770294	1538.412964	4936.683105	2064.633301	15.484948
280.141663	1538.082275	4996.009766	2068.492920	15.338975
280.513031	1541.500610	5055.887695	2074.778564	15.174138
280.884369	1538.523193	5092.829102	2078.637939	15.196068
281.255676	1540.177368	5132.637207	2083.269775	15.117563
281.626953	1538.412964	5166.601074	2086.247070	15.099386
281.998199	1539.736206	5202.770996	2091.871094	15.073154
282.369385	1540.508057	5250.519043	2093.525146	14.906076
282.740540	1542.603271	5308.743164	2100.141357	14.803967
283.111694	1540.397827	5362.334961	2112.822754	14.977351
283.482819	1541.059326	5430.263184	2120.541748	14.899770
283.853912	1542.382813	5511.203613	2131.458984	14.842599
284.224945	1538.743774	5583.652832	2142.155518	14.917807
284.595978	1542.272461	5653.455566	2154.836914	14.899956
284.966980	1541.941650	5715.318359	2162.225098	14.862866
285.337952	1537.861450	5756.670410	2169.502930	14.972033
285.708893	1539.405273	5777.953613	2175.678223	15.011577
286.079803	1540.949097	5798.574219	2186.154053	15.154105
286.450684	1543.154785	5811.917480	2185.271729	15.042226
286.821533	1537.861572	5818.423340	2194.093506	15.330510
287.192322	1536.097412	5819.305176	2194.203857	15.364802
287.563110	1538.082275	5831.985840	2200.709961	15.431826
287.933868	1538.854126	5849.850098	2207.657227	15.513887
288.304596	1538.523315	5884.034668	2212.068115	15.499783
288.675262	1538.743896	5930.018555	2220.669189	15.529098
289.045929	1537.641113	5962.328613	2227.616699	15.593770
289.416565	1536.869141	5990.999023	2234.784424	15.668948
289.787170	1538.302734	5998.938477	2235.666748	15.633736
290.157745	1535.545898	6001.916016	2244.819336	15.880310
290.528259	1536.317749	5993.204102	2244.378174	15.886886
290.898773	1539.736084	6004.672852	2245.480957	15.806381
291.269226	1537.751221	6002.908691	2248.237793	15.911793
291.639679	1538.192261	5995.741211	2251.325439	15.998325
292.010101	1540.397827	6016.803223	2262.021973	16.120617
292.380463	1537.199829	6050.877441	2264.778564	16.119421
292.750824	1539.625854	6085.503418	2273.490234	16.143515
293.121155	1537.640869	6131.597168	2286.833252	16.308218
293.491455	1534.884155	6201.399414	2292.787842	16.241322
293.861725	1532.458130	6279.141602	2302.050781	16.213270
294.231964	1532.458130	6366.808594	2311.975342	16.124548
294.602142	1535.766235	6463.296875	2321.458740	15.944954
294.972321	1533.009399	6543.686035	2332.155029	15.948856
295.342468	1527.716309	6605.217773	2338.881592	15.975678
295.712555	1525.731445	6647.011230	2351.121826	16.116877
296.082672	1529.370483	6671.602051	2358.399658	16.121973
296.452728	1529.811523	6675.351074	2363.582520	16.203762
296.822693	1528.378052	6675.020020	2365.346680	16.262421
297.192657	1527.495850	6668.844727	2366.118652	16.311338
297.562622	1525.510986	6691.009766	2371.852783	16.384512
297.932556	1531.355469	6707.330566	2374.499268	16.289564
298.302460	1530.693848	6710.307129	2380.013184	16.397350
298.672333	1529.260376	6708.653320	2380.454102	16.434237
299.042145	1529.260376	6706.778809	2380.013184	16.431671
299.411957	1527.716553	6705.897461	2378.910645	16.438091
299.781677	1527.716553	6663.441406	2373.507324	16.468771
300.151428	1527.496094	6619.552734	2367.221680	16.490892
300.521149	1524.629028	6556.917969	2358.620361	16.572803
300.890839	1525.842041	6491.747559	2347.923828	16.554520
301.260468	1526.503662	6415.769531	2343.292480	16.705757
301.630096	1525.621338	6328.434570	2334.691162	16.845747
301.999695	1525.290527	6236.907715	2326.089844	16.996273
302.369232	1523.526245	6126.966309	2318.591309	17.271107
302.738739	1525.952148	6024.302246	2312.305908	17.480938
303.108246	1529.922119	5926.270020	2301.388916	17.547903
303.477692	1530.363159	5852.166504	2289.589844	17.567358
303.847137	1526.724121	5775.858398	2280.216797	17.732851
304.216553	1530.363037	5724.691406	2270.181885	17.638554
304.585876	1531.465820	5688.742188	2266.432617	17.679047
304.955231	1535.215088	5666.687988	2265.440186	17.674692
305.324493	1534.443115	5638.126953	2261.911377	17.727201
305.693787	1530.252686	5612.212891	2258.272217	17.835047
306.063049	1530.032227	5607.581055	2254.743408	17.773207
306.432251	1528.708740	5606.588379	2258.162109	17.888056
306.801422	1529.260132	5598.097656	2254.302490	17.819399
307.170593	1532.568481	5595.450684	2252.648438	17.723377
307.539673	1528.819092	5608.573730	2252.207275	17.731169
307.908783	1531.575928	5615.080078	2256.397461	17.749989
308.277832	1531.355347	5644.522949	2259.926270	17.713135
308.646851	1534.773926	5681.133301	2264.999023	17.611235
309.015839	1536.207520	5715.649414	2271.505127	17.593201
309.384796	1538.082153	5746.415039	2278.121582	17.585096
309.753723	1535.766357	5771.998047	2282.863281	17.635885
310.122620	1533.891724	5793.611816	2285.840576	17.652540
310.491486	1532.899292	5812.357422	2282.532471	17.517012
310.860352	1530.914307	5821.179199	2285.509521	17.588547
311.229126	1534.332886	5826.031250	2282.752686	17.438780
311.597931	1529.701416	5843.123535	2284.737549	17.504343
311.966675	1526.613892	5869.699219	2289.259033	17.559984
312.335388	1526.834351	5896.274414	2293.890381	17.555019
312.704071	1522.974854	5922.739746	2297.529297	17.604452
313.072723	1524.959717	5931.230957	2298.632324	17.558441
313.441345	1523.526245	5931.341309	2300.506592	17.627337
313.809875	1523.195313	5911.823242	2300.617188	17.714462
314.178436	1523.195190	5885.688477	2292.897949	17.643644
314.546967	1521.982178	5851.614258	2291.464355	17.772463
314.915466	1519.446045	5811.254883	2288.266602	17.913673
315.283936	1523.967163	5773.100586	2284.517334	17.898949
315.652374	1523.195557	5733.402344	2280.767822	17.993706
316.020752	1523.416016	5692.822266	2274.482422	18.013750
316.389130	1525.842041	5654.116699	2268.527832	17.990223
316.757416	1525.621460	5628.202637	2260.367676	17.909365
317.125732	1523.085205	5605.376465	2255.515625	17.941650
317.494019	1524.739258	5578.800781	2249.119873	17.868023
317.862274	1526.062378	5549.468262	2246.252930	17.900023
318.230469	1529.922119	5524.436523	2244.047363	17.877649
318.598663	1533.671265	5506.020996	2244.929688	17.905231
318.966797	1531.245239	5488.487793	2245.260498	18.043251
319.334930	1533.781494	5473.932129	2245.260498	18.057152
319.703003	1532.678711	5446.804688	2241.400879	18.106779
320.071045	1530.583374	5422.875000	2236.658936	18.140356
320.439056	1532.127197	5403.687988	2231.917236	18.075140
320.807037	1537.199829	5414.494629	2233.461182	17.957399
321.175049	1538.192261	5435.997559	2236.769287	17.922318
321.542969	1539.074463	5475.586426	2242.944336	17.880547
321.910828	1539.956665	5513.740234	2252.538086	17.932064
322.278717	1543.375122	5567.442871	2261.249756	17.839525
322.646515	1543.375122	5607.582031	2270.843262	17.899387
323.014313	1543.595581	5643.199707	2278.011230	17.914307
323.382111	1542.492798	5687.860352	2288.707520	18.001171
323.749817	1541.941650	5724.360840	2303.263428	18.202906
324.117523	1535.876587	5743.216797	2307.674316	18.344076
324.485199	1533.781372	5748.399414	2316.275635	18.566196
324.852814	1537.971680	5759.096191	2317.378418	18.464434
325.220428	1539.736084	5759.537598	2322.009766	18.538162
325.588013	1537.751221	5774.203125	2323.774170	18.553802
325.955536	1536.317627	5782.694336	2328.074707	18.645473
326.323059	1532.678711	5803.094727	2328.626465	18.638647
326.690552	1531.465698	5815.775879	2331.383301	18.670862
327.058014	1530.914307	5817.209473	2328.516113	18.608189
327.425415	1534.773804	5825.149414	2332.486084	18.593065
327.792816	1535.986938	5825.590332	2334.911865	18.624680
328.160187	1538.082031	5828.567871	2334.360596	18.559170
328.527496	1530.032227	5812.688477	2334.250244	18.778486
328.894775	1529.039673	5795.044434	2333.367920	18.854368
329.262054	1528.929443	5777.400879	2329.618652	18.846523
329.629303	1532.678711	5770.233398	2324.546143	18.686895
329.996490	1530.473267	5766.263672	2326.641846	18.796221
330.363647	1532.237549	5787.656738	2329.177979	18.727661
330.730774	1527.826660	5805.520996	2332.596436	18.813168
331.097839	1528.157593	5829.229004	2330.831787	18.662191
331.464935	1527.936890	5850.953125	2325.318115	18.445021
331.831970	1528.488159	5875.543457	2331.824219	18.480005
332.198975	1526.503296	5903.552734	2329.618896	18.348333
332.565948	1526.613647	5927.261230	2333.809082	18.342651
332.932892	1525.069824	5965.636719	2340.425293	18.361517
333.299744	1527.716431	5998.608398	2341.197266	18.195045
333.666656	1527.936890	6036.652344	2340.866699	18.030188
334.033478	1526.062256	6062.897461	2342.300049	17.991348
334.400299	1526.282837	6098.184570	2345.938965	17.928122
334.767090	1527.385620	6137.110352	2353.878662	17.929337
335.133850	1523.746704	6170.633301	2356.745850	17.925962
335.500549	1522.423462	6201.068848	2363.031250	17.966906
335.867218	1517.681763	6233.599121	2370.970703	18.093805
336.233917	1517.791992	6266.350586	2373.286377	18.015875
336.600525	1517.902222	6286.419434	2376.153564	17.998285
336.967102	1518.453491	6298.108398	2381.998047	18.067091
337.333649	1514.814697	6301.747070	2385.857666	18.196266
337.700195	1515.365967	6302.960449	2386.188477	18.189144
338.066681	1514.814697	6287.301270	2380.675049	18.142752
338.433136	1514.924805	6274.620605	2379.241455	18.159073
338.799591	1517.791992	6256.425781	2377.587402	18.144373
339.165985	1518.674072	6243.192871	2377.256592	18.172911
339.532318	1518.233032	6246.500977	2373.728027	18.093201
339.898651	1522.864380	6259.623535	2377.366943	18.039814
340.264954	1521.320679	6270.540039	2385.526855	18.196806
340.631226	1519.446045	6293.697754	2385.526855	18.140659
340.997467	1514.042603	6324.463379	2392.915283	18.270182
341.363678	1512.278320	6352.583984	2402.288574	18.387480
341.729828	1514.704224	6393.384766	2411.220459	18.376202
342.095947	1517.902100	6440.028809	2417.616211	18.278971
342.462067	1519.335693	6484.028320	2425.445557	18.251078
342.828156	1520.769165	6534.422852	2430.518311	18.145432
343.194183	1523.526001	6589.118164	2437.134766	18.035576
343.560211	1529.811523	6630.911621	2444.412109	17.929478
343.926178	1529.590942	6675.130859	2454.667480	17.978220
344.292114	1528.598511	6720.674316	2458.306641	17.906290
344.658020	1526.723877	6756.071289	2460.953125	17.865120
345.023926	1530.252563	6774.155273	2466.246338	17.849182
345.389771	1530.473267	6798.194824	2469.444092	17.824989
345.755585	1531.024414	6824.880859	2475.068115	17.832817
346.121368	1537.089478	6843.737305	2478.045654	17.731649
346.487122	1534.443115	6866.122559	2481.022949	17.753876
346.852844	1536.869019	6899.425781	2488.411377	17.744192
347.218536	1538.853882	6923.574219	2499.218018	17.834988
347.584167	1539.184814	6951.252930	2505.062500	17.846739
347.949768	1540.177246	6975.071289	2508.370850	17.814398
348.315369	1540.838867	6981.578125	2517.082520	17.943216
348.680939	1544.477905	6995.692871	2520.831543	17.910753
349.046448	1547.786133	7005.065430	2523.037109	17.870644
349.411957	1546.793701	7011.351074	2525.352783	17.907379
349.777435	1543.706055	7011.021484	2528.219971	18.007263
350.142792	1546.903931	7013.336914	2531.858887	18.018238
350.508209	1547.675903	7017.306641	2539.026611	18.124636
350.873566	1545.911499	7036.273926	2542.885986	18.158628
351.238892	1545.470459	7057.776855	2544.760498	18.128345
351.604187	1549.109253	7084.462891	2551.376953	18.106661
351.969482	1553.079102	7127.248535	2562.845459	18.115099
352.334717	1553.851196	7176.099609	2572.438965	18.117088
352.699890	1551.535400	7256.376465	2584.789551	18.111883
353.065063	1551.976318	7340.295410	2598.904297	18.086908
353.430237	1551.314819	7438.216309	2617.650635	18.113703
353.795319	1548.778442	7545.511719	2633.419678	18.087202
354.160370	1548.668213	7656.886230	2651.614502	18.056761
354.525421	1547.014282	7778.847656	2674.000244	18.084339
354.890442	1547.786133	7926.062500	2691.092285	17.925001
355.255402	1544.367676	8060.375000	2709.507813	17.881197
355.620331	1547.345093	8211.227539	2724.946045	17.671394
355.985260	1548.006714	8359.985352	2744.905518	17.570501
356.350098	1549.440186	8488.122070	2765.084961	17.519823
356.714935	1547.455322	8615.155273	2785.265137	17.513615
357.079742	1548.116943	8735.904297	2805.224609	17.489494
357.444519	1544.588135	8862.386719	2823.529541	17.477133
357.809296	1537.530762	9007.835938	2843.378662	17.480516
358.173981	1534.663574	9175.340820	2866.756592	17.434227
358.538605	1535.104736	9362.474609	2897.633057	17.407230
358.903259	1535.104736	9576.954102	2936.228271	17.422901
359.267914	1535.214966	9815.033203	2971.515137	17.347000
359.632477	1534.001831	10056.529297	3005.369141	17.264448
359.997009	1532.237549	10270.126953	3034.150391	17.188507
360.361542	1533.671021	10432.007813	3060.726074	17.161129
360.726013	1533.009399	10550.330078	3076.384766	17.115677
361.090485	1533.119751	10621.235352	3083.111572	17.055151
361.454895	1537.640869	10669.645508	3090.940918	17.009409
361.819244	1538.081787	10689.494141	3095.792725	17.021536
362.183594	1538.964233	10671.849609	3096.344238	17.052441
362.547913	1538.523071	10616.161133	3094.580078	17.141651
362.912201	1539.515625	10574.367188	3093.697754	17.202078
363.276489	1536.097168	10510.079102	3091.271484	17.329813
363.640686	1532.568359	10443.033203	3085.537109	17.428595
364.004883	1531.686279	10386.685547	3082.118652	17.509119
364.369049	1529.701416	10336.401367	3072.966064	17.523756
364.733154	1531.024780	10286.117188	3064.916016	17.519989
365.097198	1537.200073	10230.098633	3066.239502	17.589523
365.461273	1542.272461	10137.360352	3057.197266	17.625471
365.825287	1545.580688	10013.523438	3039.994629	17.647900
366.189270	1546.132080	9845.798828	3017.499268	17.728027
366.553223	1545.690796	9649.182617	2987.945801	17.797945
366.917114	1546.132080	9422.791992	2958.833984	17.935291
367.281006	1547.014282	9187.691406	2923.326416	18.012960
367.644867	1549.991577	8990.744141	2902.815918	18.181284
368.008698	1548.337524	8831.179688	2876.240234	18.233303
368.372498	1548.999146	8707.012695	2862.345947	18.347923
368.736237	1547.124634	8622.102539	2856.280762	18.504030
369.099976	1540.728760	8559.579102	2851.208252	18.670856
369.463654	1538.854126	8522.858398	2845.915039	18.715065
369.827332	1534.994629	8489.886719	2842.055664	18.793406
370.190948	1534.884277	8472.683594	2836.541748	18.761820
370.554535	1533.450684	8443.021484	2835.328857	18.841665
370.918091	1534.002075	8424.715820	2831.359131	18.827614
371.281647	1538.854126	8421.626953	2829.043457	18.745197
371.645111	1536.427979	8420.744141	2823.088623	18.689737
372.008575	1536.648560	8415.342773	2831.359131	18.822039
372.371979	1535.876465	8419.863281	2834.667480	18.866844
372.735382	1531.906738	8436.183594	2833.013184	18.844934
373.098724	1531.686157	8473.456055	2838.416504	18.824167
373.462067	1529.149902	8530.798828	2849.995117	18.864773
373.825348	1528.708740	8601.592773	2858.927246	18.807301
374.188599	1525.731445	8696.095703	2875.909180	18.829973
374.551819	1522.643677	8812.875000	2893.663086	18.806253
374.915009	1517.130005	8930.976563	2917.923096	18.894281
375.278168	1514.152588	9048.197266	2936.228271	18.875328
375.641266	1512.829468	9160.785156	2953.430420	18.836418
376.004395	1510.624023	9243.048828	2969.089355	18.861681
376.367462	1513.491211	9303.587891	2977.249268	18.789986
376.730469	1516.689209	9354.423828	2980.006348	18.670155
377.093475	1522.092529	9382.984375	2986.071045	18.623568
377.456421	1522.864380	9423.675781	2989.489502	18.562967
377.819336	1524.298096	9463.595703	2995.885742	18.535488
378.182281	1526.172607	9498.992188	3002.060547	18.511494
378.545135	1521.872070	9540.673828	3012.867676	18.593746
378.907928	1522.864502	9571.441406	3020.145752	18.603056
379.270752	1523.305542	9599.780273	3028.856934	18.641195
379.633484	1526.282959	9631.869141	3034.480957	18.606897
379.996246	1524.077393	9659.878906	3040.104980	18.634027
380.358948	1525.069824	9686.673828	3044.957031	18.622408
380.721558	1521.430786	9715.344727	3049.809082	18.652603
381.084198	1523.305298	9733.429688	3055.433105	18.661446
381.446747	1525.951782	9744.015625	3061.939209	18.690382
381.809326	1527.275146	9746.000977	3060.395264	18.653988
382.171875	1527.495850	9729.791016	3059.182373	18.673878
382.534363	1528.488403	9709.280273	3056.205078	18.674435
382.896790	1533.229858	9671.567383	3050.030029	18.637716
383.259247	1531.245117	9648.851563	3049.478516	18.702969
383.621613	1532.017090	9663.408203	3051.904297	18.691601
383.983948	1527.716431	9692.850586	3062.931396	18.802078
384.346283	1523.195068	9736.739258	3078.148926	18.931583
384.708588	1519.225342	9811.723633	3092.704834	18.974735
385.070831	1519.887085	9891.341797	3112.002686	19.018385
385.433075	1519.335693	9960.373047	3131.300293	19.096760
385.795258	1517.020142	10042.305664	3144.201904	19.086538
386.157440	1518.784424	10104.719727	3153.906250	19.044189
386.519531	1514.042603	10178.823242	3165.815430	19.063066
386.881622	1519.335815	10246.749023	3179.489502	19.022289
387.243683	1517.350830	10314.126953	3188.642090	18.998905
387.605713	1519.556274	10383.047852	3201.764404	18.979069
387.967682	1522.643921	10443.366211	3216.982178	18.993284
388.329651	1525.069824	10513.719727	3229.332520	18.960163
388.691559	1523.746704	10610.648438	3247.748047	18.972380
389.053467	1521.431030	10715.627930	3267.818115	18.994450
389.415314	1519.887085	10810.132813	3288.328857	19.035467
389.777130	1518.784180	10914.560547	3306.413330	19.025881
390.138885	1520.328125	10994.397461	3325.710938	19.056044
390.500641	1518.012329	11088.901367	3338.171875	19.017666
390.862366	1521.872070	11165.982422	3350.963623	18.965893
391.224060	1525.510864	11220.676758	3355.043457	18.870565
391.585693	1529.921875	11295.551758	3366.070801	18.802156
391.947296	1536.317749	11367.119141	3377.759766	18.731352
392.308868	1535.766235	11409.905273	3385.919678	18.737366
392.670441	1535.656006	11454.014648	3393.418213	18.730541
393.031952	1533.119751	11484.449219	3396.395020	18.723883
393.393433	1537.310059	11495.697266	3397.057373	18.675186
393.754883	1537.089600	11506.393555	3403.783936	18.724421
394.116302	1538.523071	11496.689453	3403.563232	18.728752
394.477692	1529.701294	11492.830078	3403.011963	18.802433
394.839020	1527.936890	11479.376953	3406.210205	18.874386
395.200348	1526.834229	11463.718750	3410.841553	18.959738
395.561646	1529.480835	11443.759766	3410.400391	18.971823
395.922882	1529.150024	11409.354492	3403.012207	18.965824
396.284088	1529.480835	11337.236328	3392.866699	18.999105
396.645264	1527.275513	11269.638672	3380.406738	19.021372
397.006409	1530.914429	11181.641602	3373.128662	19.088863
397.367523	1533.450684	11090.887695	3357.910645	19.089426
397.728577	1538.964355	11024.392578	3346.662842	19.057638
398.089600	1539.074707	10949.627930	3343.685303	19.176456
398.450592	1539.625977	10886.000000	3341.921143	19.283361
398.811584	1539.074463	10829.209961	3349.198975	19.484371
399.172546	1537.971680	10760.399414	3344.678223	19.590357
399.533447	1528.819214	10692.691406	3338.061279	19.743206
399.894318	1532.127441	10638.768555	3334.532715	19.792208
400.255127	1532.237671	10596.091797	3328.247314	19.815075
400.615936	1531.355469	10585.175781	3333.098877	19.900366
400.976685	1529.150146	10593.115234	3342.803223	20.009489
401.337433	1531.575928	10626.307617	3353.058838	20.027891
401.698151	1531.355591	10702.835938	3366.843018	20.012989
402.058807	1537.861572	10785.099609	3388.896973	20.017170
402.419434	1539.736206	10877.398438	3406.871582	19.995749
402.780060	1538.633423	10977.195313	3417.237061	19.903496
403.140594	1534.663696	11064.090820	3431.242188	19.902336
403.501129	1535.986938	11144.919922	3455.171143	19.972918
403.861633	1537.420532	11224.757813	3471.490967	19.964933
404.222076	1539.625977	11293.236328	3485.275391	19.947992
404.582550	1535.986938	11374.728516	3494.427734	19.905399
404.942932	1535.656128	11422.916992	3510.968750	19.978361
405.303284	1530.804077	11480.369141	3524.422363	20.037239
405.663605	1531.245117	11533.189453	3532.362061	20.007278
406.023895	1532.568481	11582.260742	3541.955322	19.994511
406.384125	1530.914307	11629.016602	3549.123047	19.986019
406.744354	1529.811523	11684.814453	3557.503418	19.967419
407.104553	1536.317627	11746.566406	3570.736572	19.925262
407.464691	1536.868896	11813.392578	3587.277832	19.952360
407.824829	1537.420288	11876.467773	3597.532715	19.925552
408.184906	1538.522949	11926.201172	3608.228760	19.924625
408.544922	1538.633423	11974.169922	3619.256348	19.937864
408.904938	1537.971680	12007.030273	3623.887939	19.924583
409.264923	1536.317627	11999.752930	3629.291748	20.002743
409.624847	1534.112183	11979.573242	3621.462158	19.983322
409.984802	1533.560791	11956.416016	3613.522217	19.955774
410.344666	1535.656006	11935.685547	3610.435303	19.949745
410.704529	1534.774048	11906.352539	3612.750732	20.035297
411.064331	1531.355591	11896.317383	3612.640625	20.080008
411.424133	1532.017090	11892.458008	3613.632813	20.091959
411.783875	1531.245117	11887.385742	3620.359375	20.172710
412.143555	1536.317749	11895.656250	3625.652588	20.168613
412.503235	1535.986938	11932.376953	3629.953125	20.141283
412.862885	1536.317749	11957.078125	3639.215820	20.179890
413.222473	1535.876587	12000.966797	3652.669189	20.227179
413.582062	1530.473267	12055.992188	3666.784180	20.296492
413.941559	1529.480713	12132.080078	3680.898926	20.291422
414.301086	1532.237549	12203.647461	3696.337158	20.279415
414.660522	1531.796509	12282.932617	3713.098145	20.289036
415.019958	1529.150024	12364.093750	3725.558838	20.271528
415.379364	1530.142456	12462.125977	3754.340088	20.345785
415.738708	1528.708984	12566.443359	3774.409912	20.345669
416.098053	1529.591187	12702.960938	3801.537109	20.333576
416.457336	1526.503540	12866.385742	3838.368408	20.387026
416.816559	1528.047363	13056.165039	3878.838135	20.391802
417.175812	1526.834351	13278.144531	3922.726563	20.388296
417.535004	1528.488525	13530.667969	3968.931152	20.333328
417.894135	1528.157715	13808.997070	4031.014404	20.380175
418.253265	1528.047363	14142.681641	4091.554199	20.321690
418.612335	1530.583618	14503.713867	4157.166504	20.246332
418.971405	1528.378174	14871.801758	4228.402344	20.234867
419.330414	1527.054810	15239.122070	4296.440430	20.196705
419.689423	1521.871948	15591.002930	4357.531738	20.155188
420.048370	1521.210327	15940.676758	4424.577148	20.135050
420.407257	1519.997314	16263.223633	4484.235352	20.105762
420.766144	1519.887085	16600.767578	4542.899902	20.045332
421.125000	1524.518555	16922.103516	4602.777344	19.991829
421.483795	1525.180176	17245.310547	4666.294922	19.981480
421.842560	1520.769287	17599.064453	4740.618652	20.026062
422.201324	1520.328125	17935.947266	4798.842773	19.971922
422.560028	1519.887085	18241.623047	4853.537598	19.936029
422.918671	1520.769287	18531.310547	4902.719238	19.881496
423.277283	1524.077515	18778.761719	4947.489746	19.840481
423.635925	1525.841919	18955.306641	4976.491211	19.797792
423.994476	1527.385742	19096.347656	5000.971680	19.771152
424.353027	1529.921997	19197.578125	5017.954102	19.742474
424.711487	1530.914429	19260.099609	5044.198730	19.816387
425.069946	1529.701416	19272.009766	5061.731934	19.907391
425.428375	1529.701538	19241.906250	5054.674316	19.901377
425.786743	1531.576050	19143.101563	5033.612793	19.884914
426.145081	1531.796509	18994.343750	5008.360352	19.908688
426.503418	1530.914307	18822.097656	4973.955566	19.912121
426.861725	1533.561035	18640.148438	4938.667969	19.905237
427.219971	1537.751343	18467.904297	4910.658691	19.922485
427.578186	1539.405396	18302.933594	4883.200684	19.946848
427.936371	1542.051880	18152.521484	4861.146484	19.981945
428.294495	1545.249756	17946.314453	4830.490723	20.030657
428.652618	1543.485352	17745.066406	4794.210938	20.064249
429.010712	1544.477905	17538.191406	4759.364746	20.100939
429.368744	1549.991455	17290.296875	4710.845215	20.081272
429.726746	1550.432617	17043.066406	4670.595215	20.139652
430.084717	1548.999023	16817.117188	4638.175293	20.232855
430.442688	1548.337280	16581.134766	4598.477539	20.289904
430.800568	1549.660645	16415.947266	4575.320801	20.352493
431.158417	1548.668213	16272.815430	4560.764648	20.456848
431.516235	1546.903809	16145.229492	4536.394043	20.478308
431.874023	1542.492920	16049.514648	4516.985840	20.503815
432.231812	1543.816162	15953.795898	4497.467773	20.497265
432.589508	1543.706055	15895.242188	4482.250488	20.475470
432.947205	1543.595825	15808.457031	4469.458496	20.510979
433.304840	1542.052002	15756.189453	4462.291016	20.544609
433.662476	1541.831421	15700.720703	4463.944824	20.638012
434.020050	1545.029541	15676.790039	4466.481445	20.672951
434.377594	1544.147339	15649.995117	4471.774414	20.754704
434.735138	1536.869263	15624.854492	4468.246094	20.807638
435.092621	1536.648682	15592.102539	4468.356445	20.858150
435.450043	1536.979492	15602.911133	4469.238281	20.846531
435.807465	1532.789063	15644.480469	4484.675781	20.918022
436.164856	1532.017090	15690.354492	4492.505371	20.909857
436.522156	1531.576050	15735.567383	4505.627441	20.938137
436.879486	1527.936890	15802.060547	4522.058105	20.975866
437.236755	1525.510986	15877.817383	4547.420410	21.055218
437.593994	1529.701416	15964.602539	4571.459961	21.072250
437.951172	1528.267822	16095.165039	4601.895020	21.100080
438.308380	1526.944458	16181.729492	4623.288086	21.128551
438.665497	1526.503296	16304.906250	4645.012207	21.101797
439.022583	1530.252686	16441.642578	4672.139160	21.070379
439.379608	1531.906860	16545.410156	4699.707031	21.099674
439.736633	1532.568604	16637.816406	4718.674316	21.092707
440.093628	1535.104736	16715.669922	4731.907227	21.058521
440.450562	1534.773926	16800.359375	4749.881348	21.061146
440.807495	1534.222534	16869.169922	4763.114258	21.055773
441.164368	1534.773926	16950.664063	4778.000977	21.038208
441.521210	1534.773926	17015.833984	4795.203613	21.060764
441.878021	1532.899292	17084.865234	4805.679688	21.044159
442.234833	1536.979492	17175.837891	4835.343262	21.090822
442.591522	1538.854126	17250.492188	4842.180176	21.024710
442.948242	1535.766479	17338.599609	4862.690430	21.052706
443.304901	1538.082275	17434.316406	4880.554688	21.026819
443.661530	1541.169800	17547.126953	4914.518555	21.075583
444.018127	1542.382935	17676.144531	4941.314941	21.067202
444.374664	1544.367798	17807.478516	4971.308594	21.071867
444.731201	1552.197021	17927.343750	4996.340332	21.032747
445.087738	1551.535400	18043.792969	5013.432617	20.991045
445.444183	1552.307251	18093.746094	5021.041504	20.969967
445.800598	1548.888794	18151.085938	5031.627441	20.977577
446.156982	1546.352539	18172.921875	5037.692871	20.998560
446.513336	1545.359985	18160.902344	5038.575195	21.023781
446.869598	1546.793579	18160.683594	5043.647461	21.047773
447.225891	1546.021606	18175.570313	5053.131348	21.089626
447.582153	1546.352417	18179.318359	5059.196289	21.119766
447.938354	1548.999023	18181.964844	5064.268555	21.134354
448.294495	1548.006592	18183.066406	5074.193359	21.197319
448.650665	1544.147095	18170.828125	5073.421387	21.226572
449.006775	1537.971924	18154.617188	5075.626953	21.289827
449.362823	1539.405396	18162.666016	5083.456055	21.319830
449.718842	1541.610718	18152.962891	5079.927246	21.300592
450.074860	1540.838867	18172.703125	5093.270508	21.359192
450.430817	1544.918945	18136.753906	5084.448730	21.332960
450.786713	1541.831299	18068.271484	5075.295898	21.380676
451.142578	1537.861450	17979.615234	5053.020996	21.379469
451.498444	1534.001831	17847.619141	5024.350586	21.395308
451.854248	1533.119629	17694.558594	4993.363281	21.410492
452.210022	1529.039551	17510.074219	4958.738281	21.461056
452.565765	1527.385376	17293.279297	4920.803711	21.523794
452.921478	1529.370361	17109.785156	4890.810059	21.574776
453.277191	1531.796387	16919.673828	4858.169434	21.616842
453.632813	1531.906738	16753.052734	4830.380371	21.670336
453.988434	1531.245117	16601.978516	4808.105469	21.743204
454.343964	1528.819214	16476.490234	4784.837891	21.782782
454.699524	1529.591187	16350.117188	4759.696289	21.794806
455.054993	1527.385742	16251.754883	4744.478027	21.848761
455.410400	1526.282959	16187.574219	4732.347656	21.867546
455.765839	1523.636475	16166.403320	4728.377930	21.886175
456.121216	1525.400879	16186.471680	4732.237305	21.873140
456.476593	1529.591187	16245.579102	4743.375000	21.838722
456.831909	1529.480957	16359.379883	4770.612793	21.855389
457.187195	1528.267822	16504.277344	4807.443359	21.896191
457.542450	1528.157593	16688.544922	4846.590332	21.888838
457.897644	1528.267944	16878.652344	4894.118164	21.926813
458.252808	1531.024780	17079.128906	4931.059082	21.867838
458.607971	1536.317749	17244.759766	4966.125977	21.834171
458.963013	1539.956787	17343.453125	4987.849609	21.817280
459.318085	1542.934204	17441.373047	5002.405762	21.759821
459.673096	1541.831421	17513.933594	5011.889160	21.725740
460.028076	1541.610718	17581.533203	5033.061523	21.767254
460.383057	1541.059570	17632.478516	5045.081055	21.775715
460.737976	1542.272461	17654.751953	5048.830566	21.762995
461.092865	1543.265015	17668.205078	5055.998047	21.784472
461.447723	1543.375244	17674.822266	5060.519531	21.803030
461.802551	1546.573120	17650.451172	5061.402344	21.825979
462.157288	1547.786133	17647.472656	5061.953125	21.827549
462.512054	1548.337646	17629.390625	5063.717773	21.860386
462.866760	1545.911621	17608.216797	5063.276855	21.898260
463.221405	1547.676025	17561.681641	5060.960938	21.938826
463.576019	1547.896484	17482.503906	5047.618164	21.963024
463.930603	1548.447876	17383.810547	5026.224609	21.962091
464.285156	1546.242432	17249.832031	4991.489258	21.939230
464.639709	1547.345093	17084.640625	4956.091309	21.939121
464.994171	1543.706055	16863.326172	4910.659180	21.978046
465.348633	1542.603271	16613.998047	4860.043457	22.011501
465.703033	1539.295044	16373.494141	4818.030273	22.102543
466.057434	1532.899170	16159.786133	4787.705566	22.252216
466.411774	1530.032104	16020.070313	4759.475586	22.287334
466.766083	1522.864380	15879.141602	4735.325684	22.376701
467.120331	1521.100098	15783.867188	4725.400879	22.466192
467.474548	1521.430908	15706.787109	4708.860352	22.469858
467.828735	1519.997314	15633.897461	4701.913086	22.544554
468.182922	1520.438232	15605.998047	4700.258789	22.575039
468.537048	1521.871704	15567.403320	4696.068359	22.599337
468.891144	1520.879272	15539.833008	4693.311523	22.629593
469.245178	1517.571289	15543.692383	4695.407227	22.656555
469.599213	1514.483398	15538.730469	4691.657715	22.654865
469.953186	1512.278076	15543.582031	4689.562988	22.644260
470.307129	1512.719116	15539.062500	4698.164063	22.710443
470.661041	1515.255493	15572.252930	4704.449219	22.687590
471.014923	1517.019775	15620.001953	4716.027832	22.683203
471.368713	1514.483521	15633.895508	4721.651367	22.714600
471.722504	1516.799194	15624.414063	4730.363281	22.778931
472.076294	1515.696533	15594.748047	4729.701660	22.828278
472.429993	1517.571167	15538.951172	4736.207520	22.955204
472.783722	1517.681396	15533.877930	4736.979492	22.968414
473.137329	1521.210205	15559.459961	4748.116699	22.986530
473.490967	1524.628662	15589.895508	4750.983887	22.938457
473.844543	1525.069702	15655.178711	4771.825684	22.977571
474.198090	1525.731445	15736.008789	4796.747559	23.018665
474.551605	1524.849243	15840.216797	4821.007813	23.025316
474.905060	1525.400635	15973.979492	4851.994629	23.023676
475.258484	1526.834229	16111.156250	4884.855469	23.024870
475.611877	1525.180176	16262.120117	4918.047852	23.022879
475.965240	1522.974731	16434.146484	4956.091309	23.023788
476.318573	1525.731445	16599.001953	4998.987305	23.042484
476.671844	1529.149902	16778.083984	5029.532715	22.954935
477.025116	1531.024536	16965.107422	5075.186035	22.963215
477.378326	1533.340210	17172.417969	5125.911621	22.971758
477.731506	1535.435425	17399.578125	5172.225098	22.924589
478.084656	1534.773926	17628.064453	5221.075684	22.905828
478.437744	1532.788940	17876.400391	5282.938965	22.945663
478.790833	1532.347900	18179.759766	5350.425781	22.934963
479.143890	1529.149902	18532.742188	5424.639160	22.909801
479.496826	1527.606079	18959.386719	5519.252930	22.898676
479.849823	1528.488281	19549.675781	5629.856445	22.758591
480.202728	1529.039673	20281.115234	5789.972656	22.722460
480.555603	1525.952148	21176.748047	5987.360352	22.703447
480.908478	1522.974731	22400.552734	6266.019531	22.718367
481.261292	1522.974731	23963.777344	6614.700684	22.689590
481.614075	1524.628906	25732.109375	7014.880371	22.679979
481.966797	1526.834229	27496.359375	7413.625977	22.668077
482.319489	1527.606079	29080.205078	7751.390625	22.588739
482.672150	1526.393188	30462.691406	8035.563477	22.494827
483.024780	1524.739014	31572.472656	8261.070313	22.418766
483.377350	1523.636353	32530.302734	8440.594727	22.307972
483.729919	1522.313110	33403.109375	8612.067383	22.238323
484.082428	1523.856812	34220.453125	8787.510742	22.215321
484.434937	1524.187622	35104.066406	8974.643555	22.187263
484.787384	1523.636230	36042.925781	9176.001953	22.168375
485.139771	1526.503296	37078.054688	9386.291992	22.108145
485.492157	1529.921753	38098.410156	9615.548828	22.110914
485.844482	1531.355347	39044.769531	9820.324219	22.096012
486.196777	1530.693726	39872.480469	10006.794922	22.106695
486.549072	1531.796509	40529.593750	10144.304688	22.084600
486.901276	1531.134888	40987.113281	10235.279297	22.060396
487.253448	1530.363037	41207.882813	10288.651367	22.073679
487.605591	1528.047241	41187.921875	10276.632813	22.059036
487.957703	1529.039917	40949.730469	10215.431641	22.035107
488.309784	1533.450806	40448.871094	10093.580078	21.996752
488.661835	1533.450806	39685.007813	9925.194336	21.995808
489.013855	1533.560913	38832.492188	9730.894531	21.977398
489.365814	1533.340454	38064.773438	9549.165039	21.942266
489.717743	1533.009521	37422.546875	9422.242188	21.981983
490.069611	1532.017090	36896.214844	9311.970703	21.999519
490.421509	1533.561035	36463.058594	9225.294922	22.020741
490.773315	1538.633545	36034.433594	9151.413086	22.068712
491.125092	1539.625977	35581.214844	9053.601563	22.072927
491.476807	1534.553345	35043.742188	8935.939453	22.087633
491.828522	1536.317749	34357.406250	8792.143555	22.107204
492.180176	1533.230225	33541.167969	8619.898438	22.140345
492.531830	1530.804199	32589.628906	8429.236328	22.210861
492.883423	1527.495972	31597.392578	8211.888672	22.229517
493.234985	1525.290405	30630.853516	7996.636719	22.234053
493.586487	1528.047363	29768.414063	7809.284180	22.242050
493.937988	1528.929443	29037.640625	7658.872559	22.283644
494.289429	1532.788818	28473.484375	7543.307129	22.310183
494.640869	1531.686157	28000.085938	7439.872070	22.321659
494.992218	1531.686157	27623.722656	7375.361816	22.396395
495.343567	1529.149902	27261.039063	7294.752930	22.406450
495.694855	1530.362915	26811.238281	7200.028320	22.426699
496.046112	1533.230103	26245.205078	7073.765625	22.420448
496.397339	1532.899292	25526.890625	6913.208984	22.423571
496.748535	1534.663574	24699.515625	6733.244629	22.441677
497.099670	1534.994385	23875.558594	6549.420410	22.445385
497.450806	1536.097046	23117.435547	6396.361816	22.520683
497.801880	1540.177124	22517.664063	6273.958984	22.566010
498.152924	1536.648560	22015.919922	6183.977051	22.692841
498.503937	1535.766357	21626.441406	6116.379883	22.799698
498.854889	1541.279907	21339.951172	6068.852051	22.868061
499.205841	1537.089600	21112.789063	6023.639648	22.918976
499.556702	1541.941650	20926.869141	5983.500977	22.912437
499.907562	1539.956787	20761.572266	5950.088379	22.943607
500.258362	1540.838867	20609.949219	5920.755371	22.968647
500.609161	1544.588257	20483.576172	5900.245117	22.998360
500.959900	1543.926636	20330.847656	5866.832520	23.010187
501.310608	1543.595703	20167.863281	5839.374512	23.065491
501.661255	1540.949097	19978.414063	5801.881836	23.110188
502.011902	1544.257324	19809.808594	5777.842285	23.177977
502.362488	1545.249756	19609.330078	5728.550781	23.158117
502.713043	1546.352539	19430.138672	5699.218262	23.221403
503.063568	1541.279907	19261.421875	5671.429688	23.307655
503.414063	1538.523071	19106.378906	5640.332520	23.348379
503.764496	1541.059204	18964.458984	5618.278320	23.400824
504.114899	1539.295166	18838.527344	5599.752930	23.471895
504.465271	1538.743774	18744.794922	5581.336914	23.495184
504.815613	1535.656128	18675.433594	5570.860840	23.542923
505.165894	1529.701416	18602.212891	5566.229980	23.643436
505.516174	1527.716553	18584.128906	5556.746094	23.621788
505.866394	1527.937012	18570.455078	5554.540527	23.626812
506.216583	1523.305664	18563.177734	5551.011719	23.636951
506.566711	1523.856934	18600.339844	5568.434570	23.685076
506.916840	1523.085083	18640.369141	5581.888184	23.711725
507.266907	1521.872070	18704.107422	5591.812500	23.686911
507.616882	1518.674072	18761.666016	5605.486328	23.701294
507.966858	1516.689209	18802.027344	5615.190918	23.710857
508.316803	1516.248169	18854.185547	5628.864746	23.720335
508.666748	1516.579102	18909.541016	5641.656250	23.716934
509.016632	1515.145508	18965.890625	5653.124023	23.712330
509.366486	1513.932373	19011.984375	5664.041016	23.717545
509.716309	1512.940063	19094.466797	5687.640137	23.744810
510.066040	1512.609253	19168.130859	5714.436523	23.798941
510.415771	1515.476318	19257.892578	5730.866211	23.758825
510.765503	1514.263428	19336.626953	5752.810547	23.782183
511.115173	1516.248169	19421.427734	5773.321289	23.775652
511.464752	1516.578979	19503.468750	5789.751465	23.757149
511.814270	1518.012451	19575.478516	5814.783691	23.794985
512.163818	1518.563843	19630.283203	5829.229004	23.800419
512.513306	1516.578857	19691.484375	5837.058594	23.771675
512.862793	1520.328003	19720.816406	5841.800781	23.743719
513.212219	1519.887085	19769.556641	5859.774902	23.780636
513.561646	1518.563721	19808.925781	5877.308594	23.830832
513.911011	1515.255615	19836.164063	5883.925293	23.845270
514.260315	1513.932251	19890.197266	5896.385254	23.848442
514.609558	1514.593994	19954.156250	5917.888672	23.879606
514.958801	1517.460938	20057.042969	5941.487305	23.862600
515.308044	1517.019897	20201.500000	5976.773926	23.868761
515.657227	1518.894531	20392.933594	6023.198242	23.865076
516.006348	1520.989746	20606.861328	6071.718262	23.843441
516.355408	1523.415771	20836.009766	6135.456055	23.880997
516.704529	1523.856812	21066.146484	6183.204102	23.842382
517.053467	1523.415649	21249.308594	6222.682129	23.822834
517.402466	1526.062256	21397.183594	6246.610840	23.755825
517.751404	1523.084961	21517.271484	6271.202148	23.747488
518.100281	1525.290405	21624.896484	6287.522461	23.693161
518.449219	1520.548950	21691.941406	6301.636719	23.702320
518.798035	1517.571411	21757.333984	6314.318359	23.699623
519.146851	1516.689331	21826.916016	6325.786621	23.678205
519.495544	1517.020020	21905.869141	6337.806641	23.644230
519.844299	1522.313110	21994.197266	6358.097656	23.621590
520.192932	1520.218018	22093.333984	6382.247070	23.632927
520.541626	1522.313110	22156.630859	6393.053711	23.605047
520.890198	1527.937012	22260.949219	6415.770020	23.575123
521.238770	1530.583496	22355.783203	6427.127930	23.512594
521.587280	1531.796387	22446.537109	6456.460449	23.546379
521.935791	1530.693726	22546.884766	6485.130859	23.574381
522.284180	1532.788940	22645.027344	6520.308594	23.623831
522.632629	1534.994385	22760.375000	6558.022461	23.665197
522.981018	1530.693726	22887.296875	6593.310059	23.705156
523.329346	1530.693848	23058.660156	6634.772461	23.709061
523.677551	1525.731567	23236.419922	6668.074219	23.685766
524.025818	1523.415771	23458.398438	6726.518066	23.720568
524.374023	1521.100098	23722.173828	6794.114746	23.751169
524.722229	1520.438477	24090.261719	6883.656250	23.762781
525.070374	1520.548584	24555.941406	7004.185059	23.805267
525.418457	1519.556274	25200.154297	7161.322754	23.824427
525.766541	1524.849365	26106.705078	7375.472656	23.800575
526.114563	1525.621338	27271.955078	7643.104004	23.760595
526.462585	1522.974854	28579.017578	7947.456055	23.745089
526.810547	1526.172729	29825.097656	8250.044922	23.760168
527.158447	1526.172607	30890.884766	8502.238281	23.756628
527.506348	1528.157593	31764.574219	8700.176758	23.719805
527.854065	1528.598633	32475.056641	8856.433594	23.679075
528.201904	1522.202759	33035.906250	8983.136719	23.675205
528.549622	1520.879639	33462.882813	9093.298828	23.706776
528.897339	1520.879517	33790.281250	9163.322266	23.683249
529.245056	1519.997314	34014.574219	9206.769531	23.655556
529.592712	1516.027466	34193.992188	9242.607422	23.644619
529.940369	1515.365845	34378.804688	9282.416016	23.634321
530.287903	1517.571289	34558.000000	9316.379883	23.603836
530.635437	1514.704346	34745.679688	9355.857422	23.595917
530.982910	1517.020020	35013.753906	9424.447266	23.606562
531.330383	1518.233032	35248.523438	9471.312500	23.578451
531.677795	1521.651489	35370.593750	9503.070313	23.579523
532.025208	1522.643921	35337.398438	9497.557617	23.584124
532.372498	1521.320801	35142.769531	9448.044922	23.576391
532.719788	1522.643921	34723.730469	9349.571289	23.574310
533.067078	1520.659180	34028.792969	9186.367188	23.580893
533.414307	1523.195435	33081.554688	8970.673828	23.599068
533.761536	1525.290649	32011.136719	8726.972656	23.623035
534.108643	1523.085083	31022.433594	8492.201172	23.624645
534.455811	1523.856934	30247.216797	8317.088867	23.650549
534.802856	1527.275635	29614.585938	8186.967285	23.710676
535.149902	1524.408447	29126.521484	8090.700195	23.789091
535.496887	1523.195313	28710.240234	7995.535156	23.806705
535.843811	1522.864624	28364.095703	7914.374023	23.812281
536.190796	1520.328247	28066.687500	7857.914551	23.873655
536.537659	1526.613892	27817.033203	7812.041504	23.907673
536.884460	1527.826782	27578.732422	7760.985352	23.926840
537.231323	1525.180298	27296.324219	7695.152344	23.941397
537.578064	1525.952148	27017.113281	7637.258789	23.974218
537.924805	1524.518677	26697.654297	7577.160645	24.044054
538.271423	1526.062500	26405.654297	7513.203125	24.064465
538.618164	1527.275391	26236.941406	7478.797852	24.085808
538.964783	1526.062378	26303.761719	7492.361816	24.079311
539.311279	1525.290405	26509.308594	7550.034180	24.114391
539.657776	1529.811523	26777.714844	7615.535645	24.103880
540.004333	1534.001831	27009.066406	7675.414551	24.107544
540.350769	1530.914307	27213.953125	7728.344727	24.130442
540.697144	1534.773926	27352.234375	7771.902344	24.158566
541.043518	1534.773926	27429.089844	7789.766602	24.155851
541.389893	1532.788940	27431.296875	7781.715820	24.128521
541.736145	1533.009521	27319.259766	7758.227539	24.141617
542.082458	1531.465698	27184.619141	7724.704590	24.142212
542.428711	1530.032104	27028.029297	7688.755371	24.153751
542.774902	1534.443115	26874.091797	7664.936523	24.193285
543.121033	1534.001953	26771.865234	7644.426270	24.211338
543.467102	1535.766357	26708.130859	7625.128906	24.190664
543.813171	1530.473389	26658.839844	7616.196289	24.218536
544.159180	1527.826782	26623.990234	7605.500977	24.217543
544.505127	1527.275269	26580.546875	7596.348145	24.224672
544.851135	1525.510986	26465.642578	7577.050781	24.264267
545.197021	1529.039673	26279.062500	7532.390625	24.255941
545.542908	1529.811523	25915.710938	7446.377441	24.262243
545.888733	1528.598633	25382.431641	7325.628906	24.302301
546.234558	1529.701416	24666.982422	7159.006836	24.330023
546.580322	1529.370483	23875.119141	6974.189941	24.366243
546.926025	1522.754150	23061.306641	6787.829102	24.444889
547.271667	1516.799438	22344.753906	6632.014160	24.559372
547.617371	1515.917236	21688.521484	6479.948730	24.607786
547.962952	1510.513916	21087.759766	6339.902344	24.668377
548.308533	1506.985229	20539.593750	6217.278809	24.748543
548.654053	1510.513916	20035.978516	6115.828125	24.859373
548.999573	1510.072876	19574.046875	6015.259766	24.940176
549.344971	1509.631836	19205.074219	5937.517578	25.022749
549.690430	1511.727051	18895.871094	5868.486816	25.061686
550.035767	1514.704468	18655.806641	5813.350098	25.078001
550.381104	1517.461182	18424.896484	5758.544922	25.084135
550.726440	1517.350952	18201.921875	5715.207520	25.160110
551.071655	1521.872070	17961.861328	5665.364746	25.203745
551.416931	1523.305664	17699.191406	5614.308105	25.290747
551.762085	1523.305664	17417.554688	5552.114258	25.347588
552.107178	1526.393188	17137.240234	5490.692871	25.394522
552.452332	1527.937012	16865.531250	5429.160156	25.435692
552.797424	1528.488281	16617.859375	5384.831055	25.556683
553.142395	1529.039551	16403.378906	5348.110352	25.675566
553.487366	1531.906494	16235.324219	5318.226074	25.751289
553.832336	1533.450439	16092.630859	5288.231934	25.789785
554.177185	1538.192261	15982.911133	5267.169922	25.815508
554.522095	1537.199707	15885.650391	5240.374023	25.808878
554.866943	1540.508057	15797.429688	5228.464844	25.867834
555.211731	1540.177246	15707.779297	5211.923340	25.916498
555.556396	1542.162109	15630.037109	5196.815918	25.941839
555.901123	1536.758667	15550.971680	5183.583496	26.022329
556.245789	1533.891602	15491.977539	5165.498535	26.017944
556.590454	1533.340454	15421.841797	5146.311035	26.014116
556.934998	1535.656006	15336.601563	5128.777832	26.035332
557.279541	1531.135010	15230.741211	5104.958984	26.087055
557.624023	1529.260376	15136.675781	5087.205566	26.147106
557.968567	1528.488403	15005.562500	5056.439453	26.177425
558.312988	1526.393188	14903.338867	5033.061523	26.214270
558.657349	1528.267822	14807.733398	5008.471191	26.207405
559.001770	1528.708862	14752.045898	4998.657227	26.241095
559.346069	1524.628784	14695.036133	4982.777344	26.256960
559.690308	1524.187622	14652.139648	4980.130371	26.325071
560.034485	1519.445923	14622.696289	4969.103516	26.326733
560.378723	1517.681519	14593.473633	4959.068848	26.318768
560.722900	1515.365845	14547.491211	4952.011230	26.370569
561.067017	1513.380981	14502.721680	4940.432617	26.383570
561.411072	1513.932251	14474.269531	4933.927246	26.388165
561.755127	1513.380859	14445.488281	4931.390625	26.430416
562.099182	1512.057617	14444.275391	4929.405273	26.425070
562.443115	1513.711914	14463.792969	4935.691406	26.424387
562.787048	1512.609131	14476.474609	4940.212402	26.439671
563.130920	1517.020142	14514.077148	4953.334473	26.439175
563.474792	1519.997437	14593.033203	4975.499023	26.432280
563.818604	1519.887085	14671.437500	4998.435547	26.449720
564.162354	1516.689209	14778.511719	5022.144531	26.432682
564.506042	1522.202881	14880.733398	5051.917480	26.422926
564.849731	1525.290405	14948.110352	5070.443359	26.411386
565.193420	1526.723999	15022.654297	5093.710938	26.430092
565.537048	1527.054688	15072.498047	5105.951172	26.421406
565.880615	1524.959595	15111.315430	5115.104004	26.424633
566.224121	1526.723877	15117.048828	5119.184082	26.433952
566.567627	1533.781372	15125.760742	5121.058594	26.392605
566.911072	1532.788940	15127.083008	5117.860840	26.371887
567.254517	1536.758789	15147.593750	5122.933594	26.347940
567.597839	1535.104858	15172.957031	5129.991211	26.359621
567.941223	1534.002075	15221.255859	5135.504883	26.312822
568.284485	1532.678833	15281.576172	5151.383789	26.319965
568.627808	1534.663696	15341.895508	5163.624023	26.283043
568.970947	1535.876709	15414.675781	5182.480957	26.274639
569.314148	1538.633545	15486.792969	5201.777832	26.262564
569.657288	1534.774048	15551.301758	5218.429199	26.280798
570.000366	1534.112305	15612.943359	5237.506836	26.304703
570.343445	1532.348022	15662.568359	5242.799805	26.258978
570.686462	1528.378174	15679.879883	5252.063477	26.313004
571.029419	1526.723999	15675.358398	5244.674805	26.277805
571.372314	1526.613770	15632.462891	5234.640625	26.287157
571.715210	1521.651367	15592.434570	5217.216797	26.264107
572.058105	1520.989990	15575.562500	5210.048828	26.248104
572.400879	1521.872070	15552.845703	5197.919434	26.199518
572.743713	1518.563843	15550.087891	5199.793945	26.235424
573.086426	1520.328125	15549.425781	5203.542969	26.254110
573.429077	1521.982178	15559.351563	5206.960938	26.251207
573.771790	1517.902100	15557.585938	5215.893066	26.339561
574.114441	1517.571289	15556.593750	5215.451660	26.340014
574.457031	1516.248047	15535.863281	5209.938477	26.346590
574.799561	1519.115112	15488.666992	5201.227051	26.358124
575.142029	1518.674072	15425.588867	5193.397461	26.423714
575.484436	1520.438477	15341.343750	5172.446289	26.423796
575.826904	1518.674194	15231.954102	5151.493652	26.491249
576.169250	1519.666626	15101.721680	5121.279297	26.517437
576.511597	1518.012573	14939.840820	5083.457031	26.564522
576.853943	1521.320679	14764.176758	5039.898926	26.569632
577.196167	1524.518555	14579.801758	4996.671875	26.595772
577.538391	1523.526123	14387.044922	4952.011719	26.652782
577.880554	1526.503296	14197.925781	4903.822754	26.653040
578.222717	1527.606079	14013.992188	4871.512695	26.780422
578.564819	1527.936890	13843.730469	4829.719238	26.809334
578.906860	1531.906860	13668.176758	4791.674805	26.859720
579.248901	1529.039795	13486.114258	4753.300293	26.965296
579.590942	1528.488525	13311.665039	4711.506836	27.013245
579.932861	1530.473267	13130.047852	4666.295410	27.033943
580.274780	1531.576050	12965.851563	4624.722656	27.051531
580.616638	1528.929443	12799.669922	4583.370117	27.100622
580.958496	1528.267822	12642.088867	4541.246094	27.110191
581.300232	1525.400757	12493.443359	4507.282227	27.186995
581.641968	1525.841919	12354.940430	4477.287598	27.254768
581.983704	1524.187744	12222.283203	4449.167969	27.341129
582.325317	1525.841919	12101.534180	4415.865723	27.327042
582.666992	1527.275391	11995.232422	4394.031738	27.386015
583.008606	1529.591187	11896.317383	4377.710938	27.473663
583.350098	1530.693970	11814.714844	4354.222656	27.455496
583.691589	1529.039917	11735.871094	4337.351074	27.514034
584.033081	1530.473511	11675.662109	4324.229004	27.537737
584.374512	1529.150146	11635.742188	4311.216797	27.527248
584.715881	1530.804199	11580.606445	4304.159180	27.596113
585.057190	1531.245361	11526.683594	4294.896484	27.649124
585.398499	1526.613770	11487.756836	4282.545898	27.666828
585.739807	1531.355469	11463.937500	4288.721680	27.760820
586.081055	1531.134888	11458.313477	4290.044922	27.791483
586.422180	1532.347900	11440.449219	4283.869629	27.770424
586.763367	1531.134888	11435.597656	4288.170410	27.836296
587.104431	1532.237671	11436.257813	4291.147949	27.856466
587.445496	1529.370483	11437.471680	4292.360840	27.886171
587.786499	1529.039795	11440.559570	4300.190430	27.958887
588.127502	1532.237671	11449.160156	4301.072754	27.920303
588.468445	1533.340332	11450.815430	4305.372559	27.950989
588.809326	1533.560913	11456.659180	4306.034668	27.939596
589.150208	1536.207520	11464.377930	4307.136719	27.909767
589.491028	1537.751343	11463.717773	4316.840820	27.998173
589.831848	1533.450562	11459.858398	4317.943359	28.051361
590.172546	1529.591187	11462.835938	4315.958984	28.050930
590.513245	1527.385620	11457.653320	4320.700684	28.129301
590.853943	1526.723999	11469.452148	4317.282715	28.066326
591.194458	1523.084961	11473.973633	4322.906250	28.136395
591.535095	1526.282837	11476.620117	4327.096191	28.147926
591.875610	1528.819214	11484.891602	4330.735352	28.142784
592.216125	1524.739014	11512.017578	4332.389648	28.112270
592.556580	1528.819214	11542.123047	4335.918945	28.033701
592.897034	1527.385620	11559.435547	4335.367188	27.990107
593.237366	1524.408203	11564.838867	4340.219238	28.044724
593.577698	1529.260254	11603.103516	4354.665039	28.046938
593.918030	1530.252686	11650.410156	4366.133301	28.022100
594.258301	1531.686401	11705.215820	4388.849121	28.084282
594.598511	1533.450684	11771.158203	4404.949219	28.048258
594.938721	1535.325317	11857.501953	4418.402344	27.930902
595.278809	1534.443115	11935.464844	4443.764648	27.971498
595.618958	1537.861328	11997.327148	4457.218262	27.911148
595.958984	1535.876587	12031.291016	4465.157715	27.910107
596.299011	1534.663574	12048.934570	4466.591309	27.885220
596.638977	1534.112305	12065.916992	4461.628906	27.796913
596.978943	1536.317749	12067.018555	4460.967773	27.772604
597.318848	1538.302490	12054.998047	4456.777344	27.750874
597.658630	1541.720947	12036.031250	4451.374023	27.726006
597.998474	1541.941650	12002.398438	4448.506836	27.786217
598.338257	1541.610718	11959.060547	4442.110840	27.842705
598.677979	1536.648438	11904.476563	4425.239258	27.861099
599.017700	1535.986938	11873.490234	4417.189453	27.871359
599.357361	1536.317749	11823.316406	4409.469727	27.929932
599.696960	1537.530640	11767.958984	4400.097656	27.980909
600.036560	1535.104736	11732.892578	4389.400391	27.989361
600.376038	1537.420532	11709.957031	4380.467773	27.948265
600.715576	1535.215088	11680.955078	4374.624023	27.986217
601.055054	1530.473267	11653.055664	4364.479004	27.996868
601.394409	1530.142456	11614.680664	4346.063477	27.923153
601.733826	1529.260376	11593.729492	4339.888184	27.926243
602.073120	1523.195435	11560.426758	4334.485352	28.008619
602.412415	1519.335693	11560.868164	4331.066406	28.001013
602.751587	1515.366089	11583.473633	4340.880859	28.064011
603.090820	1516.578979	11618.099609	4357.641602	28.125097
603.429993	1518.563843	11665.185547	4373.961914	28.141365
603.769104	1517.902100	11700.142578	4391.716309	28.223791
604.108154	1517.240479	11724.841797	4407.044434	28.310312
604.447205	1517.571289	11761.012695	4412.226563	28.258621
604.786194	1516.358276	11777.001953	4423.805176	28.335911
605.125183	1519.666504	11801.591797	4430.642578	28.311584
605.464111	1522.423340	11833.351563	4434.170898	28.239433
605.802979	1524.849121	11869.520508	4450.712402	28.283772
606.141846	1523.415527	11894.111328	4460.416504	28.320194
606.480652	1525.621338	11927.525391	4472.766602	28.332747
606.819336	1524.187622	11986.520508	4488.866699	28.336693
607.158020	1522.202759	12036.363281	4505.186523	28.371109
607.496765	1518.453491	12074.296875	4519.963379	28.434580
607.835388	1515.255615	12102.967773	4528.013184	28.455229
608.173950	1520.328369	12105.945313	4531.100586	28.442104
608.512512	1522.313110	12089.955078	4527.792969	28.440405
608.851013	1523.415771	12038.128906	4523.932617	28.536366
609.189514	1528.708862	11961.158203	4506.730469	28.545755
609.527893	1531.575928	11846.584961	4478.500977	28.569292
609.866333	1536.428101	11725.615234	4449.278320	28.587658
610.204712	1538.082153	11597.809570	4412.336914	28.571896
610.542969	1536.317749	11477.282227	4380.909180	28.614841
610.881226	1535.545898	11375.941406	4355.767090	28.659632
611.219482	1536.538330	11296.544922	4328.088379	28.601927
611.557678	1534.774048	11222.221680	4313.973145	28.688663
611.895813	1534.001953	11170.172852	4295.447754	28.657085
612.233948	1529.370605	11119.116211	4283.758789	28.722221
612.571960	1530.693848	11067.949219	4267.989746	28.701084
612.910034	1530.693848	11004.432617	4251.007813	28.714262
613.247986	1530.032227	10945.435547	4228.402344	28.659103
613.585938	1525.510986	10878.611328	4208.774414	28.688492
613.923828	1526.723877	10775.286133	4182.198242	28.712294
614.261658	1528.708740	10655.861328	4151.211914	28.732983
614.599487	1530.583374	10533.898438	4123.092285	28.795046
614.937317	1532.899170	10426.493164	4096.626953	28.826679
615.275024	1529.921753	10327.688477	4074.682617	28.925077
615.612732	1525.951904	10242.007813	4053.620850	29.000147
615.950378	1524.297852	10159.083008	4029.912109	29.017679
616.288025	1523.856812	10087.185547	4015.355957	29.094982
616.625549	1523.415649	10036.679688	4004.770020	29.146923
616.963074	1522.092407	9979.669922	3990.875488	29.190195
617.300537	1521.761597	9949.125000	3978.635010	29.153526
617.638000	1521.761597	9913.396484	3975.106445	29.235600
617.975464	1523.636230	9882.080078	3964.188721	29.198648
618.312744	1525.952026	9843.483398	3964.740234	29.321056
618.650024	1523.746582	9816.908203	3956.580322	29.335417
618.987305	1523.526001	9787.244141	3952.279297	29.390566
619.324585	1529.370483	9754.933594	3944.339600	29.359316
619.661743	1528.267822	9729.902344	3942.906738	29.440947
619.998901	1531.465820	9711.817383	3931.107422	29.334211
620.336060	1534.001953	9686.896484	3932.761963	29.422188
620.673096	1539.184814	9661.203125	3925.815186	29.384695
621.010193	1538.633423	9631.980469	3917.764893	29.396135
621.347168	1535.766357	9616.762695	3912.802490	29.415138
621.684082	1534.773926	9601.544922	3903.319092	29.361750
622.020996	1535.545898	9580.703125	3895.489990	29.333723
622.357849	1540.397827	9554.568359	3883.911133	29.242119
622.694641	1540.397827	9528.212891	3880.382324	29.294424
623.031433	1541.941650	9508.142578	3873.987061	29.274246
623.368164	1542.162231	9502.850586	3872.773926	29.276510
623.704895	1541.059570	9505.497070	3874.427734	29.297338
624.041504	1537.971924	9534.609375	3874.096680	29.213839
624.378174	1534.663818	9550.929688	3881.926025	29.281242
624.714783	1534.994629	9583.019531	3888.542480	29.243793
625.051331	1531.906982	9605.955078	3899.680176	29.325727
625.387756	1531.024780	9641.573242	3897.143555	29.173349
625.724304	1531.906860	9667.598633	3905.303467	29.172646
626.060669	1535.656128	9673.332031	3906.406250	29.133011
626.397034	1532.678955	9680.831055	3910.265625	29.179459
626.733337	1532.568604	9681.161133	3906.406250	29.131872
627.069641	1527.716553	9676.640625	3912.691650	29.267363
627.405884	1528.267944	9668.479492	3902.325928	29.164576
627.742126	1527.937012	9663.517578	3903.098145	29.194735
628.078308	1523.526123	9658.775391	3901.334473	29.228464
628.414429	1523.526123	9645.101563	3896.482422	29.217932
628.750488	1524.959595	9631.758789	3890.637939	29.181408
629.086548	1526.062256	9595.479492	3882.919189	29.207277
629.422546	1523.526123	9564.051758	3879.831055	29.305361
629.758545	1525.069824	9526.228516	3874.096680	29.358583
630.094421	1524.187744	9472.195313	3863.510498	29.432819
630.430298	1525.290405	9417.831055	3850.828857	29.465019
630.766113	1526.282959	9351.777344	3831.531250	29.458181
631.101929	1529.260254	9271.388672	3814.549072	29.517578
631.437622	1531.575928	9189.014648	3802.529297	29.656828
631.773376	1529.149902	9111.272461	3781.136475	29.701269
632.109070	1529.149902	9044.116211	3757.207520	29.648272
632.444641	1525.510864	8975.857422	3740.997314	29.736689
632.780273	1528.378052	8906.606445	3724.566895	29.765802
633.115784	1525.069946	8849.706055	3709.900391	29.828520
633.451294	1521.872070	8788.946289	3689.500000	29.828070
633.786682	1520.438477	8727.304688	3678.252197	29.941082
634.122131	1521.982178	8668.307617	3666.894043	30.014193
634.457458	1520.107666	8613.833008	3656.969971	30.123272
634.792847	1519.997314	8549.323242	3639.656982	30.154522
635.128113	1524.739136	8485.807617	3624.880615	30.169817
635.463318	1526.613770	8434.750000	3614.845703	30.228586
635.798584	1525.841919	8377.078125	3605.141846	30.349264
636.133728	1525.952148	8329.109375	3592.680908	30.378965
636.468872	1525.290527	8283.125000	3581.212402	30.422791
636.803955	1524.739136	8240.559570	3565.553467	30.388161
637.139038	1526.613770	8204.279297	3561.142822	30.467669
637.473999	1525.069946	8163.147949	3546.697266	30.455009
637.808899	1525.400757	8111.651855	3537.544678	30.550673
638.143799	1522.202759	8053.869141	3526.186768	30.681051
638.478638	1523.415771	7994.541504	3505.896484	30.635792
638.813538	1528.047363	7933.230469	3486.818848	30.581038
639.148315	1530.252808	7868.169434	3474.799561	30.681168
639.483032	1530.583496	7802.336914	3458.809814	30.744614
639.817749	1529.150024	7742.680176	3438.519775	30.729225
640.152405	1527.165161	7685.999023	3426.389893	30.837408
640.487000	1529.480835	7628.216309	3413.267090	30.888145
640.821594	1528.819214	7575.727539	3400.586426	30.954121
641.156128	1528.598511	7530.735840	3382.831787	30.892883
641.490662	1528.267822	7483.979980	3370.702393	30.935589
641.825134	1524.959595	7437.886230	3363.424072	31.092293
642.159546	1522.092651	7393.886719	3360.337158	31.306353
642.493896	1519.666626	7349.887695	3350.191650	31.397181
642.828186	1517.902222	7319.563477	3342.803223	31.454802
643.162537	1516.358398	7284.606934	3336.517578	31.554798
643.496765	1515.696777	7244.688477	3327.916260	31.632433
643.830994	1516.027588	7218.002441	3321.079590	31.656612
644.165100	1513.380981	7196.499023	3310.934570	31.629707
644.499268	1510.293457	7173.011230	3311.926758	31.815701
644.833313	1509.301025	7158.014160	3305.420410	31.796967
645.167358	1515.035156	7139.157715	3301.009766	31.755613
645.501343	1513.491211	7132.981934	3298.694092	31.768055
645.835327	1509.962524	7123.058105	3302.664063	31.937840
646.169189	1508.529053	7114.456055	3298.363525	31.927540
646.503052	1512.057617	7104.311035	3304.097900	32.045048
646.836914	1513.932251	7088.541504	3308.288330	32.188015
647.170654	1516.578979	7080.492676	3301.782471	32.085392
647.504395	1517.461182	7083.359375	3306.193115	32.137344
647.838074	1520.107666	7085.785156	3302.443848	32.023705
648.171753	1518.563965	7084.130859	3303.987305	32.079811
648.505371	1519.666626	7081.926270	3304.759277	32.092937
648.838928	1519.666626	7087.440430	3298.804199	31.954199
649.172424	1521.982300	7097.144531	3292.960205	31.765495
649.505920	1522.754150	7098.687500	3290.313232	31.699787
649.839294	1523.526245	7092.181641	3288.107910	31.687752
650.172729	1525.070068	7090.195801	3284.799805	31.620663
650.506104	1525.731567	7093.063965	3283.807373	31.578423
650.839355	1524.959595	7090.638184	3282.484375	31.577906
651.172668	1528.157593	7082.256836	3281.050537	31.560347
651.505859	1533.671265	7068.252441	3274.544678	31.454475
651.839111	1538.082153	7056.342773	3274.323975	31.463570
652.172241	1535.876709	7041.786621	3279.066162	31.660332
652.505371	1535.435547	7022.710449	3276.529785	31.729670
652.838379	1536.648560	7007.603516	3267.818359	31.642918
653.171387	1536.758789	6991.062500	3265.392090	31.693016
653.504333	1537.310181	6964.927734	3252.379883	31.598942
653.837280	1534.001953	6946.622559	3242.344971	31.562216
654.170227	1533.781494	6934.712891	3235.728516	31.512100
654.503052	1535.214966	6922.582520	3227.458252	31.411320
654.835876	1537.751221	6907.695801	3226.245117	31.443415
655.168579	1542.713379	6891.927246	3221.172607	31.377680
655.501343	1541.279907	6883.436035	3219.187500	31.408808
655.833984	1544.477783	6877.039551	3224.590820	31.506680
656.166626	1543.044312	6878.804199	3229.333008	31.603535
656.499268	1544.588013	6896.999023	3234.405029	31.571136
656.831787	1545.580444	6924.126465	3245.322266	31.602255
657.164307	1540.287598	6959.083496	3260.760498	31.750095
657.496765	1539.625854	6995.473145	3268.259033	31.684048
657.829224	1541.059448	7031.642090	3277.742676	31.630219
658.161621	1538.302612	7066.819336	3290.203613	31.688446
658.493958	1535.986938	7092.732910	3294.283447	31.642557
658.826233	1532.568604	7112.912109	3303.325928	31.732048
659.158508	1530.032227	7145.002441	3301.892578	31.556005
659.490723	1530.914429	7156.470215	3302.443848	31.490746
659.822876	1531.576050	7165.181641	3308.509033	31.541666
660.154968	1531.245239	7168.710449	3310.162842	31.555273
660.487061	1529.921875	7173.231934	3307.075439	31.491333
660.819153	1531.906860	7170.034180	3308.067627	31.502672
661.151123	1530.473267	7159.007324	3308.398438	31.587711
661.483093	1531.134888	7142.245605	3308.508545	31.675968
661.815002	1528.708740	7124.049805	3306.082520	31.765245
662.146851	1524.077393	7100.892090	3301.230713	31.866817
662.478760	1521.320557	7082.146484	3295.606689	31.906879
662.810486	1519.666504	7055.461426	3284.027832	31.871870
663.142212	1519.004883	7017.968750	3273.331787	31.902863
663.473938	1521.430908	6967.243164	3258.113770	31.890244
663.805603	1521.320557	6898.985352	3242.345215	32.003197
664.137207	1523.967041	6828.961914	3217.092529	31.915684
664.468689	1525.400635	6759.269531	3201.544189	32.024940
664.800293	1526.172607	6684.834961	3183.900635	32.134846
665.131775	1529.921875	6612.826660	3169.455078	32.255833
665.463196	1529.480713	6554.823730	3159.089355	32.427811
665.794617	1531.906860	6497.812500	3142.658447	32.436211
666.125916	1537.530640	6446.314941	3129.536377	32.431774
666.457275	1537.971802	6413.785156	3122.258301	32.492764
666.788574	1536.979370	6383.789551	3115.862549	32.575718
667.119812	1539.295044	6353.906250	3105.937988	32.539345
667.450928	1540.397827	6330.308105	3107.261230	32.711750
667.782104	1540.177368	6313.988281	3106.599609	32.812824
668.113159	1540.397827	6295.461914	3106.709961	32.939877
668.444214	1535.876709	6287.633301	3099.211426	32.900143
668.775208	1536.758789	6277.928711	3094.028564	32.845684
669.106201	1540.067017	6267.453125	3090.830811	32.803829
669.437134	1543.044312	6245.729004	3085.316895	32.795578
669.768005	1546.904053	6219.263184	3083.552490	32.888062
670.098877	1548.999146	6209.559570	3081.236816	32.876682
670.429688	1548.227295	6190.813477	3084.765137	33.096596
670.760437	1550.101929	6188.717773	3080.244385	32.987049
671.091187	1550.542969	6176.477539	3080.354492	33.070324
671.421814	1549.109375	6162.472656	3074.069092	33.055271
671.752441	1546.573120	6143.506836	3072.635498	33.197399
672.083008	1542.934204	6130.383789	3062.600830	33.126610
672.413574	1544.367798	6119.577148	3053.117432	32.976624
672.744080	1539.846558	6102.816406	3046.942139	33.028831
673.074524	1536.758911	6089.362793	3038.892090	32.995033
673.404968	1535.876709	6066.977539	3032.055176	33.020199
673.735352	1536.869019	6040.401855	3018.822510	32.906467
674.065613	1533.560913	6016.141602	3011.655029	32.974178
674.395935	1531.355469	6001.144531	3004.045898	32.947651
674.726196	1528.819214	5980.192871	2998.421875	33.014587
675.056335	1529.150024	5964.313965	2988.497559	32.904026
675.386536	1531.796509	5940.384766	2987.835938	33.027340
675.716614	1528.929443	5925.387695	2982.432373	33.060772
676.046692	1526.503296	5913.808594	2980.668213	33.144833
676.376770	1526.834229	5913.698730	2979.675781	33.117996
676.706726	1523.856812	5920.866699	2979.344971	33.101772
677.036621	1524.518555	5919.323242	2980.227051	33.123394
677.366516	1525.290405	5932.114746	2975.154541	32.900429
677.696411	1521.210327	5936.635254	2976.367676	32.956226
678.026184	1518.343384	5951.631836	2984.748047	33.077129
678.355957	1517.902100	5965.967285	2989.930908	33.093685
678.685669	1519.997314	5992.542969	2992.356689	32.919937
679.015320	1519.666626	6014.707520	2997.319092	32.872948
679.344971	1521.210449	6027.168945	3000.627197	32.832455
679.674561	1522.313232	6048.010254	3006.912842	32.803776
680.004150	1517.240723	6064.110352	3014.742188	32.934780
680.333618	1518.453735	6078.115234	3019.814697	32.927025
680.663086	1517.791992	6094.435059	3026.651611	32.968697
680.992493	1519.997437	6107.778320	3031.503662	32.946350
681.321899	1521.761719	6110.093750	3036.245605	33.007286
681.651184	1523.746704	6108.219238	3035.142578	32.967716
681.980530	1526.393188	6103.146973	3035.914551	32.982357
682.309753	1526.723999	6094.655762	3035.142578	33.021915
682.638977	1527.385498	6081.533691	3034.591064	33.095222
682.968079	1528.929199	6066.426270	3029.408447	33.068436
683.297241	1531.024414	6046.797852	3018.160889	32.932045
683.626343	1532.678589	6027.499512	3012.205811	32.916267
683.955383	1530.803955	5996.403320	3003.935547	32.988438
684.284363	1533.340332	5959.351563	2997.539795	33.081692
684.613281	1533.119751	5924.835938	2985.850586	33.078888
684.942139	1531.355469	5886.681641	2967.986572	32.985615
685.271057	1532.348022	5854.041016	2954.202637	32.900410
685.599792	1529.260376	5815.224121	2942.734131	32.979134
685.928589	1530.363037	5784.348633	2929.611572	32.892651
686.257324	1527.716553	5753.692871	2920.900146	32.967140
686.585999	1528.488525	5724.580566	2907.226318	32.857666
686.914612	1531.024780	5680.582031	2895.978516	32.893963
687.243164	1531.024780	5642.647949	2888.590332	33.017754
687.571777	1531.245117	5601.516602	2885.613037	33.274635
687.900269	1530.363037	5560.385254	2878.555664	33.453728
688.228699	1528.378052	5526.420898	2868.189941	33.511692
688.557129	1530.362915	5496.758301	2860.691406	33.539986
688.885498	1526.393188	5467.314941	2853.523926	33.675640
689.213867	1525.510986	5442.834473	2846.797119	33.729309
689.542114	1524.628906	5421.772461	2837.975342	33.700233
689.870361	1523.636475	5396.079102	2831.579346	33.775654
690.198608	1522.313110	5375.126465	2830.586914	33.956322
690.526794	1522.533813	5343.258301	2819.559570	33.947113
690.854858	1522.313110	5320.982910	2811.950684	33.949715
691.182922	1516.248169	5299.259277	2804.893066	34.063999
691.510986	1516.358398	5276.433105	2801.695068	34.183807
691.838928	1521.320679	5241.477051	2798.166504	34.322372
692.166931	1522.974731	5200.455566	2792.983643	34.534752
692.494812	1526.282837	5167.484375	2786.477783	34.609314
692.822632	1525.841797	5120.288086	2781.846436	34.942924
693.150452	1527.495850	5083.236328	2779.420410	35.208546
693.478149	1525.952148	5042.655762	2776.001953	35.546066
693.805908	1527.826782	5017.734375	2772.363037	35.661007
694.133606	1527.606079	4996.671875	2761.225586	35.560566
694.461243	1529.039673	4976.712402	2751.190918	35.448586
694.788818	1530.583496	4963.038086	2747.110840	35.441906
695.116333	1532.458130	4961.714844	2744.354004	35.339897
695.443848	1532.347900	4954.547363	2745.346191	35.444992
695.771301	1534.663452	4967.780273	2750.198242	35.406158
696.098755	1536.869019	4989.614258	2755.380859	35.291103
696.426147	1538.302612	5020.049316	2764.313232	35.212517
696.753418	1537.751343	5064.489258	2780.082031	35.226059
697.080688	1537.530640	5103.635742	2796.953857	35.316494
697.407898	1537.199829	5152.597168	2815.920898	35.368755
697.735107	1537.310059	5187.553223	2826.286377	35.312069
698.062317	1540.066895	5222.729980	2840.070801	35.300648
698.389404	1541.831421	5252.503906	2849.995117	35.254089
698.716492	1540.949097	5280.292480	2855.619141	35.157780
699.043457	1536.427979	5295.730957	2865.212891	35.346577
699.370483	1534.884155	5303.449219	2868.520752	35.388447
699.697388	1536.207397	5314.476563	2868.851318	35.271282
700.024292	1536.648438	5318.777832	2866.866699	35.171146
700.351135	1538.192261	5310.507324	2865.984619	35.198341
700.677917	1537.309937	5302.567383	2863.889404	35.232105
701.004639	1538.192139	5290.989258	2867.528564	35.422550
701.331299	1538.853760	5274.338379	2864.551025	35.489300
701.658020	1535.876465	5256.915039	2860.140137	35.588551
701.984619	1535.435303	5223.171387	2854.295654	35.763416
702.311218	1537.640747	5193.177246	2845.032471	35.764702
702.637756	1539.074341	5146.642578	2830.917969	35.809261
702.964233	1536.207275	5091.506348	2812.061279	35.885983
703.290649	1532.678711	5023.027344	2801.033936	36.338928
703.617065	1532.237671	4950.688477	2777.876709	36.438702
703.943481	1531.024658	4864.344727	2752.955322	36.658066
704.269775	1528.708862	4791.344238	2732.995850	36.911480
704.596008	1528.267822	4730.583984	2716.124512	37.093674
704.922241	1525.510986	4663.869141	2697.157471	37.333103
705.248474	1526.503418	4603.991211	2676.646729	37.372799
705.574585	1524.959717	4556.352539	2666.391113	37.653694
705.900696	1525.400757	4518.529297	2658.010254	37.840324
706.226746	1526.503540	4489.969238	2648.526855	37.861862
706.552734	1525.621338	4460.085449	2641.028564	38.010593
706.878723	1523.526245	4434.391602	2636.507324	38.235405
707.204651	1522.533813	4421.049316	2629.890869	38.204281
707.530518	1526.282959	4410.683105	2627.244385	38.169510
707.856323	1523.526123	4401.089844	2621.510254	38.156727
708.182068	1521.761719	4400.096680	2622.061279	38.226948
708.507813	1526.282837	4397.781250	2622.281738	38.168186
708.833496	1525.841797	4395.465332	2622.833496	38.227722
709.159180	1522.092407	4407.264648	2626.913574	38.293072
709.484802	1519.335693	4415.645020	2635.294189	38.530361
709.810303	1521.982178	4421.489746	2646.431885	38.780712
710.135864	1522.643799	4431.855469	2648.196289	38.689262
710.461304	1523.415771	4434.281738	2656.466797	38.924877
710.786743	1522.754150	4447.514648	2663.965332	39.018963
711.112122	1522.974731	4447.183594	2662.200928	38.958439
711.437500	1524.739136	4451.043457	2667.935303	39.066212
711.762817	1526.723999	4454.351074	2672.456299	39.135189
712.088013	1525.952148	4456.335938	2680.285645	39.391888
712.413269	1532.017090	4455.343262	2680.506104	39.287064
712.738403	1533.009521	4461.628906	2679.513672	39.148281
713.063538	1530.142578	4457.989746	2683.152832	39.380821
713.388611	1526.282959	4458.431152	2686.350586	39.563744
713.713623	1523.085083	4456.666992	2687.122314	39.679722
714.038574	1522.533691	4455.343750	2687.673828	39.727772
714.363525	1517.571411	4444.757813	2688.004639	39.984921
714.688477	1518.784424	4438.692871	2687.783936	40.035484
715.013306	1518.233032	4424.467285	2682.380859	40.056915
715.338135	1517.240479	4405.832031	2675.102539	40.083965
715.662842	1516.799438	4392.268066	2670.140137	40.109657
715.987549	1514.704346	4365.250977	2663.854980	40.313343
716.312195	1515.586548	4337.020996	2653.930420	40.346279
716.636841	1510.072876	4309.893555	2640.477051	40.374161
716.961426	1512.940063	4277.473633	2632.647705	40.502586
717.285950	1510.624390	4246.596680	2620.738525	40.574760
717.610474	1510.513916	4219.910645	2608.939209	40.541325
717.934937	1511.616699	4188.042480	2602.764160	40.768829
718.259277	1510.293579	4158.048828	2589.751953	40.768810
718.583679	1511.065308	4126.400391	2580.819580	40.903145
718.908020	1511.506470	4098.060059	2575.747314	41.145130
719.232239	1507.205811	4065.860107	2565.932861	41.378277
719.556519	1505.882568	4031.344971	2557.552002	41.642647
719.880737	1508.529053	4001.350830	2547.186523	41.665936
720.204834	1513.270752	3963.527588	2538.144043	41.827179
720.528931	1516.248047	3929.343262	2529.542480	41.991482
720.852966	1519.335693	3900.341797	2523.367676	42.168392
721.176941	1523.305542	3871.340088	2516.861328	42.314358
721.500916	1525.069824	3841.566650	2510.686035	42.547703
721.824829	1525.510986	3815.542480	2503.408203	42.702347
722.148743	1523.967041	3794.039063	2501.423096	43.058372
722.472534	1524.849243	3771.322266	2500.210205	43.417431
722.796326	1528.047241	3750.590820	2489.293213	43.249817
723.119995	1527.716553	3727.654297	2489.293213	43.709267
723.443665	1531.796631	3714.201172	2489.403564	43.878525
723.767334	1531.686279	3707.695801	2483.228516	43.728771
724.090942	1534.774048	3705.820801	2480.030518	43.539200
724.414551	1535.435547	3699.424561	2478.927979	43.599686
724.737976	1536.207520	3699.755615	2478.376465	43.547401
725.061462	1539.405396	3692.477783	2480.582031	43.713192
725.384888	1539.405518	3692.257324	2483.448975	43.850834
725.708252	1540.949341	3693.801270	2482.566895	43.738144
726.031616	1539.736206	3705.379883	2484.110596	43.607101
726.354858	1541.390381	3719.053223	2485.544189	43.356289
726.678162	1537.751343	3719.604980	2492.711914	43.768318
727.001404	1536.317749	3735.263428	2497.012695	43.688889
727.324463	1538.964355	3741.769775	2500.541260	43.652374
727.647583	1536.758911	3746.511230	2504.621582	43.799599
727.970642	1536.648682	3750.922363	2509.914551	43.954182
728.293701	1536.758789	3754.451172	2517.192627	44.209641
728.616699	1534.002075	3762.831543	2525.683594	44.493374
728.939575	1531.465820	3774.961670	2532.740967	44.630131
729.262512	1528.929443	3786.760742	2536.490479	44.625168
729.585266	1530.473267	3800.875732	2547.738037	44.805485
729.908142	1531.796631	3818.629883	2547.517334	44.416039
730.230896	1532.678711	3826.128418	2553.582520	44.513897
730.553467	1533.450562	3835.611572	2562.293945	44.690331
730.876160	1534.773926	3837.927002	2570.343750	44.963135
731.198792	1536.097290	3846.527832	2577.290771	45.064911
731.521362	1536.758911	3854.026855	2585.781982	45.269821
731.843872	1535.656128	3861.084473	2592.729248	45.457138
732.166321	1532.678711	3866.487793	2595.596191	45.544319
732.488770	1532.017212	3865.495117	2596.809082	45.631107
732.811157	1530.032227	3856.783447	2603.645996	46.142181
733.133484	1528.378174	3843.440918	2608.498047	46.656181
733.455811	1530.693848	3832.854248	2606.182373	46.716488
733.778015	1531.576172	3824.032715	2607.946533	46.952705
734.100281	1528.157593	3820.725098	2606.954102	47.056263
734.422424	1527.385742	3806.279053	2606.071777	47.333767
734.744507	1525.511108	3792.605713	2599.675781	47.380669
735.066589	1524.077515	3784.444824	2598.021973	47.511948
735.388611	1525.511108	3774.409912	2593.169922	47.474735
735.710571	1528.598755	3754.340820	2589.531006	47.666447
736.032532	1531.576172	3740.666748	2587.876953	47.816093
736.354431	1531.024780	3725.558838	2581.591309	47.871960
736.676270	1527.165161	3713.097900	2582.032471	48.257084
736.998108	1525.070068	3704.386475	2581.812012	48.489605
737.319824	1523.967407	3695.013428	2578.503906	48.572742
737.641541	1519.225586	3684.647949	2581.370850	49.050259
737.963135	1520.107788	3675.936768	2580.599121	49.191811
738.284790	1520.218018	3657.190430	2575.747314	49.393681
738.606323	1518.894775	3644.950439	2568.800293	49.382786
738.927856	1519.776978	3628.299072	2571.887939	49.898033
739.249390	1520.659180	3611.537598	2568.028076	50.092289
739.570740	1524.518677	3597.863770	2564.058350	50.138283
739.892212	1525.731567	3585.733643	2557.442139	50.082989
740.213562	1527.385620	3582.977051	2558.213867	50.147530
740.534790	1527.054810	3572.390625	2553.251709	50.172539
740.856079	1529.701416	3558.496582	2553.913330	50.483753
741.177246	1532.458130	3555.850098	2553.251709	50.449619
741.498413	1534.222534	3552.652588	2553.031006	50.475292
741.819580	1531.245117	3538.096436	2548.399658	50.684101
742.140625	1531.796509	3528.392578	2546.524902	50.822918
742.461670	1531.796509	3519.239502	2543.326904	50.896072
742.782654	1530.032104	3500.052002	2539.136475	51.223053
743.103577	1527.275146	3486.708984	2539.908203	51.679878
743.424438	1528.488159	3469.396484	2536.379395	51.928844
743.745300	1528.929443	3453.737305	2526.234375	51.813221
744.066101	1529.260132	3436.093750	2524.139404	52.174416
744.386902	1534.442871	3418.780762	2516.530762	52.118462
744.707581	1532.899048	3395.182617	2513.222412	52.640930
745.028198	1531.906616	3382.722168	2511.678955	52.937328
745.348816	1530.693726	3369.268555	2509.032227	53.211784
745.669373	1530.583374	3360.998535	2500.872314	53.009228
745.989929	1529.921753	3352.176758	2501.202881	53.301056
746.310364	1530.804077	3345.119141	2501.644043	53.509998
746.630798	1530.583496	3336.958740	2500.651367	53.702457
746.951172	1528.378052	3327.034180	2497.895020	53.902298
747.271545	1526.393066	3320.858887	2505.172852	54.544353
747.591858	1525.621216	3316.999268	2506.275391	54.743004
747.912109	1525.621216	3315.676025	2508.039795	54.882038
748.232300	1522.533569	3319.976563	2510.796387	54.981594
748.552429	1526.834229	3321.961426	2510.465576	54.794521
748.872559	1528.267822	3316.889160	2515.427979	55.191120
749.192627	1528.488403	3319.645752	2515.648438	55.112972
749.512695	1530.362915	3321.299805	2514.766357	54.965836
749.832642	1533.781494	3316.337891	2514.545654	55.020092
750.152588	1536.538208	3315.455322	2516.199707	55.070667
750.472473	1537.310181	3308.948975	2521.934326	55.577026
750.792358	1538.854126	3300.789551	2520.280029	55.701580
751.112122	1539.515747	3296.157715	2516.420654	55.612068
751.431824	1540.397827	3291.968018	2514.435547	55.609402
751.751587	1542.162109	3293.952393	2513.663574	55.457634
752.071228	1546.021606	3284.909912	2517.412842	55.862774
752.390869	1547.786133	3282.925537	2520.941895	56.085163
752.710327	1550.542847	3281.712402	2518.515625	55.914383
753.029846	1546.793579	3276.198730	2517.743652	56.143585
753.349304	1546.793579	3271.787598	2519.177246	56.370262
753.668762	1546.793579	3271.125732	2515.207520	56.161682
753.988098	1547.786011	3263.627197	2506.165283	55.854778
754.307434	1547.786011	3258.113770	2503.408203	55.873631
754.626770	1548.006470	3243.006348	2499.548828	56.138195
754.946045	1548.557861	3226.465820	2494.255859	56.361732
755.265259	1546.462646	3212.791748	2494.586426	56.898952
755.584351	1544.698242	3212.901855	2492.491455	56.815201
755.903442	1543.816162	3206.836670	2488.852783	56.826515
756.222534	1541.059204	3204.521484	2491.830078	57.156143
756.541565	1536.097046	3203.859863	2490.065430	57.200481
756.860535	1534.553223	3199.559082	2486.977783	57.202477
757.179443	1535.104614	3201.985107	2482.015625	56.807373
757.498291	1532.237549	3200.220703	2479.368652	56.783012
757.817139	1529.260254	3202.977295	2475.729492	56.548939
758.135925	1529.811523	3206.947510	2470.988037	56.118080
758.454651	1529.370483	3203.639160	2463.710205	55.805840
758.773376	1526.944580	3206.837158	2453.344238	55.146362
759.092041	1526.282959	3200.110596	2441.655273	54.687370
759.410645	1522.864502	3200.110596	2438.126709	54.569344
759.729187	1524.628784	3204.411133	2427.981689	53.777973
760.047607	1525.841797	3205.844971	2423.570801	53.436150
760.366089	1527.716431	3206.396240	2420.813965	53.202374
760.684509	1528.047119	3214.887207	2420.042236	52.879650
761.002869	1528.157471	3226.245117	2416.072266	52.289104
761.321228	1526.834229	3258.114258	2419.049805	51.535023
761.639465	1523.415771	3301.450928	2427.761475	50.862083
761.957642	1524.628784	3355.594971	2434.708740	49.704903
762.275879	1524.297974	3392.095215	2446.287354	49.362392
762.593994	1528.047241	3424.294678	2456.542725	48.964890
762.912109	1529.811646	3457.266357	2459.299561	48.223595
763.230103	1533.781494	3481.416016	2461.615234	47.639008
763.548157	1530.914429	3510.197266	2464.482178	47.166969
763.866150	1530.142578	3521.555176	2470.547363	47.223000
764.184021	1533.671265	3534.346680	2477.714844	47.186245
764.501892	1533.561157	3543.609863	2485.433838	47.355701
764.819702	1535.545898	3548.902832	2490.726807	47.442204
765.137451	1534.443115	3551.218262	2490.506348	47.405544
765.455200	1535.215088	3557.062988	2499.438232	47.690193
765.772888	1536.317749	3558.386230	2507.377930	48.023109
766.090515	1535.215088	3556.290527	2509.914063	48.226749
766.408081	1536.758789	3554.195313	2520.720703	48.772881
766.725586	1537.310181	3549.674805	2524.690674	49.065685
767.043091	1536.207397	3542.837891	2528.660645	49.458694
767.360535	1533.671143	3533.905518	2527.447754	49.683010
767.677917	1533.560791	3512.953613	2531.417480	50.412262
767.995239	1531.686157	3482.959473	2526.124512	50.963562
768.312500	1535.104614	3428.705322	2518.405518	51.927574
768.629822	1532.678711	3368.716797	2506.496338	53.039074
768.947021	1531.576050	3315.345703	2489.072998	53.678284
769.264160	1528.378174	3279.175537	2481.684570	54.449841
769.581299	1528.488281	3238.375000	2477.714600	55.513988
769.898376	1523.856812	3201.103027	2473.524170	56.620628
770.215393	1529.260132	3163.059082	2467.569336	57.431129
770.532349	1530.252563	3136.483643	2459.960693	57.881344
770.849304	1527.495850	3109.136230	2455.660156	58.683651
771.166199	1529.590942	3082.450195	2452.903564	59.458874
771.483032	1529.921753	3060.395264	2450.918457	60.177238
771.799866	1530.031982	3043.634033	2453.895752	61.037430
772.116577	1529.590942	3022.461670	2450.256836	61.670837
772.433350	1529.591064	3013.529541	2445.515137	61.722511
772.749939	1528.929443	2994.341797	2444.853271	62.502804
773.066589	1530.583374	2978.242188	2439.009033	62.751366
773.383057	1531.245117	2968.758545	2435.259766	62.887386
773.699646	1533.671021	2958.282959	2431.290039	63.007965
774.016113	1537.089478	2946.924561	2431.290039	63.425900
774.332520	1537.971680	2943.947266	2428.202393	63.317650
774.648804	1539.625610	2932.699463	2426.437988	63.658676
774.965149	1537.751099	2931.486328	2426.107422	63.739246
775.281433	1539.956543	2928.178223	2426.989502	63.897068
775.597656	1539.846313	2922.885010	2426.769043	64.128555
775.913879	1540.838867	2908.549561	2421.806641	64.411850
776.229980	1539.625854	2895.647949	2416.733887	64.682426
776.546082	1542.603149	2887.598145	2417.285400	65.032379
776.862122	1539.515503	2881.974121	2418.939453	65.508461
777.178162	1536.979248	2869.513428	2417.947021	66.112206
777.494141	1540.728516	2869.292725	2416.072266	65.886444
777.809998	1537.971680	2867.638672	2414.528564	65.923042
778.125854	1533.340332	2864.220215	2413.756592	66.152946
778.441711	1534.332642	2860.581299	2410.228027	66.043076
778.757446	1531.796509	2852.420898	2405.486572	66.157349
779.073181	1534.112183	2842.276123	2405.817383	66.635780
779.388855	1534.222412	2846.466309	2404.714600	66.336159
779.704468	1531.465576	2844.040283	2401.847412	66.311035
780.020020	1532.568359	2835.549561	2400.965332	66.646927
780.335571	1528.488403	2833.233887	2396.885254	66.556801
780.651062	1527.385620	2824.853271	2391.481689	66.598663
780.966553	1523.856934	2813.605225	2387.953125	66.997276
781.281860	1524.298096	2804.231934	2384.644775	67.218056
781.597290	1525.511108	2792.984131	2378.910645	67.330788
781.912476	1522.754272	2783.169922	2376.043457	67.699028
782.227722	1523.746704	2773.355713	2367.662842	67.534416
782.542908	1521.651611	2765.857178	2365.016113	67.783371
782.858093	1520.769409	2761.225586	2359.392334	67.606010
783.173218	1522.313232	2755.491455	2351.893555	67.271729
783.488281	1521.982422	2742.258789	2345.166748	67.458847
783.803345	1523.305664	2738.840332	2338.330078	67.050690
784.118225	1517.902100	2726.930908	2335.683350	67.639519
784.433167	1519.335693	2714.801025	2329.287598	67.752022
784.748047	1521.761719	2708.625732	2321.678711	67.397530
785.062866	1518.674072	2699.252441	2320.135010	67.887146
785.377686	1521.210327	2698.039551	2318.040283	67.709908
785.692444	1517.791870	2690.100098	2313.408936	67.867569
786.007141	1519.114990	2681.057861	2308.115723	67.903572
786.321716	1519.666504	2675.654297	2307.233398	68.129341
786.636353	1516.358276	2677.639160	2305.689453	67.970734
786.950928	1516.137695	2676.205566	2310.431152	68.469566
787.265442	1519.115112	2677.087891	2315.944580	68.812454
787.579834	1520.659058	2684.365967	2313.849365	68.160660
787.894226	1519.776978	2687.784424	2317.267822	68.277893
788.208618	1517.681885	2688.776611	2319.694092	68.483971
788.522949	1519.887207	2689.327881	2319.142822	68.345116
788.837219	1519.556396	2690.871582	2324.215332	68.697044
789.151367	1519.887329	2689.438232	2324.987549	68.838409
789.465515	1520.218140	2688.004639	2325.097900	68.923538
789.779602	1521.100220	2684.806641	2321.568848	68.786133
790.093689	1523.967407	2684.475830	2321.789551	68.747643
790.407776	1522.644043	2679.623779	2325.318359	69.376694
790.721741	1523.636475	2679.403076	2316.055420	68.562195
791.035645	1523.415771	2679.072266	2312.416260	68.272926
791.349548	1525.510986	2671.573730	2308.115967	68.286400
791.663391	1529.921875	2665.619141	2303.594727	68.123161
791.977173	1531.134888	2654.701904	2297.860596	68.240318
792.290894	1533.560791	2648.195801	2294.442139	68.262825
792.604614	1532.899170	2638.381592	2291.023682	68.578613
792.918274	1532.127319	2627.244141	2284.297119	68.683975
793.231812	1534.112305	2614.783447	2275.585449	68.612282
793.545410	1535.876587	2603.315186	2266.983887	68.491745
793.858948	1531.796387	2591.957275	2262.132080	68.889137
794.172363	1531.575928	2579.827148	2256.397705	69.145805
794.485840	1531.906738	2572.990234	2248.899170	68.869827
794.799194	1533.009521	2566.925293	2245.811279	68.941956
795.112488	1534.442871	2563.065674	2240.187500	68.610634
795.425781	1536.427856	2558.434326	2237.099609	68.558449
795.738953	1536.538086	2551.928223	2235.115234	68.798889
796.052185	1540.177124	2545.752930	2232.578613	68.856216
796.365234	1536.868896	2541.672852	2234.563721	69.435913
796.678284	1533.671143	2542.995850	2233.130127	69.299698
796.991333	1533.671021	2542.113770	2229.160400	68.966667
797.304382	1533.009521	2535.828369	2233.571289	69.859253
797.617310	1534.553345	2533.402588	2231.034912	69.728394
797.930115	1532.678711	2533.733154	2233.791748	70.037453
798.242981	1527.054810	2533.402588	2234.784180	70.326523
798.555786	1524.849365	2534.505127	2232.578613	70.096092
798.868530	1521.430908	2532.189697	2229.160400	70.019623
799.181213	1523.084961	2532.300293	2228.277832	69.875366
799.493896	1520.879517	2529.984619	2227.175293	69.992294
799.806519	1518.343262	2528.661377	2226.734131	70.115623
800.119080	1519.004883	2524.360596	2224.197998	70.143639
800.431580	1520.989868	2521.603516	2216.589355	69.517288
800.744080	1523.526123	2519.287842	2212.398926	69.180489
801.056458	1525.180298	2511.678955	2207.437012	69.159416
801.368835	1527.716309	2504.952393	2202.033203	69.002457
801.681152	1525.731567	2493.814697	2200.930664	69.745987
801.993408	1522.423218	2482.677002	2197.622314	70.314651
802.305664	1521.982178	2479.148193	2191.998779	70.000038
802.617798	1516.909668	2470.877930	2191.778076	70.743279
802.929993	1518.673950	2462.607422	2189.021240	71.016373
803.242065	1518.012329	2452.241943	2184.610352	71.352699
803.554016	1519.886963	2452.241699	2178.986328	70.691910
803.865967	1521.541138	2451.249512	2176.560547	70.454285
804.177979	1520.438477	2448.823730	2175.788574	70.590317
804.489807	1519.887207	2439.670898	2171.928955	70.890770
804.801697	1522.202881	2436.583252	2170.716064	70.923790
805.113464	1522.974854	2436.031738	2175.237061	71.437195
805.425232	1525.952148	2434.598145	2179.096436	71.881050
805.736938	1523.526123	2427.981689	2175.347168	72.067780
806.048584	1525.400879	2424.673584	2174.575439	72.188843
806.360168	1529.150146	2425.004395	2174.575439	72.045792
806.671753	1527.937134	2423.239990	2176.009033	72.385773
806.983276	1526.172729	2419.160156	2174.685791	72.622864
807.294739	1525.290405	2412.654053	2178.214355	73.580200
807.606140	1521.431030	2407.360840	2175.898926	73.873558
807.917542	1521.541260	2403.611816	2174.244873	73.996758
808.228760	1522.864624	2400.524170	2170.716064	73.815804
808.540100	1523.526245	2402.068115	2166.635986	73.201942
808.851318	1523.967407	2397.877686	2164.320313	73.274445
809.162476	1525.952148	2394.900146	2159.909424	72.956871
809.473633	1524.849487	2395.230957	2159.358154	72.900063
809.784668	1525.731689	2395.010498	2154.726563	72.358246
810.095703	1526.503540	2388.614502	2155.608887	72.972664
810.406738	1527.165161	2381.226074	2149.323242	72.847038
810.717590	1526.282959	2371.742676	2144.471436	73.118622
811.028503	1521.761841	2368.103760	2141.052734	73.172661
811.339294	1521.761841	2361.046387	2136.862549	73.288696
811.650085	1522.423462	2352.776123	2129.033203	73.054474
811.960876	1523.085083	2351.121826	2122.416748	72.379837
812.271545	1523.415894	2351.232178	2117.123535	71.719734
812.582153	1522.202881	2341.197266	2115.689941	72.465340
812.892761	1516.689209	2333.809326	2111.168701	72.753014
813.203308	1519.556396	2328.626221	2105.213623	72.386490
813.513855	1520.218018	2325.428467	2103.449463	72.432175
813.824280	1516.248291	2323.884766	2097.935791	72.023430
814.134705	1519.446045	2318.701904	2095.840820	72.116425
814.445068	1518.233032	2317.819580	2089.885986	71.493568
814.755371	1517.350952	2321.458740	2086.136963	70.735046
815.065613	1516.689209	2320.466064	2085.033936	70.709267
815.375854	1513.932373	2315.172852	2081.395020	70.823013
815.686035	1514.263184	2316.496094	2078.197266	70.295555
815.996155	1515.255737	2312.085205	2073.345459	70.038788
816.306152	1518.674194	2304.807373	2070.147461	70.150108
816.616211	1516.579102	2302.822266	2066.729004	69.971977
816.926208	1518.674316	2306.020508	2068.713867	69.859940
817.236145	1520.659058	2308.997803	2070.698730	69.771996
817.546021	1525.841797	2317.157959	2074.778809	69.370125
817.855774	1526.503540	2324.105225	2074.558105	68.712814
818.165588	1525.400879	2339.763916	2084.592773	68.666168
818.475281	1524.629028	2349.908936	2093.083984	68.880264
818.784973	1525.290527	2366.339600	2106.316895	69.083527
819.094604	1526.062500	2396.885010	2113.484619	67.456009
819.404175	1527.275513	2419.821533	2126.937988	67.185608
819.713684	1526.172729	2456.762939	2146.235596	66.631142
820.023254	1524.298096	2534.284180	2175.788574	64.504898
820.332642	1524.187866	2684.475342	2223.977539	60.311749
820.642090	1523.636475	2922.443848	2309.218262	56.160828
820.951416	1522.974854	3194.376465	2413.425781	53.275700
821.260681	1523.967285	3454.178467	2514.766113	51.331112
821.569946	1525.400879	3665.019775	2598.463623	50.152050
821.879150	1529.150024	3838.809082	2663.855225	49.128685
822.188293	1528.929443	3977.311768	2719.101807	48.610561
822.497437	1528.708862	4100.045410	2765.195801	48.087326
822.806458	1526.613647	4208.553711	2805.004150	47.666634
823.115479	1529.480835	4293.243164	2843.048096	47.528229
823.424438	1529.370483	4370.543945	2869.403564	47.164776
823.733337	1527.165039	4440.566895	2893.994141	46.915226
824.042236	1525.952148	4501.988770	2913.402100	46.620728
824.351013	1526.944458	4551.832031	2931.376465	46.429230
824.659790	1526.944458	4587.119141	2940.198486	46.182133
824.968445	1522.202881	4637.402832	2955.195557	46.000023
825.277100	1523.195313	4701.140625	2972.839111	45.615757
825.585693	1521.871826	4773.699707	2996.878418	45.359306
825.894287	1523.084961	4851.772949	3018.381836	44.921509
826.202820	1521.100098	4899.300781	3035.473877	44.827820
826.511292	1524.959595	4891.250977	3035.363281	44.868477
826.819702	1528.488281	4792.556641	3010.883057	45.415554
827.128113	1529.260376	4605.093750	2943.947510	45.993618
827.436401	1532.678711	4370.654297	2851.428467	46.467976
827.744751	1533.230103	4138.199707	2762.548828	47.191288
828.052917	1533.340210	3952.059082	2687.343262	47.711338
828.361145	1528.819092	3805.065918	2631.655518	48.449772
828.669312	1527.054688	3683.545410	2580.378662	48.844353
828.977356	1525.400635	3573.272705	2538.916260	49.491158
829.285400	1525.841675	3477.335938	2505.393311	50.194954
829.593384	1523.856812	3398.711426	2472.752686	50.611706
829.901306	1522.312988	3322.182373	2446.066650	51.323372
830.209167	1524.849243	3253.482178	2423.350342	51.977554
830.517029	1525.731323	3192.501465	2400.965088	52.510765
830.824829	1524.518311	3135.821533	2383.982910	53.339718
831.132568	1527.606079	3096.564453	2371.632324	53.795322
831.440247	1530.252563	3047.713623	2353.547852	54.254787
831.747925	1528.157471	2990.372070	2332.044678	54.977375
832.055481	1528.488159	2934.133301	2307.564209	55.424805
832.363037	1530.693604	2880.430176	2295.985596	56.699360
832.670532	1532.678589	2841.614502	2278.011230	56.941875
832.977966	1532.568359	2810.517578	2267.535645	57.511463
833.285400	1533.009521	2791.440674	2257.390381	57.562218
833.592712	1533.009399	2771.150391	2253.971924	58.229435
833.900085	1531.355347	2757.917725	2249.119629	58.518368
834.207275	1529.811523	2743.692627	2243.385498	58.784504
834.514526	1529.811523	2728.254395	2238.533447	59.136898
834.821716	1531.465576	2712.705811	2232.248047	59.325989
835.128784	1532.678711	2701.347900	2231.476074	59.794285
835.435852	1535.986816	2698.260254	2230.263184	59.734341
835.742798	1532.568359	2687.894531	2228.388672	60.227173
836.049805	1535.545776	2679.734131	2221.992920	59.994244
836.356750	1536.207520	2666.501465	2218.574463	60.370750
836.663574	1530.031982	2653.048096	2216.479248	61.125328
836.970398	1527.495850	2640.036133	2216.038086	61.889194
837.277161	1529.039673	2629.339355	2213.832520	62.236938
837.583923	1527.385498	2611.916504	2204.239014	62.409790
837.890564	1527.937012	2592.287842	2198.615234	63.012890
838.197205	1528.267822	2561.301270	2189.903564	64.047852
838.503784	1532.237671	2521.272217	2179.868652	65.481125
838.810303	1530.693970	2469.223633	2157.924316	66.831169
839.116699	1530.252808	2421.255127	2139.287842	68.353920
839.423096	1531.024658	2384.203613	2115.910156	68.553673
839.729492	1529.591064	2343.182373	2102.457031	70.412010
840.035828	1528.929443	2307.123535	2085.916016	71.574249
840.342102	1526.723999	2272.056641	2078.858643	74.078957
840.648315	1525.952148	2245.150391	2072.021729	75.927544
840.954529	1526.613892	2223.205811	2066.067383	77.441826
841.260620	1527.606201	2202.033203	2063.751709	79.496445
841.566711	1527.385620	2181.963867	2060.112549	81.384758
841.872803	1526.944458	2162.004395	2053.275635	82.878975
842.178772	1525.731445	2151.308105	2047.761963	83.447891
842.484680	1522.974609	2137.193115	2045.777100	85.116692
842.790588	1521.872070	2127.158203	2043.792236	86.227013
843.096436	1525.841675	2118.667236	2035.080566	85.900291
843.402222	1526.944458	2110.837891	2026.479126	85.552368
843.707947	1523.415771	2102.346924	2019.421875	85.676178
844.013611	1522.423218	2091.429932	2019.311523	87.325562
844.319275	1526.172485	2078.527832	2010.930786	87.762039
844.624817	1527.936890	2068.162598	2008.615356	88.977341
844.930359	1527.826538	2049.857422	2004.425049	91.296997
845.235901	1526.613647	2036.955566	1993.948853	91.572960
845.541321	1525.841797	2020.855713	1985.347656	92.826859
845.846680	1525.510864	2005.638062	1982.921631	95.268661
846.152039	1528.047119	1993.287598	1976.967041	96.492020
846.457275	1528.378052	1981.929443	1974.430786	98.346680
846.762512	1530.032104	1968.806885	1970.130005	100.301552
847.067749	1533.891602	1959.543945	1963.623901	100.958519
847.372925	1534.332764	1948.736938	1958.110107	102.261841
847.677979	1535.325317	1941.789795	1951.383545	102.360291
847.983032	1537.861572	1936.937866	1943.885010	101.740807
848.288025	1535.656006	1930.211548	1940.907715	102.710938
848.592957	1541.390259	1925.138916	1939.694580	103.793022
848.897888	1539.956665	1923.926025	1937.930420	103.647270
849.202759	1540.618286	1920.617798	1934.512085	103.656395
849.507507	1541.831299	1917.199463	1936.717041	105.199585
849.812317	1539.295044	1913.560303	1937.930054	106.511360
850.117004	1541.169678	1907.936401	1938.812500	108.418457
850.421631	1541.941650	1902.863892	1937.819946	109.685204
850.726257	1541.390137	1901.540527	1938.812500	110.348999
851.030823	1540.397827	1898.673584	1936.055664	110.433884
851.335327	1539.736084	1893.821411	1933.960327	111.335945
851.639771	1540.177246	1885.881836	1937.047974	114.800537
851.944153	1540.177124	1881.470825	1940.356567	117.253685
852.248535	1538.964233	1874.854492	1936.827515	118.450378
852.552856	1535.325317	1873.641602	1935.724854	118.350655
852.857056	1534.663696	1873.089844	1934.071045	118.019058
853.161255	1537.861572	1875.515991	1934.181152	117.374321
853.465393	1536.317749	1874.192505	1932.857910	117.363060
853.769531	1532.568359	1873.310669	1930.321655	116.731407
854.073547	1527.165039	1870.884644	1927.234009	116.393990
854.377563	1524.408203	1868.458496	1931.975830	118.461639
854.681580	1520.548828	1865.150269	1931.314209	119.200134
854.985474	1517.681519	1855.446411	1931.314209	122.461716
855.289307	1517.571289	1853.020264	1931.203857	123.307152
855.593140	1517.791870	1852.910156	1928.447021	122.540359
855.896851	1516.137817	1852.469116	1927.564941	122.327934
856.200623	1517.902100	1850.153687	1924.366943	122.336464
856.504272	1518.453613	1852.800049	1923.595093	121.174156
856.807922	1515.917358	1854.454102	1921.499756	119.804543
857.111389	1513.711914	1852.579468	1923.264282	120.859131
857.414978	1516.248169	1844.419312	1923.925781	124.227135
857.718445	1516.358398	1844.419434	1924.587402	124.436905
858.021790	1517.350952	1843.978394	1919.294067	123.058586
858.325195	1517.681763	1841.993530	1915.324463	122.611244
858.628479	1515.917358	1841.000977	1917.199463	123.439659
858.931763	1516.468750	1837.141357	1916.758057	124.828033
859.234985	1515.476318	1831.297119	1917.750366	127.374146
859.538147	1512.609131	1827.547607	1915.214233	127.836113
859.841248	1511.065308	1827.988647	1915.655518	127.661850
860.144287	1514.924927	1826.996094	1917.199463	128.904739
860.447266	1520.989990	1828.098755	1917.530273	129.120468
860.750305	1525.180298	1825.121460	1913.670776	129.522232
861.053223	1529.150146	1825.011353	1914.001465	130.078323
861.356018	1530.804199	1831.076294	1915.655518	128.167526
861.658813	1531.245239	1826.555054	1913.780884	129.537064
861.961609	1528.378296	1823.247070	1911.906250	130.067337
862.264343	1529.370605	1821.813599	1910.472656	130.316696
862.567017	1529.701416	1819.718384	1911.024048	131.482864
862.869629	1529.480957	1819.608032	1911.465210	131.661011
863.172180	1532.017212	1819.497803	1908.928955	131.108582
863.474670	1527.385742	1816.961304	1907.274536	131.188141
863.777161	1522.643921	1821.151733	1904.076660	127.779816
864.079590	1521.541138	1821.151733	1901.650513	126.867798
864.381958	1521.982300	1821.703369	1906.061523	128.145554
864.684265	1520.107666	1823.688110	1906.723267	127.351944
864.986511	1518.784302	1824.680420	1904.958740	126.243652
865.288757	1520.217896	1824.901001	1904.407349	126.094765
865.590942	1520.438477	1827.106445	1903.525269	124.919075
865.893066	1519.556396	1829.532593	1903.194702	123.763794
866.195068	1517.791992	1828.429932	1903.304932	124.103622
866.497131	1518.894775	1829.311890	1901.540527	123.268250
866.799133	1514.263062	1824.459961	1901.981567	124.991096
867.100952	1509.852295	1821.703125	1901.320068	125.530457
867.402832	1512.939819	1822.364746	1900.768799	125.338638
867.704651	1513.491211	1821.372192	1901.209839	125.931335
868.006409	1515.696533	1822.364624	1899.996826	125.314728
868.308105	1519.335571	1826.775635	1901.320068	124.246819
868.609802	1517.681519	1830.524902	1898.342773	121.677902
868.911438	1515.696655	1832.620361	1898.894165	120.911598
869.213013	1517.571411	1829.863281	1897.240112	121.574959
869.514465	1518.343384	1829.311768	1898.342773	122.198723
869.815979	1522.423340	1833.281616	1894.483032	119.687881
870.117371	1526.834351	1834.825562	1895.034424	119.548889
870.418701	1529.370605	1835.487183	1895.365112	119.560501
870.720093	1530.914429	1839.015991	1892.829102	117.466026
871.021301	1533.671265	1839.787964	1893.931763	117.687309
871.322571	1535.656128	1838.133911	1897.791138	119.722847
871.623718	1534.553467	1840.339233	1900.658081	119.725853
871.924805	1534.222656	1845.191406	1899.996704	117.624054
872.225891	1536.207397	1847.837769	1902.643066	117.586639
872.526917	1541.279907	1846.845459	1903.415161	118.513115
872.827881	1541.831299	1848.389282	1903.304932	117.913628
873.128784	1544.808594	1851.476807	1906.723022	118.014977
873.429626	1546.462646	1858.203491	1909.369751	116.413078
873.730408	1542.603149	1858.313599	1912.898682	117.289604
874.031189	1541.279907	1857.651978	1909.259644	116.312332
874.331848	1539.956543	1858.534180	1909.039063	115.853241
874.632568	1537.530640	1857.431396	1913.890991	117.649094
874.933167	1537.640869	1854.123169	1916.647705	119.756096
875.233704	1539.956665	1853.130737	1914.662720	119.647850
875.534241	1538.082031	1853.902710	1915.434937	119.483276
875.834717	1537.751221	1853.351318	1916.978638	120.160744
876.135071	1536.427979	1851.256104	1918.632813	121.401108
876.435425	1533.450684	1851.035767	1922.382202	122.465302
876.735779	1531.355469	1852.579468	1923.374634	122.039192
877.036011	1528.488403	1853.240845	1922.933838	121.460342
877.336182	1526.172729	1851.586914	1921.169312	121.382721
877.636353	1526.944580	1856.659424	1920.617798	119.398087
877.936462	1525.841797	1863.276001	1919.184204	116.568626
878.236511	1527.937012	1868.348633	1922.602539	115.937737
878.536560	1527.165161	1875.295776	1927.344360	114.950874
878.836487	1523.415771	1889.961914	1930.541992	111.070930
879.136414	1521.431030	1918.963745	1940.576782	105.436798
879.436279	1522.313232	1970.460938	1952.927246	96.087517
879.736084	1522.313110	2053.055176	1976.746338	85.622238
880.035828	1522.864502	2156.711426	2015.121460	77.661804
880.335510	1523.967285	2274.923584	2056.473633	70.910431
880.635193	1523.305664	2391.922607	2102.016113	66.624359
880.934753	1524.518555	2499.879639	2134.325928	62.521191
881.234314	1524.959717	2592.508545	2167.738525	60.210716
881.533752	1523.415771	2675.213135	2197.953125	58.563892
881.833252	1523.085083	2748.654541	2223.867432	57.180141
882.132629	1521.320679	2812.833252	2246.031982	56.113377
882.431946	1519.776855	2872.160156	2267.865967	55.316353
882.731323	1522.864502	2918.805176	2282.201416	54.396072
883.030579	1526.613647	2956.518555	2298.742676	53.998627
883.329712	1526.723877	2991.364746	2312.636963	53.659100
883.628845	1526.282837	3021.027832	2328.957520	53.699776
883.927979	1529.480713	3040.325439	2336.896973	53.441380
884.226990	1530.693604	3058.410156	2339.543457	52.945023
884.526001	1530.803833	3066.460205	2343.292480	52.908234
884.824951	1530.142212	3073.297119	2343.843750	52.729736
885.123840	1530.473145	3074.620361	2344.505371	52.717270
885.422729	1530.473145	3053.227539	2342.409912	53.320271
885.721497	1530.914307	3009.008301	2330.390381	54.088310
886.020203	1532.899292	2928.619141	2303.263428	55.194756
886.318909	1532.678711	2828.602051	2264.116699	56.441456
886.617554	1529.149902	2714.249512	2224.969971	58.714058
886.916138	1528.047241	2597.140137	2180.419922	61.021141
887.214661	1524.408203	2491.829590	2145.794189	64.231163
887.513184	1524.518677	2402.067871	2109.293945	66.637321
887.811523	1527.495850	2321.127686	2082.387451	69.918015
888.109924	1514.483765	2151.307861	1989.207275	74.545471
888.408264	1528.378052	2035.521729	2023.943115	97.716896
888.706543	1546.903931	1977.628662	1977.628662	100.000000
889.004761	1565.429688	1931.314087	1898.894043	91.139267
889.302979	1509.852295	1919.735474	1979.944336	114.689270
889.601135	1470.484985	1905.841187	1959.102783	112.234024
889.899170	1489.010742	1859.526611	1905.841187	112.500023
890.197205	1468.169312	1882.683960	1922.051270	109.497208
890.495178	1528.378052	1875.736694	1841.000854	90.000008
890.793091	1560.798218	1901.209717	1928.998413	108.163269
>>>>>End Processed Spectral Data<<<<<
