Jaz Data File
++++++++++++++++++++++++++++++++++++
Date: Fri Jun 21 03:16:07 2019
User: jaz
Dark Spectrum Present: Yes
Reference Spectrum Present: Yes
Processed Spectrum Present: Yes
Spectrometers: JAZA3541
Integration Time (usec): 119000 (JAZA3541)
Spectra Averaged: 1 (JAZA3541)
Boxcar Smoothing: 10 (JAZA3541)
Correct for Electrical Dark: No (JAZA3541)
Strobe/Lamp Enabled: Yes (JAZA3541)
Correct for Detector Non-linearity: No (JAZA3541)
Correct for Stray Light: No (JAZA3541)
Number of Pixels in Processed Spectrum: 2048
>>>>>Begin Processed Spectral Data<<<<<
W	D	R	S	P
190.543274	0.000000	0.000000	0.000000	0.000000
190.921555	0.000000	0.000000	0.000000	0.000000
191.299805	1558.482544	1405.644653	1704.373169	-95.454491
191.678024	1533.009521	1440.380615	1734.477539	-217.500153
192.056229	1539.956665	1535.325317	1748.371948	-4500.100098
192.434387	1519.115234	1551.535278	1720.583252	621.430420
192.812531	1604.796997	1597.849854	1667.321533	-900.003540
193.190659	1556.166748	1542.272461	1746.056152	-1366.672485
193.568741	1623.322754	1530.693848	1713.635986	-97.500053
193.946793	0.000000	0.000000	0.000000	0.000000
194.324829	1410.165894	1403.770142	1580.867920	-2668.990723
194.702835	1483.938232	1477.322021	1663.572388	-2715.060791
195.080811	1555.725708	1551.645752	1747.710327	-4705.556152
195.458755	1552.307251	1560.467407	1748.702759	2406.761719
195.836685	1553.520386	1565.540039	1751.569702	1647.712402
196.214569	1554.953857	1568.627808	1751.680054	1438.693237
196.592422	1551.425171	1571.164063	1751.239014	1012.285034
196.970261	1549.219727	1570.833130	1757.303955	962.755493
197.348068	1548.999146	1571.274170	1760.391724	949.011658
197.725861	1545.690796	1573.810425	1761.494263	767.447754
198.103622	1539.625854	1573.589844	1759.950562	648.700928
198.481323	1540.287598	1569.399536	1766.015381	775.378723
198.859039	1539.846436	1568.958374	1764.581787	771.969727
199.236694	1536.758789	1568.296631	1760.832642	710.492004
199.614334	1539.295166	1566.201660	1759.840088	819.671692
199.991959	1540.728760	1571.604858	1754.877930	693.575867
200.369553	1537.751465	1570.502075	1751.569946	652.868713
200.747101	1536.759033	1571.935669	1750.908325	608.782776
201.124619	1535.215210	1570.502197	1750.467285	610.004089
201.502136	1531.796631	1571.274048	1749.695068	551.957153
201.879623	1529.922119	1568.517334	1749.033691	567.716919
202.257065	1525.621216	1569.730225	1750.356934	509.500732
202.634476	1525.621216	1573.589600	1748.261475	464.139587
203.011871	1524.187744	1573.258911	1750.136108	460.450348
203.389221	1524.408203	1571.715088	1751.238892	479.487701
203.766571	1523.415649	1570.722656	1748.592285	475.990021
204.143875	1523.305542	1567.635010	1748.482178	507.961517
204.521164	1526.613770	1564.878296	1750.577393	585.303528
204.898392	1524.408203	1563.444702	1746.828125	569.774231
205.275620	1523.856812	1563.665405	1742.637695	549.582031
205.652817	1524.297852	1562.783081	1741.424683	564.182251
206.029984	1529.370483	1566.422241	1739.880981	568.152527
206.407135	1528.378052	1568.848267	1736.131714	513.349548
206.784225	1530.473389	1569.950928	1733.595215	514.525024
207.161301	1530.252808	1570.281616	1735.359619	512.398010
207.538376	1528.929443	1571.274170	1735.028687	486.717621
207.915405	1529.260376	1568.517456	1738.998291	534.267761
208.292404	1529.480835	1568.737671	1739.439697	534.833862
208.669373	1525.952148	1570.833008	1738.888550	474.448151
209.046310	1524.628784	1571.053589	1736.572754	456.531738
209.423218	1528.267822	1569.509644	1739.660400	512.568481
209.800095	1530.032227	1570.612549	1740.322144	518.206604
210.176956	1530.032227	1570.833130	1738.778320	511.621246
210.553787	1531.686279	1566.201660	1742.196777	609.903442
210.930603	1535.435425	1566.091553	1741.865845	673.374084
211.307358	1536.648438	1565.760620	1741.645264	704.161682
211.684113	1538.412842	1570.391968	1740.652710	632.412109
212.060837	1534.773804	1573.920776	1743.630249	533.518738
212.437531	1533.340210	1574.802856	1742.196655	503.721924
212.814178	1532.458130	1578.772705	1744.291626	457.379761
213.190826	1532.788940	1580.426758	1743.188965	441.665955
213.567413	1530.914307	1580.095947	1740.763184	426.681335
213.943985	1528.267822	1576.015869	1740.211670	443.879608
214.320541	1528.488281	1577.669800	1739.439697	428.924164
214.697052	1527.716431	1577.228760	1744.071289	436.971680
215.073563	1529.591064	1581.198486	1746.387085	420.086914
215.449997	1529.921875	1582.852661	1747.489990	411.042664
215.826431	1528.708862	1588.586670	1744.071411	359.670074
216.202850	1529.370483	1590.792236	1745.174072	351.347168
216.579224	1533.119751	1588.807495	1740.542603	372.474854
216.955582	1533.560791	1588.586914	1741.645508	378.156250
217.331894	1531.135010	1586.932861	1739.439941	373.320709
217.708191	1532.017090	1588.035400	1737.785889	367.324188
218.084442	1537.420532	1591.674438	1737.234375	368.293915
218.460678	1534.443115	1598.180420	1734.698120	314.188080
218.836899	1532.678711	1603.694214	1733.484985	282.764008
219.213074	1532.127563	1606.892090	1734.477539	270.649719
219.589233	1531.024658	1605.348389	1736.682861	276.705963
219.965347	1533.891846	1609.869385	1734.587769	264.151642
220.341431	1535.987061	1615.713867	1734.367188	248.824875
220.717499	1535.435669	1614.721558	1733.926147	250.347794
221.093552	1534.002075	1619.242554	1735.359741	236.223053
221.469543	1535.104858	1625.197510	1733.375000	220.073593
221.845535	1536.207642	1630.380249	1737.455200	213.700745
222.221466	1537.310303	1634.350098	1736.793335	205.568268
222.597397	1535.435547	1642.069214	1734.587769	186.762985
222.973297	1537.420532	1647.362183	1732.382446	177.332169
223.349167	1536.979492	1655.853271	1733.595581	165.399033
223.725006	1537.530640	1662.359375	1733.264648	156.802048
224.100800	1538.082153	1671.952881	1732.933838	145.552124
224.476578	1538.854004	1682.097900	1738.998901	139.723160
224.852325	1537.971680	1701.726563	1740.101563	123.434418
225.228058	1541.279907	1724.332397	1740.101563	108.614555
225.603760	1540.838867	1750.246460	1738.998901	94.628868
225.979416	1536.317749	1779.248169	1742.086548	84.702774
226.355057	1535.325195	1813.322388	1743.960938	75.049583
226.730652	1533.671143	1852.028076	1746.166626	66.747559
227.106232	1534.773926	1886.543335	1749.585205	61.065937
227.481796	1531.575928	1920.286865	1751.239014	56.510651
227.857315	1528.378052	1946.972900	1752.782715	53.609035
228.232788	1528.819214	1971.673950	1758.516968	51.867516
228.608246	1531.465698	1999.903687	1759.840210	48.752346
228.983704	1534.112305	2022.950684	1762.486816	46.717796
229.359100	1531.575928	2040.263428	1772.742188	47.409512
229.734482	1528.378052	2061.546143	1772.962769	45.873848
230.109833	1529.039795	2075.881592	1777.484009	45.432556
230.485153	1528.488403	2087.349609	1778.035400	44.652767
230.860443	1521.541260	2101.575195	1777.484009	44.125477
231.235703	1520.879517	2121.534668	1775.278442	42.353573
231.610931	1519.225464	2137.523926	1779.137817	42.036713
231.986145	1517.240479	2152.079834	1781.894531	41.688351
232.361313	1516.468506	2165.532959	1780.240723	40.638832
232.736465	1519.115112	2169.833984	1779.027710	39.942379
233.111572	1517.571289	2172.921387	1782.115479	40.366848
233.486664	1518.894653	2171.708252	1786.305786	40.962860
233.861725	1517.350586	2169.944092	1787.518555	41.399120
234.236755	1520.107422	2156.931885	1786.084961	41.766224
234.611771	1522.313110	2138.516357	1782.666626	42.251240
234.986740	1523.415771	2132.671875	1781.894897	42.425365
235.361679	1526.062256	2128.922607	1781.343506	42.345005
235.736588	1526.393188	2124.952881	1781.453735	42.612381
236.111496	1527.936890	2122.196045	1780.791992	42.549637
236.486343	1528.819092	2122.857666	1779.468750	42.194172
236.861160	1527.716309	2128.371582	1781.233032	42.206692
237.235962	1529.370483	2138.626465	1780.351196	41.194626
237.610733	1532.016968	2152.962158	1783.548950	40.507919
237.985474	1532.016968	2177.111572	1786.085205	39.384647
238.360199	1533.009521	2207.988037	1789.393188	37.983974
238.734879	1534.994385	2240.628662	1796.781494	37.099545
239.109543	1532.347900	2281.539551	1805.713501	36.488075
239.484177	1533.450562	2334.360352	1812.109131	34.792755
239.858749	1535.325195	2397.105469	1818.064209	32.808712
240.233322	1530.804199	2464.923096	1826.444946	31.649157
240.607864	1528.709106	2528.660889	1838.464600	30.977043
240.982391	1529.370728	2583.025391	1843.537231	29.816837
241.356857	1527.826904	2627.685547	1846.073242	28.935204
241.731308	1533.340454	2665.288574	1848.058228	27.803198
242.105728	1529.150024	2699.583252	1856.880005	28.000742
242.480118	1528.708984	2736.414307	1861.511475	27.556597
242.854492	1529.480957	2770.378418	1864.599121	27.006113
243.228836	1527.606323	2818.898193	1871.987549	26.669512
243.603134	1531.245361	2883.187256	1879.927246	25.791189
243.977402	1529.150146	2971.956787	1890.734009	25.061146
244.351654	1526.724121	3079.692871	1904.959106	24.355608
244.725861	1527.495972	3195.809814	1915.214233	23.240128
245.100067	1529.260376	3309.391113	1926.903442	22.337858
245.474213	1530.693970	3406.872070	1933.519775	21.470552
245.848343	1529.150146	3476.453857	1940.356445	21.116701
246.222443	1528.378174	3532.362061	1949.398804	21.009182
246.596512	1530.252808	3565.884766	1951.163086	20.677130
246.970566	1530.804077	3581.543457	1950.942383	20.487164
247.344574	1531.134888	3573.714355	1946.752075	20.347664
247.718567	1528.157471	3552.431641	1943.223633	20.504444
248.092529	1533.561035	3529.936035	1941.348999	20.426420
248.466431	1533.891724	3510.307617	1939.033081	20.498791
248.840332	1534.002197	3506.668945	1939.584473	20.560101
249.214203	1533.891846	3516.923828	1942.451660	20.602785
249.588043	1529.811768	3538.868408	1944.987915	20.665228
249.961838	1525.952148	3566.656982	1945.649536	20.566296
250.335617	1524.629028	3592.460938	1950.722046	20.605785
250.709381	1522.423584	3603.377930	1950.501465	20.571228
251.083084	1521.320801	3591.468262	1947.965454	20.609385
251.456787	1521.982422	3561.474365	1943.223633	20.654222
251.830460	1521.762085	3509.425293	1937.048340	20.893190
252.204071	1522.203125	3429.367188	1929.108765	21.335640
252.577667	1521.761963	3337.069092	1922.602905	22.081163
252.951248	1521.541260	3250.725830	1913.449951	22.664364
253.324799	1517.020142	3177.835449	1904.077026	23.305233
253.698303	1516.248169	3130.969482	1899.445557	23.731487
254.071793	1518.233032	3092.374268	1896.026733	23.999987
254.445236	1520.769287	3078.479736	1894.813843	24.012457
254.818665	1521.541260	3072.855957	1895.806396	24.125675
255.192062	1521.320801	3089.396729	1902.973755	24.338934
255.565430	1525.511108	3120.272949	1904.076660	23.738062
255.938782	1522.092651	3155.891113	1908.597900	23.656849
256.312103	1523.636475	3214.445801	1912.457397	22.996143
256.685364	1522.202881	3288.438721	1919.735352	22.507326
257.058594	1520.107666	3374.341064	1930.100830	22.111195
257.431793	1523.195435	3472.593750	1941.679688	21.467356
257.804993	1527.716431	3583.969238	1954.912354	20.775455
258.178162	1529.150024	3682.222412	1961.528809	20.081945
258.551270	1530.032227	3768.455322	1971.784180	19.734962
258.924377	1529.370483	3840.132080	1976.084839	19.331909
259.297485	1525.290405	3899.569580	1983.252563	19.288471
259.670502	1529.149780	3942.906982	1980.826660	18.712605
260.043518	1533.891602	3992.750732	1984.024780	18.306587
260.416473	1530.362793	4040.167725	1986.891724	18.189817
260.789459	1527.606079	4078.542725	1990.640991	18.151566
261.162354	1530.803955	4110.521484	1996.485352	18.051643
261.535278	1529.149902	4134.229980	2002.660522	18.176432
261.908142	1529.370483	4159.372070	2004.425049	18.062901
262.280975	1526.613647	4174.479004	2007.402344	18.157597
262.653717	1530.583374	4190.909668	2007.402344	17.923326
263.026520	1530.914307	4200.062012	2006.188965	17.806232
263.399261	1525.952148	4207.781250	2009.276611	18.022194
263.771973	1526.834351	4219.911133	2007.843140	17.860939
264.144653	1523.084961	4213.735840	2007.071411	17.987709
264.517334	1525.290405	4186.388184	2004.535156	18.009289
264.889954	1525.952148	4137.316406	1997.698242	18.065121
265.262543	1526.393188	4074.020508	1988.766235	18.149162
265.635071	1529.480835	3996.830078	1978.952026	18.216764
266.007599	1528.047363	3930.997070	1976.305664	18.654503
266.380127	1524.408325	3887.770752	1971.233032	18.906315
266.752594	1526.503418	3869.796143	1972.887085	19.049419
267.125031	1525.952148	3869.355225	1969.689209	18.935585
267.497437	1520.879517	3888.873535	1976.746704	19.251196
267.869843	1518.674072	3911.148438	1976.084961	19.118738
268.242218	1521.430908	3946.104980	1982.150146	19.001286
268.614532	1521.872070	4017.010498	1990.089478	18.765188
268.986816	1519.004883	4098.060547	1995.823853	18.488123
269.359100	1521.871948	4188.152832	2005.417603	18.135586
269.731354	1522.092407	4275.819824	2012.254517	17.799950
270.103516	1523.084961	4346.615234	2020.083740	17.602036
270.475708	1518.784424	4407.816406	2030.118286	17.699142
270.847839	1522.092529	4464.496094	2033.095825	17.366867
271.219971	1526.944702	4510.920898	2039.822388	17.187727
271.592041	1529.921875	4535.180664	2046.107910	17.176092
271.964081	1532.237671	4553.485840	2047.651733	17.059641
272.336151	1532.237671	4574.547852	2052.393311	17.097391
272.708130	1531.686279	4593.956055	2051.290771	16.967953
273.080109	1530.804077	4614.908203	2054.708984	16.987265
273.452026	1530.252686	4644.680664	2058.789063	16.970577
273.823914	1533.560913	4678.535156	2060.663818	16.760166
274.195770	1535.435425	4714.483887	2065.736328	16.681122
274.567627	1536.979126	4748.447754	2070.036865	16.598566
274.939423	1537.420288	4784.065918	2074.227295	16.534204
275.311249	1538.853882	4807.002441	2074.447998	16.388304
275.682983	1536.979370	4827.954590	2081.946533	16.559444
276.054688	1534.443115	4832.806641	2081.615479	16.589207
276.426422	1536.648560	4815.052734	2079.630859	16.562395
276.798065	1537.530640	4785.389648	2080.292480	16.711374
277.169708	1537.199951	4757.159668	2070.919434	16.575346
277.541321	1539.515625	4739.075195	2067.169922	16.491467
277.912903	1539.074585	4743.375977	2067.500977	16.491158
278.284424	1539.736206	4756.277344	2064.633789	16.318697
278.655945	1535.656250	4777.670410	2069.926758	16.479586
279.027435	1538.523315	4811.523926	2073.896484	16.357260
279.398865	1537.971924	4872.173828	2079.961426	16.255449
279.770294	1538.412964	4936.683105	2089.665527	16.221565
280.141663	1538.082275	4996.009766	2092.863525	16.043751
280.513031	1541.500610	5055.887695	2104.331787	16.015059
280.884369	1538.523193	5092.829102	2110.065918	16.080290
281.255676	1540.177368	5132.637207	2112.933105	15.943274
281.626953	1538.412964	5166.601074	2116.131104	15.923049
281.998199	1539.736206	5202.770996	2119.439453	15.825765
282.369385	1540.508057	5250.519043	2122.857910	15.696715
282.740540	1542.603271	5308.743164	2131.789795	15.644308
283.111694	1540.397827	5362.334961	2143.147949	15.770802
283.482819	1541.059326	5430.263184	2149.212891	15.636968
283.853912	1542.382813	5511.203613	2155.498291	15.448303
284.224945	1538.743774	5583.652832	2163.327637	15.441234
284.595978	1542.272461	5653.455566	2172.700928	15.334478
284.966980	1541.941650	5715.318359	2178.435303	15.251286
285.337952	1537.861450	5756.670410	2180.420166	15.230808
285.708893	1539.405273	5777.953613	2185.051514	15.232721
286.079803	1540.949097	5798.574219	2193.211670	15.319869
286.450684	1543.154785	5811.917480	2195.086426	15.272145
286.821533	1537.861572	5818.423340	2196.740234	15.392342
287.192322	1536.097412	5819.305176	2195.527100	15.395696
287.563110	1538.082275	5831.985840	2198.283936	15.375326
287.933868	1538.854126	5849.850098	2205.561768	15.465281
288.304596	1538.523315	5884.034668	2213.170654	15.525155
288.675262	1538.743896	5930.018555	2218.684326	15.483897
289.045929	1537.641113	5962.328613	2230.042480	15.648594
289.416565	1536.869141	5990.999023	2236.658936	15.711033
289.787170	1538.302734	5998.938477	2239.856934	15.727673
290.157745	1535.545898	6001.916016	2239.195557	15.754396
290.528259	1536.317749	5993.204102	2236.769287	15.716164
290.898773	1539.736084	6004.672852	2237.430908	15.626086
291.269226	1537.751221	6002.908691	2241.400391	15.758665
291.639679	1538.192261	5995.741211	2247.575928	15.914209
292.010101	1540.397827	6016.803223	2252.648193	15.911213
292.380463	1537.199829	6050.877441	2259.374756	15.999701
292.750824	1539.625854	6085.503418	2271.504883	16.099840
293.121155	1537.640869	6131.597168	2283.965576	16.245796
293.491455	1534.884155	6201.399414	2289.258789	16.165695
293.861725	1532.458130	6279.141602	2300.837402	16.187708
294.231964	1532.458130	6366.808594	2317.047607	16.229469
294.602142	1535.766235	6463.296875	2327.192627	16.061317
294.972321	1533.009399	6543.686035	2340.866699	16.122719
295.342468	1527.716309	6605.217773	2348.365234	16.162457
295.712555	1525.731445	6647.011230	2350.239746	16.099653
296.082672	1529.370483	6671.602051	2351.342529	15.984735
296.452728	1529.811523	6675.351074	2356.304688	16.062323
296.822693	1528.378052	6675.020020	2355.973877	16.080307
297.192657	1527.495850	6668.844727	2357.076416	16.135466
297.562622	1525.510986	6691.009766	2365.457520	16.260704
297.932556	1531.355469	6707.330566	2374.719971	16.293829
298.302460	1530.693848	6710.307129	2380.343750	16.403732
298.672333	1529.260376	6708.653320	2376.373779	16.355457
299.042145	1529.260376	6706.778809	2372.514404	16.286837
299.411957	1527.716553	6705.897461	2368.654785	16.240032
299.781677	1527.716553	6663.441406	2363.912842	16.281954
300.151428	1527.496094	6619.552734	2360.494873	16.358789
300.521149	1524.629028	6556.917969	2349.577637	16.393108
300.890839	1525.842041	6491.747559	2341.748291	16.430161
301.260468	1526.503662	6415.769531	2344.284668	16.726049
301.630096	1525.621338	6328.434570	2331.934326	16.788347
301.999695	1525.290527	6236.907715	2324.215332	16.956488
302.369232	1523.526245	6126.966309	2313.188477	17.153742
302.738739	1525.952148	6024.302246	2300.286377	17.213739
303.108246	1529.922119	5926.270020	2289.038574	17.266979
303.477692	1530.363159	5852.166504	2282.532471	17.404062
303.847137	1526.724121	5775.858398	2275.916016	17.631636
304.216553	1530.363037	5724.691406	2266.322266	17.546534
304.585876	1531.465820	5688.742188	2263.234863	17.602127
304.955231	1535.215088	5666.687988	2261.139404	17.570595
305.324493	1534.443115	5638.126953	2254.302734	17.541792
305.693787	1530.252686	5612.212891	2250.553467	17.645952
306.063049	1530.032227	5607.581055	2248.016846	17.608240
306.432251	1528.708740	5606.588379	2250.553223	17.701466
306.801422	1529.260132	5598.097656	2254.082031	17.813980
307.170593	1532.568481	5595.450684	2255.736328	17.799379
307.539673	1528.819092	5608.573730	2260.257324	17.928486
307.908783	1531.575928	5615.080078	2258.052002	17.790506
308.277832	1531.355347	5644.522949	2267.094238	17.887403
308.646851	1534.773926	5681.133301	2273.710449	17.821333
309.015839	1536.207520	5715.649414	2268.307129	17.516684
309.384796	1538.082153	5746.415039	2271.615234	17.430490
309.753723	1535.766357	5771.998047	2268.307129	17.292274
310.122620	1533.891724	5793.611816	2273.158936	17.354830
310.491486	1532.899292	5812.357422	2278.783203	17.429401
310.860352	1530.914307	5821.179199	2285.399658	17.585987
311.229126	1534.332886	5826.031250	2288.707520	17.577532
311.597931	1529.701416	5843.123535	2287.494629	17.568260
311.966675	1526.613892	5869.699219	2292.236328	17.628538
312.335388	1526.834351	5896.274414	2294.772217	17.575201
312.704071	1522.974854	5922.739746	2299.514160	17.649565
313.072723	1524.959717	5931.230957	2298.411377	17.553427
313.441345	1523.526245	5931.341309	2296.867676	17.544781
313.809875	1523.195313	5911.823242	2296.977783	17.631535
314.178436	1523.195190	5885.688477	2296.867920	17.734646
314.546967	1521.982178	5851.614258	2292.236328	17.790293
314.915466	1519.446045	5811.254883	2287.053711	17.885412
315.283936	1523.967163	5773.100586	2282.201904	17.844456
315.652374	1523.195557	5733.402344	2281.208984	18.004185
316.020752	1523.416016	5692.822266	2276.577637	18.064001
316.389130	1525.842041	5654.116699	2275.584961	18.161169
316.757416	1525.621460	5628.202637	2277.018311	18.315222
317.125732	1523.085205	5605.376465	2274.592529	18.408958
317.494019	1524.739258	5578.800781	2278.452148	18.591551
317.862274	1526.062378	5549.468262	2276.467041	18.650982
318.230469	1529.922119	5524.436523	2271.725342	18.570549
318.598663	1533.671265	5506.020996	2266.763428	18.454876
318.966797	1531.245239	5488.487793	2261.029053	18.441725
319.334930	1533.781494	5473.932129	2263.234863	18.513336
319.703003	1532.678711	5446.804688	2261.249512	18.613882
320.071045	1530.583374	5422.875000	2256.177002	18.641811
320.439056	1532.127197	5403.687988	2251.656006	18.584980
320.807037	1537.199829	5414.494629	2257.390137	18.574556
321.175049	1538.192261	5435.997559	2261.690430	18.561682
321.542969	1539.074463	5475.586426	2268.307129	18.524843
321.910828	1539.956665	5513.740234	2269.299561	18.353865
322.278717	1543.375122	5567.442871	2276.687988	18.223173
322.646515	1543.375122	5607.582031	2280.437012	18.135441
323.014313	1543.595581	5643.199707	2285.619873	18.099901
323.382111	1542.492798	5687.860352	2285.620117	17.926693
323.749817	1541.941650	5724.360840	2292.016113	17.933987
324.117523	1535.876587	5743.216797	2289.810547	17.919491
324.485199	1533.781372	5748.399414	2295.985596	18.084776
324.852814	1537.971680	5759.096191	2296.095703	17.960238
325.220428	1539.736084	5759.537598	2294.993408	17.897934
325.588013	1537.751221	5774.203125	2300.175781	17.996771
325.955536	1536.317627	5782.694336	2296.978027	17.913162
326.323059	1532.678711	5803.094727	2296.426758	17.884628
326.690552	1531.465698	5815.775879	2298.301270	17.898695
327.058014	1530.914307	5817.209473	2297.860352	17.892984
327.425415	1534.773804	5825.149414	2299.735107	17.829706
327.792816	1535.986938	5825.590332	2301.278809	17.840620
328.160187	1538.082031	5828.567871	2303.043457	17.829250
328.527496	1530.032227	5812.688477	2300.396484	17.988001
328.894775	1529.039673	5795.044434	2300.506592	18.084061
329.262054	1528.929443	5777.400879	2296.095947	18.057470
329.629303	1532.678711	5770.233398	2298.191162	18.064957
329.996490	1530.473267	5766.263672	2299.624512	18.158388
330.363647	1532.237549	5787.656738	2305.910156	18.180880
330.730774	1527.826660	5805.520996	2310.100342	18.287273
331.097839	1528.157593	5829.229004	2316.937256	18.339144
331.464935	1527.936890	5850.953125	2319.473633	18.309826
331.831970	1528.488159	5875.543457	2323.994873	18.299900
332.198975	1526.503296	5903.552734	2324.436279	18.229929
332.565948	1526.613647	5927.261230	2328.406006	18.219873
332.932892	1525.069824	5965.636719	2328.185303	18.085876
333.299744	1527.716431	5998.608398	2331.603516	17.980463
333.666656	1527.936890	6036.652344	2342.520508	18.066868
334.033478	1526.062256	6062.897461	2347.923828	18.115307
334.400299	1526.282837	6098.184570	2353.216797	18.087307
334.767090	1527.385620	6137.110352	2363.582520	18.139845
335.133850	1523.746704	6170.633301	2370.970703	18.232079
335.500549	1522.423462	6201.068848	2378.910400	18.306301
335.867218	1517.681763	6233.599121	2385.196045	18.395451
336.233917	1517.791992	6266.350586	2390.158203	18.371180
336.600525	1517.902222	6286.419434	2395.561768	18.405293
336.967102	1518.453491	6298.108398	2397.546631	18.392399
337.333649	1514.814697	6301.747070	2402.949951	18.553328
337.700195	1515.365967	6302.960449	2405.265625	18.587614
338.066681	1514.814697	6287.301270	2403.832031	18.627970
338.433136	1514.924805	6274.620605	2403.942383	18.678034
338.799591	1517.791992	6256.425781	2406.037354	18.744757
339.165985	1518.674072	6243.192871	2401.516357	18.686398
339.532318	1518.233032	6246.500977	2405.155273	18.757868
339.898651	1522.864380	6259.623535	2401.847168	18.556627
340.264954	1521.320679	6270.540039	2403.942627	18.584570
340.631226	1519.446045	6293.697754	2409.897217	18.651114
340.997467	1514.042603	6324.463379	2411.000000	18.646132
341.363678	1512.278320	6352.583984	2416.734131	18.685923
341.729828	1514.704224	6393.384766	2425.335449	18.665522
342.095947	1517.902100	6440.028809	2434.046875	18.612782
342.462067	1519.335693	6484.028320	2437.024170	18.484297
342.828156	1520.769165	6534.422852	2443.971436	18.413761
343.194183	1523.526001	6589.118164	2449.595215	18.281559
343.560211	1529.811523	6630.911621	2454.887939	18.134842
343.926178	1529.590942	6675.130859	2462.166016	18.123949
344.292114	1528.598511	6720.674316	2463.599609	18.008234
344.658020	1526.723877	6756.071289	2474.516846	18.124496
345.023926	1530.252563	6774.155273	2476.501709	18.044750
345.389771	1530.473267	6798.194824	2476.501709	17.958967
345.755585	1531.024414	6824.880859	2478.927979	17.905729
346.121368	1537.089478	6843.737305	2481.354248	17.793997
346.487122	1534.443115	6866.122559	2485.103516	17.830412
346.852844	1536.869019	6899.425781	2490.727051	17.787374
347.218536	1538.853882	6923.574219	2495.579102	17.767408
347.584167	1539.184814	6951.252930	2505.062744	17.846743
347.949768	1540.177246	6975.071289	2512.450928	17.889469
348.315369	1540.838867	6981.578125	2517.523438	17.951321
348.680939	1544.477905	6995.692871	2521.934082	17.930979
349.046448	1547.786133	7005.065430	2524.139648	17.890848
349.411957	1546.793701	7011.351074	2525.352783	17.907379
349.777435	1543.706055	7011.021484	2526.786133	17.981039
350.142792	1546.903931	7013.336914	2528.770996	17.961750
350.508209	1547.675903	7017.306641	2528.550537	17.933105
350.873566	1545.911499	7036.273926	2531.748291	17.955769
351.238892	1545.470459	7057.776855	2539.577637	18.034323
351.604187	1549.109253	7084.462891	2544.650146	17.985136
351.969482	1553.079102	7127.248535	2550.935791	17.901442
352.334717	1553.851196	7176.099609	2557.882813	17.858187
352.699890	1551.535400	7256.376465	2573.210938	17.908922
353.065063	1551.976318	7340.295410	2583.797119	17.825914
353.430237	1551.314819	7438.216309	2601.661377	17.842096
353.795319	1548.778442	7545.511719	2619.856445	17.861025
354.160370	1548.668213	7656.886230	2633.750488	17.764303
354.525421	1547.014282	7778.847656	2656.687012	17.806520
354.890442	1547.786133	7926.062500	2675.874512	17.686415
355.255402	1544.367676	8060.375000	2703.883789	17.794886
355.620331	1547.345093	8211.227539	2727.812988	17.714417
355.985260	1548.006714	8359.985352	2746.669678	17.596399
356.350098	1549.440186	8488.122070	2763.541260	17.497576
356.714935	1547.455322	8615.155273	2780.192383	17.441841
357.079742	1548.116943	8735.904297	2798.276855	17.392834
357.444519	1544.588135	8862.386719	2816.692627	17.383703
357.809296	1537.530762	9007.835938	2836.100830	17.383093
358.173981	1534.663574	9175.340820	2856.390869	17.298563
358.538605	1535.104736	9362.474609	2882.635742	17.215630
358.903259	1535.104736	9576.954102	2915.497314	17.165113
359.267914	1535.214966	9815.033203	2948.468750	17.068657
359.632477	1534.001831	10056.529297	2988.938721	17.071659
359.997009	1532.237549	10270.126953	3021.028076	17.038330
360.361542	1533.671021	10432.007813	3040.215332	16.930628
360.726013	1533.009399	10550.330078	3064.365234	16.982382
361.090485	1533.119751	10621.235352	3074.510498	16.960510
361.454895	1537.640869	10669.645508	3082.229492	16.914015
361.819244	1538.081787	10689.494141	3090.720215	16.966108
362.183594	1538.964233	10671.849609	3087.522217	16.955845
362.547913	1538.523071	10616.161133	3085.427002	17.040821
362.912201	1539.515625	10574.367188	3071.642822	16.957968
363.276489	1536.097168	10510.079102	3062.158936	17.005402
363.640686	1532.568359	10443.033203	3056.756104	17.105593
364.004883	1531.686279	10386.685547	3051.352539	17.161676
364.369049	1529.701416	10336.401367	3050.139404	17.264559
364.733154	1531.024780	10286.117188	3043.302734	17.273123
365.097198	1537.200073	10230.098633	3038.009766	17.264778
365.461273	1542.272461	10137.360352	3029.739014	17.306007
365.825287	1545.580688	10013.523438	3019.042725	17.400473
366.189270	1546.132080	9845.798828	2999.855225	17.515440
366.553223	1545.690796	9649.182617	2971.735840	17.597908
366.917114	1546.132080	9422.791992	2947.476074	17.791094
367.281006	1547.014282	9187.691406	2917.040771	17.930695
367.644867	1549.991577	8990.744141	2890.575195	18.016775
368.008698	1548.337524	8831.179688	2871.828857	18.172731
368.372498	1548.999146	8707.012695	2855.288086	18.249321
368.736237	1547.124634	8622.102539	2849.994873	18.415184
369.099976	1540.728760	8559.579102	2839.519043	18.504316
369.463654	1538.854126	8522.858398	2835.108154	18.560328
369.827332	1534.994629	8489.886719	2835.880127	18.704611
370.190948	1534.884277	8472.683594	2833.895020	18.723671
370.554535	1533.450684	8443.021484	2832.571777	18.801762
370.918091	1534.002075	8424.715820	2832.020508	18.837214
371.281647	1538.854126	8421.626953	2830.697266	18.769224
371.645111	1536.427979	8420.744141	2835.990234	18.877144
372.008575	1536.648560	8415.342773	2835.438721	18.881348
372.371979	1535.876465	8419.863281	2837.754395	18.911686
372.735382	1531.906738	8436.183594	2842.937012	18.988668
373.098724	1531.686157	8473.456055	2847.899658	18.960777
373.462067	1529.149902	8530.798828	2859.919189	19.006512
373.825348	1528.708740	8601.592773	2871.057129	18.978800
374.188599	1525.731445	8696.095703	2888.039063	18.999142
374.551819	1522.643677	8812.875000	2901.161377	18.909107
374.915009	1517.130005	8930.976563	2918.805176	18.906179
375.278168	1514.152588	9048.197266	2937.661865	18.894356
375.641266	1512.829468	9160.785156	2957.290283	18.886889
376.004395	1510.624023	9243.048828	2966.994141	18.834585
376.367462	1513.491211	9303.587891	2973.389893	18.740444
376.730469	1516.689209	9354.423828	2977.800781	18.642014
377.093475	1522.092529	9382.984375	2984.417480	18.602533
377.456421	1522.864380	9423.675781	2986.401855	18.523888
377.819336	1524.298096	9463.595703	2988.938477	18.447985
378.182281	1526.172607	9498.992188	2994.010986	18.410530
378.545135	1521.872070	9540.673828	3001.288574	18.449347
378.907928	1522.864502	9571.441406	3011.323730	18.493446
379.270752	1523.305542	9599.780273	3008.235840	18.385872
379.633484	1526.282959	9631.869141	3013.749512	18.351130
379.996246	1524.077393	9659.878906	3020.034912	18.387341
380.358948	1525.069824	9686.673828	3025.658936	18.385958
380.721558	1521.430786	9715.344727	3031.172607	18.425161
381.084198	1523.305298	9733.429688	3033.378418	18.392817
381.446747	1525.951782	9744.015625	3038.450928	18.404570
381.809326	1527.275146	9746.000977	3038.781738	18.391010
382.171875	1527.495850	9729.791016	3042.089844	18.465490
382.534363	1528.488403	9709.280273	3038.451172	18.457415
382.896790	1533.229858	9671.567383	3037.238037	18.480534
383.259247	1531.245117	9648.851563	3033.929932	18.511427
383.621613	1532.017090	9663.408203	3040.215332	18.547850
383.983948	1527.716431	9692.850586	3048.044434	18.619755
384.346283	1523.195068	9736.739258	3062.931641	18.746311
384.708588	1519.225342	9811.723633	3071.863281	18.723404
385.070831	1519.887085	9891.341797	3083.993408	18.683805
385.433075	1519.335693	9960.373047	3105.055420	18.785839
385.795258	1517.020142	10042.305664	3124.463135	18.855005
386.157440	1518.784424	10104.719727	3134.829346	18.822002
386.519531	1514.042603	10178.823242	3147.069580	18.846722
386.881622	1519.335815	10246.749023	3167.580078	18.885828
387.243683	1517.350830	10314.126953	3179.379395	18.893610
387.605713	1519.556274	10383.047852	3192.281250	18.872078
387.967682	1522.643921	10443.366211	3206.065430	18.870909
388.329651	1525.069824	10513.719727	3222.165283	18.880426
388.691559	1523.746704	10610.648438	3240.250000	18.889864
389.053467	1521.431030	10715.627930	3254.695801	18.851725
389.415314	1519.887085	10810.132813	3270.685303	18.845552
389.777130	1518.784180	10914.560547	3290.313965	18.854534
390.138885	1520.328125	10994.397461	3312.478760	18.916376
390.500641	1518.012329	11088.901367	3326.152588	18.892084
390.862366	1521.872070	11165.982422	3335.635742	18.806957
391.224060	1525.510864	11220.676758	3347.544922	18.793222
391.585693	1529.921875	11295.551758	3362.873047	18.769411
391.947296	1536.317749	11367.119141	3376.656982	18.720133
392.308868	1535.766235	11409.905273	3390.000488	18.778694
392.670441	1535.656006	11454.014648	3403.784668	18.835058
393.031952	1533.119751	11484.449219	3400.586426	18.766003
393.393433	1537.310059	11495.697266	3402.240234	18.727232
393.754883	1537.089600	11506.393555	3411.502930	18.801847
394.116302	1538.523071	11496.689453	3411.723633	18.810698
394.477692	1529.701294	11492.830078	3402.901855	18.801329
394.839020	1527.936890	11479.376953	3402.130127	18.833387
395.200348	1526.834229	11463.718750	3407.423096	18.925337
395.561646	1529.480835	11443.759766	3405.327637	18.920658
395.922882	1529.150024	11409.354492	3398.049805	18.915600
396.284088	1529.480835	11337.236328	3383.824707	18.906914
396.645264	1527.275513	11269.638672	3378.752197	19.004389
397.006409	1530.914429	11181.641602	3366.511475	19.020298
397.367523	1533.450684	11090.887695	3353.279053	19.040966
397.728577	1538.964355	11024.392578	3342.582520	19.014622
398.089600	1539.074707	10949.627930	3340.046387	19.137789
398.450592	1539.625977	10886.000000	3340.708252	19.270386
398.811584	1539.074463	10829.209961	3338.833740	19.372799
399.172546	1537.971680	10760.399414	3330.673340	19.438501
399.533447	1528.819214	10692.691406	3317.771484	19.521795
399.894318	1532.127441	10638.768555	3314.353027	19.570616
400.255127	1532.237671	10596.091797	3310.272949	19.616768
400.615936	1531.355469	10585.175781	3314.684082	19.696974
400.976685	1529.150146	10593.115234	3319.977295	19.757658
401.337433	1531.575928	10626.307617	3328.247314	19.755079
401.698151	1531.355591	10702.835938	3342.803467	19.750877
402.058807	1537.861572	10785.099609	3360.226563	19.707127
402.419434	1539.736206	10877.398438	3376.547363	19.670996
402.780060	1538.633423	10977.195313	3392.315918	19.639460
403.140594	1534.663696	11064.090820	3413.377686	19.714869
403.501129	1535.986938	11144.919922	3430.470215	19.715855
403.861633	1537.420532	11224.757813	3456.384033	19.808989
404.222076	1539.625977	11293.236328	3471.160400	19.803276
404.582550	1535.986938	11374.728516	3484.062500	19.800049
404.942932	1535.656128	11422.916992	3494.538330	19.812183
405.303284	1530.804077	11480.369141	3506.006348	19.852146
405.663605	1531.245117	11533.189453	3512.071533	19.804413
406.023895	1532.568481	11582.260742	3522.547363	19.801392
406.384125	1530.914307	11629.016602	3531.369141	19.810205
406.744354	1529.811523	11684.814453	3539.860107	19.793678
407.104553	1536.317627	11746.566406	3554.416260	19.765421
407.464691	1536.868896	11813.392578	3558.166016	19.669075
407.824829	1537.420288	11876.467773	3571.619385	19.674917
408.184906	1538.522949	11926.201172	3585.182617	19.702765
408.544922	1538.633423	11974.169922	3595.548340	19.710680
408.904938	1537.971680	12007.030273	3595.879150	19.657043
409.264923	1536.317627	11999.752930	3598.194824	19.705547
409.624847	1534.112183	11979.573242	3602.164551	19.798573
409.984802	1533.560791	11956.416016	3602.826172	19.853153
410.344666	1535.656006	11935.685547	3602.715820	19.875519
410.704529	1534.774048	11906.352539	3591.137207	19.826908
411.064331	1531.355591	11896.317383	3592.350342	19.884247
411.424133	1532.017090	11892.458008	3588.049561	19.845028
411.783875	1531.245117	11887.385742	3590.034668	19.879892
412.143555	1536.317749	11895.656250	3594.666016	19.869493
412.503235	1535.986938	11932.376953	3600.510498	19.858080
412.862885	1536.317749	11957.078125	3600.730957	19.810579
413.222473	1535.876587	12000.966797	3610.324707	19.822556
413.582062	1530.473267	12055.992188	3625.431641	19.903614
413.941559	1529.480713	12132.080078	3639.656982	19.902443
414.301086	1532.237549	12203.647461	3651.235840	19.856779
414.660522	1531.796509	12282.932617	3674.723633	19.932100
415.019958	1529.150024	12364.093750	3698.983887	20.026260
415.379364	1530.142456	12462.125977	3717.399658	20.007874
415.738708	1528.708984	12566.443359	3740.666748	20.039963
416.098053	1529.591187	12702.960938	3760.956787	19.970390
416.457336	1526.503540	12866.385742	3800.434570	20.052511
416.816559	1528.047363	13056.165039	3839.470947	20.050314
417.175812	1526.834351	13278.144531	3885.013428	20.067371
417.535004	1528.488525	13530.667969	3933.423096	20.037481
417.894135	1528.157715	13808.997070	3985.581787	20.010227
418.253265	1528.047363	14142.681641	4055.604980	20.036709
418.612335	1530.583618	14503.713867	4124.635254	19.995573
418.971405	1528.378174	14871.801758	4197.636230	20.004297
419.330414	1527.054810	15239.122070	4262.696777	19.950617
419.689423	1521.871948	15591.002930	4327.096191	19.938858
420.048370	1521.210327	15940.676758	4395.354492	19.932388
420.407257	1519.997314	16263.223633	4466.701172	19.986832
420.766144	1519.887085	16600.767578	4529.115723	19.953930
421.125000	1524.518555	16922.103516	4587.670410	19.893717
421.483795	1525.180176	17245.310547	4650.525879	19.881168
421.842560	1520.769287	17599.064453	4722.092773	19.910839
422.201324	1520.328125	17935.947266	4787.704590	19.904070
422.560028	1519.887085	18241.623047	4843.833496	19.877996
422.918671	1520.769287	18531.310547	4896.875000	19.847139
423.277283	1524.077515	18778.761719	4944.732910	19.824503
423.635925	1525.841919	18955.306641	4984.762207	19.845247
423.994476	1527.385742	19096.347656	5014.866699	19.850241
424.353027	1529.921997	19197.578125	5029.643066	19.808634
424.711487	1530.914429	19260.099609	5045.302246	19.822613
425.069946	1529.701416	19272.009766	5048.278809	19.831564
425.428375	1529.701538	19241.906250	5037.913086	19.806746
425.786743	1531.576050	19143.101563	5019.718750	19.806023
426.145081	1531.796509	18994.343750	4989.172852	19.798809
426.503418	1530.914307	18822.097656	4955.429688	19.804979
426.861725	1533.561035	18640.148438	4925.655762	19.829172
427.219971	1537.751343	18467.904297	4895.551270	19.833252
427.578186	1539.405396	18302.933594	4867.101074	19.850809
427.936371	1542.051880	18152.521484	4837.658691	19.840542
428.294495	1545.249756	17946.314453	4804.576660	19.872654
428.652618	1543.485352	17745.066406	4766.202148	19.891373
429.010712	1544.477905	17538.191406	4723.526367	19.876862
429.368744	1549.991455	17290.296875	4679.086426	19.879505
429.726746	1550.432617	17043.066406	4630.566406	19.881279
430.084717	1548.999023	16817.117188	4597.815430	19.968515
430.442688	1548.337280	16581.134766	4558.448242	20.023624
430.800568	1549.660645	16415.947266	4525.917969	20.020180
431.158417	1548.668213	16272.815430	4506.620117	20.089121
431.516235	1546.903809	16145.229492	4485.227539	20.127813
431.874023	1542.492920	16049.514648	4473.207520	20.202042
432.231812	1543.816162	15953.795898	4455.013184	20.202644
432.589508	1543.706055	15895.242188	4452.807129	20.270311
432.947205	1543.595825	15808.457031	4450.050781	20.374928
433.304840	1542.052002	15756.189453	4448.506836	20.447634
433.662476	1541.831421	15700.720703	4449.058105	20.532871
434.020050	1545.029541	15676.790039	4446.190918	20.529369
434.377594	1544.147339	15649.995117	4444.426270	20.560825
434.735138	1536.869263	15624.854492	4450.381348	20.680830
435.092621	1536.648682	15592.102539	4450.932617	20.734186
435.450043	1536.979492	15602.911133	4456.887207	20.758722
435.807465	1532.789063	15644.480469	4463.613770	20.768770
436.164856	1532.017090	15690.354492	4475.192383	20.787577
436.522156	1531.576050	15735.567383	4492.174805	20.843428
436.879486	1527.936890	15802.060547	4512.354492	20.907885
437.236755	1525.510986	15877.817383	4529.557129	20.930756
437.593994	1529.701416	15964.602539	4541.136230	20.862179
437.951172	1528.267822	16095.165039	4569.145020	20.875256
438.308380	1526.944458	16181.729492	4589.214844	20.896046
438.665497	1526.503296	16304.906250	4609.615234	20.862280
439.022583	1530.252686	16441.642578	4627.919922	20.773834
439.379608	1531.906860	16545.410156	4654.165039	20.796335
439.736633	1532.568604	16637.816406	4675.337402	20.805807
440.093628	1535.104736	16715.669922	4690.334473	20.784666
440.450562	1534.773926	16800.359375	4701.140137	20.741858
440.807495	1534.222534	16869.169922	4709.190430	20.704132
441.164368	1534.773926	16950.664063	4725.510742	20.697714
441.521210	1534.773926	17015.833984	4743.595703	20.727404
441.878021	1532.899292	17084.865234	4763.555176	20.773294
442.234833	1536.979492	17175.837891	4777.560059	20.721336
442.591522	1538.854126	17250.492188	4790.902832	20.698343
442.948242	1535.766479	17338.599609	4807.995117	20.706594
443.304901	1538.082275	17434.316406	4838.871582	20.764599
443.661530	1541.169800	17547.126953	4872.174316	20.811029
444.018127	1542.382935	17676.144531	4903.270996	20.831398
444.374664	1544.367798	17807.478516	4927.971680	20.805393
444.731201	1552.197021	17927.343750	4954.878418	20.779549
445.087738	1551.535400	18043.792969	4979.358887	20.784441
445.444183	1552.307251	18093.746094	4995.348145	20.814640
445.800598	1548.888794	18151.085938	5015.748535	20.881933
446.156982	1546.352539	18172.921875	5024.569824	20.919632
446.513336	1545.359985	18160.902344	5030.635254	20.975994
446.869598	1546.793579	18160.683594	5026.885254	20.946880
447.225891	1546.021606	18175.570313	5037.361816	20.994799
447.582153	1546.352417	18179.318359	5042.985840	21.022306
447.938354	1548.999023	18181.964844	5054.674316	21.076672
448.294495	1548.006592	18183.066406	5067.686523	21.158203
448.650665	1544.147095	18170.828125	5063.937500	21.169531
449.006775	1537.971924	18154.617188	5066.253906	21.233419
449.362823	1539.405396	18162.666016	5076.398438	21.277374
449.718842	1541.610718	18152.962891	5082.022461	21.313206
450.074860	1540.838867	18172.703125	5087.536621	21.324717
450.430817	1544.918945	18136.753906	5084.559082	21.333626
450.786713	1541.831299	18068.271484	5065.482422	21.321297
451.142578	1537.861450	17979.615234	5046.735840	21.341242
451.498444	1534.001831	17847.619141	5016.300781	21.345964
451.854248	1533.119629	17694.558594	4981.564941	21.337488
452.210022	1529.039551	17510.074219	4949.696289	21.404476
452.565765	1527.385376	17293.279297	4911.100586	21.462250
452.921478	1529.370361	17109.785156	4870.409668	21.443840
453.277191	1531.796387	16919.673828	4829.388184	21.429804
453.632813	1531.906738	16753.052734	4801.268555	21.479076
453.988434	1531.245117	16601.978516	4779.655273	21.554426
454.343964	1528.819214	16476.490234	4761.680664	21.627859
454.699524	1529.591187	16350.117188	4736.979492	21.641527
455.054993	1527.385742	16251.754883	4718.123047	21.669773
455.410400	1526.282959	16187.574219	4706.985352	21.694559
455.765839	1523.636475	16166.403320	4696.950195	21.671545
456.121216	1525.400879	16186.471680	4706.874512	21.700146
456.476593	1529.591187	16245.579102	4722.312988	21.695599
456.831909	1529.480957	16359.379883	4754.071289	21.743847
457.187195	1528.267822	16504.277344	4787.483887	21.762913
457.542450	1528.157593	16688.544922	4827.843750	21.765182
457.897644	1528.267944	16878.652344	4872.614746	21.786728
458.252808	1531.024780	17079.128906	4914.739258	21.762875
458.607971	1536.317749	17244.759766	4944.954102	21.699390
458.963013	1539.956787	17343.453125	4974.396973	21.732155
459.318085	1542.934204	17441.373047	5000.972656	21.750807
459.673096	1541.831421	17513.933594	5014.205078	21.740240
460.028076	1541.610718	17581.533203	5027.878906	21.734943
460.383057	1541.059570	17632.478516	5043.758301	21.767494
460.737976	1542.272461	17654.751953	5056.990234	21.813637
461.092865	1543.265015	17668.205078	5055.115723	21.778999
461.447723	1543.375244	17674.822266	5055.446289	21.771580
461.802551	1546.573120	17650.451172	5051.586914	21.765028
462.157288	1547.786133	17647.472656	5051.366211	21.761791
462.512054	1548.337646	17629.390625	5048.389648	21.765068
462.866760	1545.911621	17608.216797	5038.133789	21.741726
463.221405	1547.676025	17561.681641	5032.179199	21.759098
463.576019	1547.896484	17482.503906	5019.829102	21.788630
463.930603	1548.447876	17383.810547	5001.964844	21.808891
464.285156	1546.242432	17249.832031	4961.825195	21.750332
464.639709	1547.345093	17084.640625	4926.869141	21.751043
464.994171	1543.706055	16863.326172	4884.414063	21.806728
465.348633	1542.603271	16613.998047	4835.453125	21.848343
465.703033	1539.295044	16373.494141	4787.263184	21.895138
466.057434	1532.899170	16159.786133	4747.786621	21.979301
466.411774	1530.032104	16020.070313	4712.829590	21.965418
466.766083	1522.864380	15879.141602	4683.386719	22.014917
467.120331	1521.100098	15783.867188	4664.530273	22.039412
467.474548	1521.430908	15706.787109	4654.716309	22.088169
467.828735	1519.997314	15633.897461	4644.239746	22.135925
468.182922	1520.438232	15605.998047	4637.733887	22.131145
468.537048	1521.871704	15567.403320	4640.049805	22.200500
468.891144	1520.879272	15539.833008	4638.395996	22.237869
469.245178	1517.571289	15543.692383	4643.137695	22.283897
469.599213	1514.483398	15538.730469	4644.460938	22.318329
469.953186	1512.278076	15543.582031	4652.180176	22.377836
470.307129	1512.719116	15539.062500	4661.994629	22.452576
470.661041	1515.255493	15572.252930	4670.264648	22.444405
471.014923	1517.019775	15620.001953	4675.888184	22.398584
471.368713	1514.483521	15633.895508	4680.079102	22.420166
471.722504	1516.799194	15624.414063	4683.607422	22.447508
472.076294	1515.696533	15594.748047	4679.748535	22.473475
472.429993	1517.571167	15538.951172	4665.082031	22.447939
472.783722	1517.681396	15533.877930	4654.385254	22.379137
473.137329	1521.210205	15559.459961	4662.545898	22.376974
473.490967	1524.628662	15589.895508	4675.116699	22.399063
473.844543	1525.069702	15655.178711	4698.494629	22.458601
474.198090	1525.731445	15736.008789	4721.651367	22.490200
474.551605	1524.849243	15840.216797	4750.653320	22.533855
474.905060	1525.400635	15973.979492	4777.560059	22.508507
475.258484	1526.834229	16111.156250	4807.333496	22.493326
475.611877	1525.180176	16262.120117	4837.769043	22.478132
475.965240	1522.974731	16434.146484	4877.247070	22.495029
476.318573	1525.731445	16599.001953	4920.694336	22.523067
476.671844	1529.149902	16778.083984	4962.597656	22.515985
477.025116	1531.024536	16965.107422	5007.258301	22.523100
477.378326	1533.340210	17172.417969	5045.522949	22.457735
477.731506	1535.435425	17399.578125	5093.381348	22.427595
478.084656	1534.773926	17628.064453	5141.349609	22.410429
478.437744	1532.788940	17876.400391	5197.588379	22.423437
478.790833	1532.347900	18179.759766	5256.032715	22.367950
479.143890	1529.149902	18532.742188	5321.534668	22.303432
479.496826	1527.606079	18959.386719	5417.802734	22.316690
479.849823	1528.488281	19549.675781	5553.878906	22.336988
480.202728	1529.039673	20281.115234	5727.337891	22.388445
480.555603	1525.952148	21176.748047	5932.224121	22.422867
480.908478	1522.974731	22400.552734	6210.441895	22.452160
481.261292	1522.974731	23963.777344	6566.511719	22.474852
481.614075	1524.628906	25732.109375	6972.205566	22.503691
481.966797	1526.834229	27496.359375	7354.520020	22.440477
482.319489	1527.606079	29080.205078	7697.688965	22.393833
482.672150	1526.393188	30462.691406	7988.036621	22.330580
483.024780	1524.739014	31572.472656	8205.273438	22.233070
483.377350	1523.636353	32530.302734	8389.870117	22.144381
483.729919	1522.313110	33403.109375	8560.572266	22.076799
484.082428	1523.856812	34220.453125	8736.897461	22.060524
484.434937	1524.187622	35104.066406	8920.391602	22.025702
484.787384	1523.636230	36042.925781	9125.276367	22.021427
485.139771	1526.503296	37078.054688	9353.430664	22.015713
485.492157	1529.921753	38098.410156	9578.938477	22.010799
485.844482	1531.355347	39044.769531	9780.295898	21.989309
486.196777	1530.693726	39872.480469	9958.827148	21.981590
486.549072	1531.796509	40529.593750	10096.006836	21.960752
486.901276	1531.134888	40987.113281	10185.769531	21.934916
487.253448	1530.363037	41207.882813	10224.254883	21.911379
487.605591	1528.047241	41187.921875	10206.169922	21.881367
487.957703	1529.039917	40949.730469	10143.645508	21.853004
488.309784	1533.450806	40448.871094	10020.139648	21.808035
488.661835	1533.450806	39685.007813	9831.574219	21.750418
489.013855	1533.560913	38832.492188	9633.193359	21.715456
489.365814	1533.340454	38064.773438	9470.650391	21.727343
489.717743	1533.009521	37422.546875	9332.147461	21.730949
490.069611	1532.017090	36896.214844	9230.585938	21.769386
490.421509	1533.561035	36463.058594	9149.867188	21.804798
490.773315	1538.633545	36034.433594	9072.345703	21.839504
491.125092	1539.625977	35581.214844	8980.929688	21.859447
491.476807	1534.553345	35043.742188	8856.432617	21.850365
491.828522	1536.317749	34357.406250	8705.690430	21.843798
492.180176	1533.230225	33541.167969	8534.437500	21.873346
492.531830	1530.804199	32589.628906	8317.530273	21.851200
492.883423	1527.495972	31597.392578	8103.050781	21.867567
493.234985	1525.290405	30630.853516	7909.741699	21.935501
493.586487	1528.047363	29768.414063	7730.329102	21.962469
493.937988	1528.929443	29037.640625	7594.363281	22.049137
494.289429	1532.788818	28473.484375	7477.915039	22.067455
494.640869	1531.686157	28000.085938	7383.963379	22.110432
494.992218	1531.686157	27623.722656	7309.750000	22.144932
495.343567	1529.149902	27261.039063	7237.521484	22.184036
495.694855	1530.362915	26811.238281	7146.215820	22.213840
496.046112	1533.230103	26245.205078	7035.282227	22.264721
496.397339	1532.899292	25526.890625	6873.622070	22.258583
496.748535	1534.663574	24699.515625	6681.306641	22.217466
497.099670	1534.994385	23875.558594	6516.668945	22.298786
497.450806	1536.097046	23117.435547	6359.089355	22.347977
497.801880	1540.177124	22517.664063	6244.186035	22.424082
498.152924	1536.648560	22015.919922	6140.419434	22.480150
498.503937	1535.766357	21626.441406	6064.882813	22.543375
498.854889	1541.279907	21339.951172	6016.252441	22.602388
499.205841	1537.089600	21112.789063	5973.577148	22.663239
499.556702	1541.941650	20926.869141	5932.334961	22.648491
499.907562	1539.956787	20761.572266	5909.949219	22.734781
500.258362	1540.838867	20609.949219	5875.654297	22.732134
500.609161	1544.588257	20483.576172	5845.109375	22.707237
500.959900	1543.926636	20330.847656	5821.399902	22.768356
501.310608	1543.595703	20167.863281	5783.686523	22.766483
501.661255	1540.949097	19978.414063	5747.075684	22.812933
502.011902	1544.257324	19809.808594	5713.884277	22.827820
502.362488	1545.249756	19609.330078	5675.508789	22.864485
502.713043	1546.352539	19430.138672	5634.267578	22.858221
503.063568	1541.279907	19261.421875	5593.466309	22.867685
503.414063	1538.523071	19106.378906	5556.856445	22.873217
503.764496	1541.059204	18964.458984	5534.140137	22.917921
504.114899	1539.295166	18838.527344	5523.664551	23.032059
504.465271	1538.743774	18744.794922	5502.491699	23.036943
504.815613	1535.656128	18675.433594	5489.479980	23.068115
505.165894	1529.701416	18602.212891	5478.563477	23.129942
505.516174	1527.716553	18584.128906	5476.137207	23.149187
505.866394	1527.937012	18570.455078	5477.129395	23.172588
506.216583	1523.305664	18563.177734	5475.365234	23.193014
506.566711	1523.856934	18600.339844	5490.692871	23.229818
506.916840	1523.085083	18640.369141	5506.461426	23.271078
507.266907	1521.872070	18704.107422	5518.480957	23.260122
507.616882	1518.674072	18761.666016	5535.903809	23.297752
507.966858	1516.689209	18802.027344	5550.350098	23.335737
508.316803	1516.248169	18854.185547	5564.134766	23.346991
508.666748	1516.579102	18909.541016	5571.081543	23.311169
509.016632	1515.145508	18965.890625	5594.018066	23.373629
509.366486	1513.932373	19011.984375	5603.170898	23.369678
509.716309	1512.940063	19094.466797	5630.849609	23.421797
510.066040	1512.609253	19168.130859	5651.250488	23.441059
510.415771	1515.476318	19257.892578	5674.738281	23.442476
510.765503	1514.263428	19336.626953	5696.352539	23.465401
511.115173	1516.248169	19421.427734	5716.421387	23.457867
511.464752	1516.578979	19503.468750	5731.639160	23.434067
511.814270	1518.012451	19575.478516	5753.031738	23.453011
512.163818	1518.563843	19630.283203	5766.264160	23.452772
512.513306	1516.578857	19691.484375	5779.496582	23.454966
512.862793	1520.328003	19720.816406	5788.759277	23.452290
513.212219	1519.887085	19769.556641	5793.500977	23.417486
513.561646	1518.563721	19808.925781	5806.292480	23.442558
513.911011	1515.255615	19836.164063	5820.518066	23.499178
514.260315	1513.932251	19890.197266	5835.294434	23.515999
514.609558	1514.593994	19954.156250	5850.291504	23.513016
514.958801	1517.460938	20057.042969	5877.308594	23.516430
515.308044	1517.019897	20201.500000	5905.428223	23.486916
515.657227	1518.894531	20392.933594	5939.613281	23.422218
516.006348	1520.989746	20606.861328	5991.330566	23.422253
516.355408	1523.415771	20836.009766	6038.748047	23.380247
516.704529	1523.856812	21066.146484	6095.428223	23.393223
517.053467	1523.415649	21249.308594	6132.479980	23.365557
517.402466	1526.062256	21397.183594	6167.325684	23.356829
517.751404	1523.084961	21517.271484	6200.187012	23.392309
518.100281	1525.290405	21624.896484	6228.527344	23.399647
518.449219	1520.548950	21691.941406	6246.611816	23.429533
518.798035	1517.571411	21757.333984	6262.049805	23.441376
519.146851	1516.689331	21826.916016	6272.747070	23.417059
519.495544	1517.020020	21905.869141	6285.759766	23.388960
519.844299	1522.313110	21994.197266	6308.144531	23.377581
520.192932	1520.218018	22093.333984	6340.895020	23.431925
520.541626	1522.313110	22156.630859	6358.538086	23.437775
520.890198	1527.937012	22260.949219	6385.003906	23.426731
521.238770	1530.583496	22355.783203	6405.072754	23.406687
521.587280	1531.796387	22446.537109	6423.819336	23.390312
521.935791	1530.693726	22546.884766	6450.395020	23.409100
522.284180	1532.788940	22645.027344	6471.788086	23.394009
522.632629	1534.994385	22760.375000	6507.957520	23.429323
522.981018	1530.693726	22887.296875	6547.324219	23.489832
523.329346	1530.693848	23058.660156	6590.441406	23.503138
523.677551	1525.731567	23236.419922	6640.505859	23.558786
524.025818	1523.415771	23458.398438	6687.591309	23.543104
524.374023	1521.100098	23722.173828	6743.830566	23.524675
524.722229	1520.438477	24090.261719	6829.511719	23.522882
525.070374	1520.548584	24555.941406	6932.176270	23.492666
525.418457	1519.556274	25200.154297	7076.522461	23.466326
525.766541	1524.849365	26106.705078	7292.657227	23.463678
526.114563	1525.621338	27271.955078	7567.455566	23.466774
526.462585	1522.974854	28579.017578	7872.250000	23.467125
526.810547	1526.172729	29825.097656	8171.418945	23.482327
527.158447	1526.172607	30890.884766	8424.383789	23.491497
527.506348	1528.157593	31764.574219	8614.714844	23.437160
527.854065	1528.598633	32475.056641	8780.013672	23.432133
528.201904	1522.202759	33035.906250	8897.454102	23.403316
528.549622	1520.879639	33462.882813	8985.340820	23.368793
528.897339	1520.879517	33790.281250	9056.577148	23.352455
529.245056	1519.997314	34014.574219	9109.397461	23.355900
529.592712	1516.027466	34193.992188	9154.278320	23.374317
529.940369	1515.365845	34378.804688	9187.470703	23.345413
530.287903	1517.571289	34558.000000	9228.823242	23.338837
530.635437	1514.704346	34745.679688	9283.959961	23.379559
530.982910	1517.020020	35013.753906	9352.769531	23.392578
531.330383	1518.233032	35248.523438	9412.757813	23.404854
531.677795	1521.651489	35370.593750	9454.109375	23.434877
532.025208	1522.643921	35337.398438	9449.037109	23.440636
532.372498	1521.320801	35142.769531	9403.826172	23.444870
532.719788	1522.643921	34723.730469	9307.117188	23.446442
533.067078	1520.659180	34028.792969	9141.598633	23.443178
533.414307	1523.195435	33081.554688	8932.961914	23.479568
533.761536	1525.290649	32011.136719	8684.739258	23.484501
534.108643	1523.085083	31022.433594	8449.306641	23.479237
534.455811	1523.856934	30247.216797	8258.423828	23.446306
534.802856	1527.275635	29614.585938	8120.694336	23.474726
535.149902	1524.408447	29126.521484	8014.721680	23.513828
535.496887	1523.195313	28710.240234	7928.268066	23.559282
535.843811	1522.864624	28364.095703	7864.200195	23.625353
536.190796	1520.328247	28066.687500	7797.926270	23.647680
536.537659	1526.613892	27817.033203	7740.474609	23.635456
536.884460	1527.826782	27578.732422	7699.122070	23.689369
537.231323	1525.180298	27296.324219	7644.096191	23.743284
537.578064	1525.952148	27017.113281	7580.910156	23.753168
537.924805	1524.518677	26697.654297	7504.931641	23.757126
538.271423	1526.062500	26405.654297	7428.401855	23.723618
538.618164	1527.275391	26236.941406	7400.171875	23.767609
538.964783	1526.062378	26303.761719	7421.785645	23.794474
539.311279	1525.290405	26509.308594	7481.663574	23.840733
539.657776	1529.811523	26777.714844	7549.372070	23.841824
540.004333	1534.001831	27009.066406	7610.131836	23.851284
540.350769	1530.914307	27213.953125	7671.223145	23.908030
540.697144	1534.773926	27352.234375	7693.607910	23.855305
541.043518	1534.773926	27429.089844	7713.788086	23.862434
541.389893	1532.788940	27431.296875	7721.506836	23.896040
541.736145	1533.009521	27319.259766	7698.680664	23.910692
542.082458	1531.465698	27184.619141	7669.127930	23.925566
542.428711	1530.032104	27028.029297	7627.554199	23.913729
542.774902	1534.443115	26874.091797	7602.302734	23.946108
543.121033	1534.001953	26771.865234	7575.285645	23.937382
543.467102	1535.766357	26708.130859	7569.661621	23.970316
543.813171	1530.473389	26658.839844	7560.729980	23.997807
544.159180	1527.826782	26623.990234	7546.284180	23.981583
544.505127	1527.275269	26580.546875	7539.889160	23.999315
544.851135	1525.510986	26465.642578	7519.708496	24.034346
545.197021	1529.039673	26279.062500	7479.348145	24.041628
545.542908	1529.811523	25915.710938	7406.458984	24.098549
545.888733	1528.598633	25382.431641	7281.189941	24.116005
546.234558	1529.701416	24666.982422	7112.252441	24.127947
546.580322	1529.370483	23875.119141	6920.929199	24.127895
546.926025	1522.754150	23061.306641	6744.162109	24.242149
547.271667	1516.799438	22344.753906	6586.140625	24.339121
547.617371	1515.917236	21688.521484	6426.686035	24.343752
547.962952	1510.513916	21087.759766	6291.051270	24.418844
548.308533	1506.985229	20539.593750	6168.096680	24.490133
548.654053	1510.513916	20035.978516	6055.398438	24.533175
548.999573	1510.072876	19574.046875	5967.290527	24.674623
549.344971	1509.631836	19205.074219	5891.202637	24.761015
549.690430	1511.727051	18895.871094	5828.788086	24.833324
550.035767	1514.704468	18655.806641	5766.264160	24.803305
550.381104	1517.461182	18424.896484	5720.832031	24.861080
550.726440	1517.350952	18201.921875	5675.510254	24.922184
551.071655	1521.872070	17961.861328	5628.975098	24.982397
551.416931	1523.305664	17699.191406	5569.538086	25.013977
551.762085	1523.305664	17417.554688	5511.534668	25.092278
552.107178	1526.393188	17137.240234	5445.150391	25.102785
552.452332	1527.937012	16865.531250	5384.721191	25.145954
552.797424	1528.488281	16617.859375	5324.953613	25.159864
553.142395	1529.039551	16403.378906	5277.205566	25.198874
553.487366	1531.906494	16235.324219	5235.300781	25.187302
553.832336	1533.450439	16092.630859	5207.181152	25.233088
554.177185	1538.192261	15982.911133	5183.362305	25.235313
554.522095	1537.199707	15885.650391	5155.794434	25.219410
554.866943	1540.508057	15797.429688	5136.386719	25.221985
555.211731	1540.177246	15707.779297	5122.602539	25.286039
555.556396	1542.162109	15630.037109	5108.928711	25.317989
555.901123	1536.758667	15550.971680	5093.380371	25.378675
556.245789	1533.891602	15491.977539	5075.406250	25.372496
556.590454	1533.340454	15421.841797	5058.313965	25.380520
556.934998	1535.656006	15336.601563	5045.191406	25.429674
557.279541	1531.135010	15230.741211	5034.605469	25.573511
557.624023	1529.260376	15136.675781	5012.771484	25.600096
557.968567	1528.488403	15005.562500	4978.807129	25.601395
558.312988	1526.393188	14903.338867	4964.141113	25.699051
558.657349	1528.267822	14807.733398	4948.482422	25.755665
559.001770	1528.708862	14752.045898	4930.729004	25.727394
559.346069	1524.628784	14695.036133	4923.560059	25.807335
559.690308	1524.187622	14652.139648	4914.959473	25.828644
560.034485	1519.445923	14622.696289	4909.445801	25.871445
560.378723	1517.681519	14593.473633	4912.203125	25.960350
560.722900	1515.365845	14547.491211	4913.195313	26.072721
561.067017	1513.380981	14502.721680	4907.350586	26.128883
561.411072	1513.932251	14474.269531	4898.860352	26.117594
561.755127	1513.380859	14445.488281	4900.845215	26.194218
562.099182	1512.057617	14444.275391	4906.909668	26.251120
562.443115	1513.711914	14463.792969	4914.518555	26.260891
562.787048	1512.609131	14476.474609	4919.590820	26.280602
563.130920	1517.020142	14514.077148	4929.405273	26.255062
563.474792	1519.997437	14593.033203	4946.717773	26.212122
563.818604	1519.887085	14671.437500	4966.015625	26.203209
564.162354	1516.689209	14778.511719	4989.062500	26.183229
564.506042	1522.202881	14880.733398	5009.683105	26.106766
564.849731	1525.290405	14948.110352	5025.672852	26.077845
565.193420	1526.723999	15022.654297	5043.096191	26.055054
565.537048	1527.054688	15072.498047	5053.902832	26.037155
565.880615	1524.959595	15111.315430	5065.260742	26.057770
566.224121	1526.723877	15117.048828	5070.553711	26.076122
566.567627	1533.781372	15125.760742	5077.832031	26.074574
566.911072	1532.788940	15127.083008	5085.220215	26.131781
567.254517	1536.758789	15147.593750	5097.901855	26.164030
567.597839	1535.104858	15172.957031	5097.901855	26.124325
567.941223	1534.002075	15221.255859	5104.738770	26.088043
568.284485	1532.678833	15281.576172	5120.506836	26.095388
568.627808	1534.663696	15341.895508	5134.954102	26.075397
568.970947	1535.876709	15414.675781	5143.996094	25.997347
569.314148	1538.633545	15486.792969	5160.757324	25.968472
569.657288	1534.774048	15551.301758	5172.888184	25.955889
570.000366	1534.112305	15612.943359	5193.839844	25.994541
570.343445	1532.348022	15662.568359	5209.057129	26.020182
570.686462	1528.378174	15679.879883	5215.232422	26.052742
571.029419	1526.723999	15675.358398	5215.011719	26.068151
571.372314	1526.613770	15632.462891	5208.395020	26.101095
571.715210	1521.651367	15592.434570	5198.801270	26.133228
572.058105	1520.989990	15575.562500	5191.522949	26.116291
572.400879	1521.872070	15552.845703	5190.861328	26.149214
572.743713	1518.563843	15550.087891	5180.936523	26.101030
573.086426	1520.328125	15549.425781	5178.621094	26.076468
573.429077	1521.982178	15559.351563	5183.914063	26.087025
573.771790	1517.902100	15557.585938	5175.533691	26.052094
574.114441	1517.571289	15556.593750	5168.255371	26.003834
574.457031	1516.248047	15535.863281	5160.426270	25.993425
574.799561	1519.115112	15488.666992	5151.825195	26.004484
575.142029	1518.674072	15425.588867	5136.938477	26.017736
575.484436	1520.438477	15341.343750	5112.126465	25.987356
575.826904	1518.674194	15231.954102	5094.372559	26.074711
576.169250	1519.666626	15101.721680	5074.082520	26.169943
576.511597	1518.012573	14939.840820	5041.000977	26.248199
576.853943	1521.320679	14764.176758	4999.538086	26.264856
577.196167	1524.518555	14579.801758	4949.805176	26.236786
577.538391	1523.526123	14387.044922	4899.300293	26.243008
577.880554	1526.503296	14197.925781	4857.175781	26.284912
578.222717	1527.606079	14013.992188	4809.759766	26.285860
578.564819	1527.936890	13843.730469	4770.833496	26.331202
578.906860	1531.906860	13668.176758	4730.032715	26.351805
579.248901	1529.039795	13486.114258	4691.768066	26.450687
579.590942	1528.488525	13311.665039	4654.275391	26.527540
579.932861	1530.473267	13130.047852	4619.098633	26.627060
580.274780	1531.576050	12965.851563	4580.723633	26.666731
580.616638	1528.929443	12799.669922	4542.679199	26.739590
580.958496	1528.267822	12642.088867	4512.685059	26.853205
581.300232	1525.400757	12493.443359	4482.801270	26.963793
581.641968	1525.841919	12354.940430	4448.395996	26.987972
581.983704	1524.187744	12222.283203	4419.394531	27.062824
582.325317	1525.841919	12101.534180	4394.692871	27.126839
582.666992	1527.275391	11995.232422	4378.262695	27.235374
583.008606	1529.591187	11896.317383	4353.341309	27.238588
583.350098	1530.693970	11814.714844	4332.058594	27.239977
583.691589	1529.039917	11735.871094	4315.296875	27.297962
584.033081	1530.473511	11675.662109	4303.166992	27.330132
584.374512	1529.150146	11635.742188	4295.888672	27.375584
584.715881	1530.804199	11580.606445	4291.478027	27.469931
585.057190	1531.245361	11526.683594	4276.922363	27.469299
585.398499	1526.613770	11487.756836	4275.047852	27.591555
585.739807	1531.355469	11463.937500	4266.226074	27.534336
586.081055	1531.134888	11458.313477	4258.838379	27.477129
586.422180	1532.347900	11440.449219	4261.374023	27.543381
586.763367	1531.134888	11435.597656	4260.271484	27.554617
587.104431	1532.237671	11436.257813	4257.955566	27.521326
587.445496	1529.370483	11437.471680	4261.263672	27.572315
587.786499	1529.039795	11440.559570	4263.910156	27.592846
588.127502	1532.237671	11449.160156	4262.917969	27.535559
588.468445	1533.340332	11450.815430	4261.924805	27.512896
588.809326	1533.560913	11456.659180	4266.666504	27.542864
589.150208	1536.207520	11464.377930	4265.674316	27.492144
589.491028	1537.751343	11463.717773	4262.917969	27.454922
589.831848	1533.450562	11459.858398	4261.042969	27.478140
590.172546	1529.591187	11462.835938	4260.161133	27.489202
590.513245	1527.385620	11457.653320	4256.962891	27.487448
590.853943	1526.723999	11469.452148	4252.000977	27.409748
591.194458	1523.084961	11473.973633	4256.301270	27.467058
591.535095	1526.282837	11476.620117	4262.145996	27.495182
591.875610	1528.819214	11484.891602	4260.822266	27.440569
592.216125	1524.739014	11512.017578	4274.165527	27.529287
592.556580	1528.819214	11542.123047	4281.112793	27.486368
592.897034	1527.385620	11559.435547	4284.641602	27.484472
593.237366	1524.408203	11564.838867	4293.573730	27.580147
593.577698	1529.260254	11603.103516	4298.205078	27.486477
593.918030	1530.252686	11650.410156	4311.106934	27.478371
594.258301	1531.686401	11705.215820	4324.339844	27.450191
594.598511	1533.450684	11771.158203	4340.108398	27.414906
594.938721	1535.325317	11857.501953	4355.767090	27.324100
595.278809	1534.443115	11935.464844	4375.064941	27.310989
595.618958	1537.861328	11997.327148	4395.906250	27.324961
595.958984	1535.876587	12031.291016	4407.485352	27.360605
596.299011	1534.663574	12048.934570	4415.204102	27.396482
596.638977	1534.112305	12065.916992	4417.409668	27.377048
596.978943	1536.317749	12067.018555	4415.204102	27.338030
597.318848	1538.302490	12054.998047	4410.572754	27.311529
597.658630	1541.720947	12036.031250	4409.690430	27.328804
597.998474	1541.941650	12002.398438	4407.595703	27.395113
598.338257	1541.610718	11959.060547	4405.059570	27.487040
598.677979	1536.648438	11904.476563	4395.245117	27.571798
599.017700	1535.986938	11873.490234	4389.842285	27.606817
599.357361	1536.317749	11823.316406	4373.962891	27.584770
599.696960	1537.530640	11767.958984	4360.178711	27.590710
600.036560	1535.104736	11732.892578	4354.775391	27.649826
600.376038	1537.420532	11709.957031	4352.238770	27.670763
600.715576	1535.215088	11680.955078	4346.173340	27.705797
601.055054	1530.473267	11653.055664	4340.879883	27.763735
601.394409	1530.142456	11614.680664	4342.424316	27.887066
601.733826	1529.260376	11593.729492	4338.233398	27.909800
602.073120	1523.195435	11560.426758	4334.153320	28.005312
602.412415	1519.335693	11560.868164	4332.940918	28.019680
602.751587	1515.366089	11583.473633	4337.020996	28.025673
603.090820	1516.578979	11618.099609	4337.792969	27.928606
603.429993	1518.563843	11665.185547	4350.805176	27.913143
603.769104	1517.902100	11700.142578	4363.596680	27.947628
604.108154	1517.240479	11724.841797	4373.741699	27.984058
604.447205	1517.571289	11761.012695	4382.894531	27.972271
604.786194	1516.358276	11777.001953	4393.039063	28.036064
605.125183	1519.666504	11801.591797	4397.780762	27.991976
605.464111	1522.423340	11833.351563	4399.104492	27.899343
605.802979	1524.849121	11869.520508	4403.405273	27.826462
606.141846	1523.415527	11894.111328	4410.793457	27.841700
606.480652	1525.621338	11927.525391	4421.379395	27.838730
606.819336	1524.187622	11986.520508	4436.045898	27.831827
607.158020	1522.202759	12036.363281	4453.689453	27.881321
607.496765	1518.453491	12074.296875	4465.819336	27.921650
607.835388	1515.255615	12102.967773	4474.971680	27.954256
608.173950	1520.328369	12105.945313	4481.478027	27.973330
608.512512	1522.313110	12089.955078	4474.641602	27.937441
608.851013	1523.415771	12038.128906	4461.298340	27.940683
609.189514	1528.708862	11961.158203	4437.920898	27.886183
609.527893	1531.575928	11846.584961	4411.455566	27.919313
609.866333	1536.428101	11725.615234	4375.727051	27.865803
610.204712	1538.082153	11597.809570	4345.402344	27.906525
610.542969	1536.317749	11477.282227	4322.244629	28.024712
610.881226	1535.545898	11375.941406	4304.160156	28.135193
611.219482	1536.538330	11296.544922	4281.774414	28.127399
611.557678	1534.774048	11222.221680	4265.013184	28.183268
611.895813	1534.001953	11170.172852	4243.950684	28.122671
612.233948	1529.370605	11119.116211	4225.866211	28.118530
612.571960	1530.693848	11067.949219	4207.561035	28.067478
612.910034	1530.693848	11004.432617	4186.057617	28.028679
613.247986	1530.032227	10945.435547	4165.216309	27.988010
613.585938	1525.510986	10878.611328	4147.241699	28.030605
613.923828	1526.723877	10775.286133	4121.989258	28.061283
614.261658	1528.708740	10655.861328	4089.348877	28.055193
614.599487	1530.583374	10533.898438	4054.392578	28.031996
614.937317	1532.899170	10426.493164	4031.125000	28.090172
615.275024	1529.921753	10327.688477	3999.256348	28.067743
615.612732	1525.951904	10242.007813	3974.996338	28.098082
615.950378	1524.297852	10159.083008	3955.808350	28.159479
616.288025	1523.856812	10087.185547	3947.317383	28.300447
616.625549	1523.415649	10036.679688	3935.407715	28.332169
616.963074	1522.092407	9979.669922	3931.658447	28.490026
617.300537	1521.761597	9949.125000	3924.270508	28.508429
617.638000	1521.761597	9913.396484	3907.509033	28.430069
617.975464	1523.636230	9882.080078	3891.519775	28.329241
618.312744	1525.952026	9843.483398	3891.188965	28.436766
618.650024	1523.746582	9816.908203	3883.910645	28.459158
618.987305	1523.526001	9787.244141	3881.374512	28.532541
619.324585	1529.370483	9754.933594	3876.522949	28.534851
619.661743	1528.267822	9729.902344	3878.397217	28.654402
619.998901	1531.465820	9711.817383	3878.507813	28.691212
620.336060	1534.001953	9686.896484	3880.933350	28.786480
620.673096	1539.184814	9661.203125	3873.986572	28.746571
621.010193	1538.633423	9631.980469	3872.001953	28.830700
621.347168	1535.766357	9616.762695	3870.898926	28.896593
621.684082	1534.773926	9601.544922	3868.362305	28.928408
622.020996	1535.545898	9580.703125	3857.004150	28.855350
622.357849	1540.397827	9554.568359	3853.033936	28.856838
622.694641	1540.397827	9528.212891	3849.064453	28.902353
623.031433	1541.941650	9508.142578	3849.284912	28.964161
623.368164	1542.162231	9502.850586	3837.375732	28.831844
623.704895	1541.059570	9505.497070	3838.258301	28.843201
624.041504	1537.971924	9534.609375	3839.581543	28.782217
624.378174	1534.663818	9550.929688	3844.764160	28.817661
624.714783	1534.994629	9583.019531	3852.152588	28.791636
625.051331	1531.906982	9605.955078	3859.981689	28.834047
625.387756	1531.024780	9641.573242	3865.385010	28.781782
625.724304	1531.906860	9667.598633	3875.529785	28.806684
626.060669	1535.656128	9673.332031	3878.948730	28.795599
626.397034	1532.678955	9680.831055	3883.580078	28.851954
626.733337	1532.568604	9681.161133	3889.093750	28.919413
627.069641	1527.716553	9676.640625	3890.858154	28.999432
627.405884	1528.267944	9668.479492	3883.801025	28.937002
627.742126	1527.937012	9663.517578	3883.138672	28.949398
628.078308	1523.526123	9658.775391	3878.286865	28.945158
628.414429	1523.526123	9645.101563	3872.111572	28.917856
628.750488	1524.959595	9631.758789	3871.669922	28.947435
629.086548	1526.062256	9595.479492	3863.951172	28.972216
629.422546	1523.526123	9564.051758	3858.768311	29.043404
629.758545	1525.069824	9526.228516	3851.821045	29.080179
630.094421	1524.187744	9472.195313	3836.052490	29.087349
630.430298	1525.290405	9417.831055	3824.805176	29.135290
630.766113	1526.282959	9351.777344	3809.917725	29.181988
631.101929	1529.260254	9271.388672	3791.944092	29.225605
631.437622	1531.575928	9189.014648	3779.262207	29.352978
631.773376	1529.149902	9111.272461	3768.014404	29.528202
632.109070	1529.149902	9044.116211	3753.789551	29.602789
632.444641	1525.510864	8975.857422	3737.358643	29.687849
632.780273	1528.378052	8906.606445	3720.376465	29.709009
633.115784	1525.069946	8849.706055	3709.128662	29.817980
633.451294	1521.872070	8788.946289	3696.557617	29.925186
633.786682	1520.438477	8727.304688	3681.229492	29.982393
634.122131	1521.982178	8668.307617	3665.239990	29.991049
634.457458	1520.107666	8613.833008	3654.433105	30.087511
634.792847	1519.997314	8549.323242	3643.516113	30.209421
635.128113	1524.739136	8485.807617	3632.269043	30.275953
635.463318	1526.613770	8434.750000	3616.499512	30.252527
635.798584	1525.841919	8377.078125	3604.260010	30.336393
636.133728	1525.952148	8329.109375	3596.761475	30.438946
636.468872	1525.290527	8283.125000	3577.022217	30.360786
636.803955	1524.739136	8240.559570	3561.142822	30.322487
637.139038	1526.613770	8204.279297	3544.933350	30.224928
637.473999	1525.069946	8163.147949	3540.301270	30.358656
637.808899	1525.400757	8111.651855	3530.046143	30.436821
638.143799	1522.202759	8053.869141	3522.436768	30.623640
638.478638	1523.415771	7994.541504	3505.234375	30.625561
638.813538	1528.047363	7933.230469	3485.826660	30.565548
639.148315	1530.252808	7868.169434	3471.159912	30.623741
639.483032	1530.583496	7802.336914	3451.531982	30.628572
639.817749	1529.150024	7742.680176	3434.439697	30.663561
640.152405	1527.165161	7685.999023	3412.495605	30.611809
640.487000	1529.480835	7628.216309	3401.468262	30.694681
640.821594	1528.819214	7575.727539	3384.376221	30.686045
641.156128	1528.598511	7530.735840	3370.812988	30.692642
641.490662	1528.267822	7483.979980	3355.264160	30.676373
641.825134	1524.959595	7437.886230	3339.495117	30.687603
642.159546	1522.092651	7393.886719	3323.836426	30.684725
642.493896	1519.666626	7349.887695	3313.471436	30.767355
642.828186	1517.902222	7319.563477	3300.017578	30.717329
643.162537	1516.358398	7284.606934	3295.055420	30.835999
643.496765	1515.696777	7244.688477	3294.062500	31.041513
643.830994	1516.027588	7218.002441	3288.549072	31.086100
644.165100	1513.380981	7196.499023	3283.917725	31.154318
644.499268	1510.293457	7173.011230	3280.279053	31.256823
644.833313	1509.301025	7158.014160	3276.639893	31.287462
645.167358	1515.035156	7139.157715	3271.346680	31.228188
645.501343	1513.491211	7132.981934	3267.928467	31.220573
645.835327	1509.962524	7123.058105	3269.362061	31.344549
646.169189	1508.529053	7114.456055	3259.768311	31.239067
646.503052	1512.057617	7104.311035	3257.783447	31.216858
646.836914	1513.932251	7088.541504	3254.475098	31.222687
647.170654	1516.578979	7080.492676	3256.901123	31.278742
647.504395	1517.461182	7083.359375	3253.372314	31.188337
647.838074	1520.107666	7085.785156	3243.999268	30.973616
648.171753	1518.563965	7084.130859	3242.455322	30.974228
648.505371	1519.666626	7081.926270	3245.653320	31.030313
648.838928	1519.666626	7087.440430	3244.660645	30.981754
649.172424	1521.982300	7097.144531	3251.166748	31.015860
649.505920	1522.754150	7098.687500	3252.710449	31.025412
649.839294	1523.526245	7092.181641	3254.364502	31.081799
650.172729	1525.070068	7090.195801	3248.299805	30.964792
650.506104	1525.731567	7093.063965	3249.402588	30.960447
650.839355	1524.959595	7090.638184	3249.843750	30.991444
651.172668	1528.157593	7082.256836	3248.961670	30.982595
651.505859	1533.671265	7068.252441	3243.558105	30.894604
651.839111	1538.082153	7056.342773	3241.793457	30.874063
652.172241	1535.876709	7041.786621	3232.530762	30.815142
652.505371	1535.435547	7022.710449	3229.442627	30.871555
652.838379	1536.648560	7007.603516	3221.392822	30.794336
653.171387	1536.758789	6991.062500	3221.172607	30.882288
653.504333	1537.310181	6964.927734	3219.187500	30.987394
653.837280	1534.001953	6946.622559	3214.225342	31.042696
654.170227	1533.781494	6934.712891	3212.019775	31.073126
654.503052	1535.214966	6922.582520	3203.308350	30.963051
654.835876	1537.751221	6907.695801	3205.293213	31.053246
655.168579	1542.713379	6891.927246	3205.844482	31.091131
655.501343	1541.279907	6883.436035	3206.837158	31.177622
655.833984	1544.477783	6877.039551	3210.145020	31.235781
656.166626	1543.044312	6878.804199	3208.160645	31.206734
656.499268	1544.588013	6896.999023	3213.122803	31.173517
656.831787	1545.580444	6924.126465	3222.165283	31.171713
657.164307	1540.287598	6959.083496	3234.294922	31.261692
657.496765	1539.625854	6995.473145	3239.036865	31.148436
657.829224	1541.059448	7031.642090	3243.778564	31.011629
658.161621	1538.302612	7066.819336	3257.121582	31.090057
658.493958	1535.986938	7092.732910	3265.723145	31.128580
658.826233	1532.568604	7112.912109	3272.229248	31.174793
659.158508	1530.032227	7145.002441	3282.153564	31.204464
659.490723	1530.914429	7156.470215	3281.050537	31.110458
659.822876	1531.576050	7165.181641	3281.712402	31.066008
660.154968	1531.245239	7168.710449	3283.807617	31.087772
660.487061	1529.921875	7173.231934	3284.248779	31.086842
660.819153	1531.906860	7170.034180	3282.705078	31.052832
661.151123	1530.473267	7159.007324	3276.529297	31.021505
661.483093	1531.134888	7142.245605	3278.734863	31.145348
661.815002	1528.708740	7124.049805	3276.308838	31.233130
662.146851	1524.077393	7100.892090	3269.582275	31.299318
662.478760	1521.320557	7082.146484	3258.995850	31.248510
662.810486	1519.666504	7055.461426	3254.033447	31.330044
663.142212	1519.004883	7017.968750	3241.021484	31.315292
663.473938	1521.430908	6967.243164	3226.465332	31.309092
663.805603	1521.320557	6898.985352	3206.506348	31.336756
664.137207	1523.967041	6828.961914	3183.900391	31.290007
664.468689	1525.400635	6759.269531	3169.013428	31.403399
664.800293	1526.172607	6684.834961	3160.412598	31.679531
665.131775	1529.921875	6612.826660	3140.011963	31.676575
665.463196	1529.480713	6554.823730	3126.448242	31.778280
665.794617	1531.906860	6497.812500	3109.907227	31.776688
666.125916	1537.530640	6446.314941	3097.667236	31.782547
666.457275	1537.971802	6413.785156	3090.830078	31.848188
666.788574	1536.979370	6383.789551	3080.243896	31.840830
667.119812	1539.295044	6353.906250	3073.737793	31.870543
667.450928	1540.397827	6330.308105	3067.010986	31.871437
667.782104	1540.177368	6313.988281	3062.710693	31.893456
668.113159	1540.397827	6295.461914	3055.873535	31.870775
668.444214	1535.876709	6287.633301	3051.352295	31.892954
668.775208	1536.758789	6277.928711	3050.360107	31.924637
669.106201	1540.067017	6267.453125	3043.964355	31.812449
669.437134	1543.044312	6245.729004	3038.009766	31.789618
669.768005	1546.904053	6219.263184	3030.621582	31.755211
670.098877	1548.999146	6209.559570	3031.062500	31.800110
670.429688	1548.227295	6190.813477	3028.195801	31.878107
670.760437	1550.101929	6188.717773	3024.446289	31.784145
671.091187	1550.542969	6176.477539	3021.579346	31.799767
671.421814	1549.109375	6162.472656	3018.271240	31.845787
671.752441	1546.573120	6143.506836	3010.883057	31.854059
672.083008	1542.934204	6130.383789	3009.339355	31.965586
672.413574	1544.367798	6119.577148	2999.414551	31.802845
672.744080	1539.846558	6102.816406	2995.003418	31.890566
673.074524	1536.758911	6089.362793	2986.733154	31.849339
673.404968	1535.876709	6066.977539	2979.455322	31.859337
673.735352	1536.869019	6040.401855	2978.131836	32.002937
674.065613	1533.560913	6016.141602	2969.199707	32.027061
674.395935	1531.355469	6001.144531	2963.465332	32.039764
674.726196	1528.819214	5980.192871	2959.054443	32.130199
675.056335	1529.150024	5964.313965	2957.510498	32.205357
675.386536	1531.796509	5940.384766	2953.650879	32.251919
675.716614	1528.929443	5925.387695	2940.749023	32.112659
676.046692	1526.503296	5913.808594	2936.999756	32.149494
676.376770	1526.834229	5913.698730	2939.425537	32.200478
676.706726	1523.856812	5920.866699	2940.748779	32.223991
677.036621	1524.518555	5919.323242	2942.623779	32.267765
677.366516	1525.290405	5932.114746	2947.145020	32.264835
677.696411	1521.210327	5936.635254	2948.799072	32.331856
678.026184	1518.343384	5951.631836	2953.209717	32.365734
678.355957	1517.902100	5965.967285	2951.997070	32.240868
678.685669	1519.997314	5992.542969	2949.681152	31.965773
679.015320	1519.666626	6014.707520	2952.548340	31.876944
679.344971	1521.210449	6027.168945	2957.069824	31.865793
679.674561	1522.313232	6048.010254	2965.119873	31.880318
680.004150	1517.240723	6064.110352	2969.310303	31.935589
680.333618	1518.453735	6078.115234	2971.184814	31.860502
680.663086	1517.791992	6094.435059	2971.515625	31.763971
680.992493	1519.997437	6107.778320	2977.469971	31.768574
681.321899	1521.761719	6110.093750	2978.904053	31.757561
681.651184	1523.746704	6108.219238	2976.698486	31.692888
681.980530	1526.393188	6103.146973	2974.823730	31.647551
682.309753	1526.723999	6094.655762	2972.067139	31.641085
682.638977	1527.385498	6081.533691	2974.823730	31.782852
682.968079	1528.929199	6066.426270	2975.044189	31.870323
683.297241	1531.024414	6046.797852	2969.309814	31.850256
683.626343	1532.678589	6027.499512	2964.678467	31.858887
683.955383	1530.803955	5996.403320	2958.062012	31.961174
684.284363	1533.340332	5959.351563	2951.997314	32.052719
684.613281	1533.119751	5924.835938	2941.631592	32.072014
684.942139	1531.355469	5886.681641	2934.022705	32.205791
685.271057	1532.348022	5854.041016	2930.604492	32.354370
685.599792	1529.260376	5815.224121	2927.296387	32.618942
685.928589	1530.363037	5784.348633	2922.775146	32.731945
686.257324	1527.716553	5753.692871	2916.379150	32.860157
686.585999	1528.488525	5724.580566	2903.366943	32.765690
686.914612	1531.024780	5680.582031	2891.898682	32.795643
687.243164	1531.024780	5642.647949	2889.362305	33.036530
687.571777	1531.245117	5601.516602	2882.415039	33.196064
687.900269	1530.363037	5560.385254	2874.034180	33.341534
688.228699	1528.378052	5526.420898	2862.565918	33.371025
688.557129	1530.362915	5496.758301	2852.641357	33.337029
688.885498	1526.393188	5467.314941	2847.458740	33.521740
689.213867	1525.510986	5442.834473	2839.298828	33.537895
689.542114	1524.628906	5421.772461	2834.998047	33.623837
689.870361	1523.636475	5396.079102	2827.719971	33.675991
690.198608	1522.313110	5375.126465	2819.890625	33.678699
690.526794	1522.533813	5343.258301	2813.384766	33.785500
690.854858	1522.313110	5320.982910	2806.327393	33.801682
691.182922	1516.248169	5299.259277	2798.828857	33.903698
691.510986	1516.358398	5276.433105	2793.756348	33.972675
691.838928	1521.320679	5241.477051	2779.420898	33.818478
692.166931	1522.974731	5200.455566	2765.636963	33.791126
692.494812	1526.282837	5167.484375	2755.271240	33.752274
692.822632	1525.841797	5120.288086	2743.251221	33.869179
693.150452	1527.495850	5083.236328	2734.650146	33.949448
693.478149	1525.952148	5042.655762	2729.246582	34.216545
693.805908	1527.826782	5017.734375	2725.166504	34.308636
694.133606	1527.606079	4996.671875	2718.329590	34.324039
694.461243	1529.039673	4976.712402	2712.485107	34.325920
694.788818	1530.583496	4963.038086	2709.948730	34.359238
695.116333	1532.458130	4961.714844	2711.161621	34.371979
695.443848	1532.347900	4954.547363	2717.667725	34.636200
695.771301	1534.663452	4967.780273	2722.850586	34.609577
696.098755	1536.869019	4989.614258	2732.554443	34.629993
696.426147	1538.302612	5020.049316	2739.501709	34.499901
696.753418	1537.751343	5064.489258	2749.867432	34.369328
697.080688	1537.530640	5103.635742	2761.005127	34.308426
697.407898	1537.199829	5152.597168	2772.032471	34.154823
697.735107	1537.310059	5187.553223	2782.618408	34.115765
698.062317	1540.066895	5222.729980	2793.755859	34.042999
698.389404	1541.831421	5252.503906	2800.482422	33.919754
698.716492	1540.949097	5280.292480	2809.414795	33.922153
699.043457	1536.427979	5295.730957	2818.677734	34.108711
699.370483	1534.884155	5303.449219	2820.772949	34.121445
699.697388	1536.207397	5314.476563	2822.537354	34.045483
700.024292	1536.648438	5318.777832	2822.868164	34.007820
700.351135	1538.192261	5310.507324	2819.339355	33.961826
700.677917	1537.309937	5302.567383	2817.244141	33.993275
701.004639	1538.192139	5290.989258	2811.951172	33.941589
701.331299	1538.853760	5274.338379	2809.414795	34.013287
701.658020	1535.876465	5256.915039	2795.299805	33.846016
701.984619	1535.435303	5223.171387	2787.690918	33.957302
702.311218	1537.640747	5193.177246	2773.686523	33.812977
702.637756	1539.074341	5146.642578	2760.343262	33.852966
702.964233	1536.207275	5091.506348	2744.022949	33.972267
703.290649	1532.678711	5023.027344	2728.805420	34.269547
703.617065	1532.237671	4950.688477	2710.279785	34.461288
703.943481	1531.024658	4864.344727	2692.746582	34.851795
704.269775	1528.708862	4791.344238	2668.376221	34.930885
704.596008	1528.267822	4730.583984	2649.519531	35.013771
704.922241	1525.510986	4663.869141	2631.986084	35.256496
705.248474	1526.503418	4603.991211	2622.612793	35.617020
705.574585	1524.959717	4556.352539	2614.673584	35.947628
705.900696	1525.400757	4518.529297	2608.718262	36.193485
706.226746	1526.503540	4489.969238	2601.109863	36.261810
706.552734	1525.621338	4460.085449	2594.714111	36.432301
706.878723	1523.526245	4434.391602	2592.618896	36.727657
707.204651	1522.533813	4421.049316	2589.200439	36.800446
707.530518	1526.282959	4410.683105	2592.508545	36.965244
707.856323	1523.526123	4401.089844	2592.949707	37.164200
708.182068	1521.761719	4400.096680	2589.861816	37.108261
708.507813	1526.282837	4397.781250	2598.132324	37.327183
708.833496	1525.841797	4395.465332	2601.330078	37.478374
709.159180	1522.092407	4407.264648	2612.026611	37.777092
709.484802	1519.335693	4415.645020	2615.003906	37.829807
709.810303	1521.982178	4421.489746	2619.304443	37.845123
710.135864	1522.643799	4431.855469	2624.597412	37.878082
710.461304	1523.415771	4434.281738	2630.221436	38.023243
710.786743	1522.754150	4447.514648	2632.647461	37.948177
711.112122	1522.974731	4447.183594	2641.579590	38.253246
711.437500	1524.739136	4451.043457	2643.564941	38.233406
711.762817	1526.723999	4454.351074	2642.572510	38.114437
712.088013	1525.952148	4456.335938	2643.344238	38.131252
712.413269	1532.017090	4455.343262	2641.469482	37.951714
712.738403	1533.009521	4461.628906	2634.412354	37.608261
713.063538	1530.142578	4457.989746	2632.868408	37.663368
713.388611	1526.282959	4458.431152	2634.412109	37.792400
713.713623	1523.085083	4456.666992	2629.891357	37.728832
714.038574	1522.533691	4455.343750	2633.089111	37.866600
714.363525	1517.571411	4444.757813	2628.898682	37.965714
714.688477	1518.784424	4438.692871	2625.479980	37.901722
715.013306	1518.233032	4424.467285	2624.708252	38.072472
715.338135	1517.240479	4405.832031	2622.502686	38.263016
715.662842	1516.799438	4392.268066	2615.004395	38.192207
715.987549	1514.704346	4365.250977	2600.007324	38.073505
716.312195	1515.586548	4337.020996	2597.360840	38.341286
716.636841	1510.072876	4309.893555	2590.634033	38.593941
716.961426	1512.940063	4277.473633	2579.827393	38.591946
717.285950	1510.624390	4246.596680	2570.895264	38.752983
717.610474	1510.513916	4219.910645	2563.837891	38.876698
717.934937	1511.616699	4188.042480	2555.457031	39.001282
718.259277	1510.293579	4158.048828	2550.604736	39.290306
718.583679	1511.065308	4126.400391	2545.311768	39.545467
718.908020	1511.506470	4098.060059	2541.121582	39.806446
719.232239	1507.205811	4065.860107	2534.505127	40.149986
719.556519	1505.882568	4031.344971	2528.660889	40.498657
719.880737	1508.529053	4001.350830	2526.124512	40.821026
720.204834	1513.270752	3963.527588	2519.287598	41.057610
720.528931	1516.248047	3929.343262	2515.097168	41.392860
720.852966	1519.335693	3900.341797	2506.055176	41.441284
721.176941	1523.305542	3871.340088	2499.218262	41.562962
721.500916	1525.069824	3841.566650	2490.837158	41.690857
721.824829	1525.510986	3815.542480	2483.448730	41.830769
722.148743	1523.967041	3794.039063	2474.075928	41.853687
722.472534	1524.849243	3771.322266	2467.680176	41.969383
722.796326	1528.047241	3750.590820	2470.877930	42.421249
723.119995	1527.716553	3727.654297	2462.386719	42.486210
723.443665	1531.796631	3714.201172	2454.447266	42.276791
723.767334	1531.686279	3707.695801	2450.808105	42.238869
724.090942	1534.774048	3705.820801	2448.271973	42.076378
724.414551	1535.435547	3699.424561	2447.059082	42.126995
724.737976	1536.207520	3699.755615	2444.081543	41.962276
725.061462	1539.405396	3692.477783	2442.758301	41.956459
725.384888	1539.405518	3692.257324	2442.758301	41.960751
725.708252	1540.949341	3693.801270	2442.647949	41.883911
726.031616	1539.736206	3705.379883	2447.830811	41.931858
726.354858	1541.390381	3719.053223	2452.462402	41.837147
726.678162	1537.751343	3719.604980	2455.439697	42.060036
727.001404	1536.317749	3735.263428	2459.409668	41.978840
727.324463	1538.964355	3741.769775	2464.592529	42.020424
727.647583	1536.758911	3746.511230	2466.136230	42.057983
727.970642	1536.648682	3750.922363	2465.474854	41.947216
728.293701	1536.758789	3754.451172	2472.201172	42.180889
728.616699	1534.002075	3762.831543	2476.612061	42.291702
728.939575	1531.465820	3774.961670	2478.156006	42.197102
729.262512	1528.929443	3786.760742	2484.772217	42.334553
729.585266	1530.473267	3800.875732	2489.072998	42.221581
729.908142	1531.796631	3818.629883	2496.791992	42.197887
730.230896	1532.678711	3826.128418	2507.819092	42.518497
730.553467	1533.450562	3835.611572	2516.751221	42.712070
730.876160	1534.773926	3837.927002	2524.911377	42.990520
731.198792	1536.097290	3846.527832	2532.079102	43.108059
731.521362	1536.758911	3854.026855	2536.600342	43.147423
731.843872	1535.656128	3861.084473	2540.129150	43.195187
732.166321	1532.678711	3866.487793	2543.216797	43.299946
732.488770	1532.017212	3865.495117	2545.973633	43.452579
732.811157	1530.032227	3856.783447	2548.068848	43.753567
733.133484	1528.378174	3843.440918	2548.620117	44.069733
733.455811	1530.693848	3832.854248	2543.768066	44.005371
733.778015	1531.576172	3824.032715	2542.444824	44.095432
734.100281	1528.157593	3820.725098	2535.166748	43.924953
734.422424	1527.385742	3806.279053	2532.740723	44.115929
734.744507	1525.511108	3792.605713	2532.740967	44.428223
735.066589	1524.077515	3784.444824	2531.417480	44.565323
735.388611	1525.511108	3774.409912	2529.322754	44.635693
735.710571	1528.598755	3754.340820	2531.748535	45.070351
736.032532	1531.576172	3740.666748	2533.733643	45.365158
736.354431	1531.024780	3725.558838	2526.676270	45.369606
736.676270	1527.165161	3713.097900	2520.500488	45.442177
736.998108	1525.070068	3704.386475	2512.891846	45.327141
737.319824	1523.967407	3695.013428	2509.032471	45.372833
737.641541	1519.225586	3684.647949	2504.951904	45.521202
737.963135	1520.107788	3675.936768	2500.541260	45.478256
738.284790	1520.218018	3657.190430	2496.902100	45.704102
738.606323	1518.894775	3644.950439	2494.696533	45.897282
738.927856	1519.776978	3628.299072	2491.608887	46.090672
739.249390	1520.659180	3611.537598	2485.434082	46.142086
739.570740	1524.518677	3597.863770	2477.494385	45.963196
739.892212	1525.731567	3585.733643	2472.201172	45.945084
740.213562	1527.385620	3582.977051	2469.554688	45.834454
740.534790	1527.054810	3572.390625	2463.599854	45.789303
740.856079	1529.701416	3558.496582	2461.063721	45.907162
741.177246	1532.458130	3555.850098	2461.725342	45.926208
741.498413	1534.222534	3552.652588	2458.527344	45.793255
741.819580	1531.245117	3538.096436	2451.690430	45.865147
742.140625	1531.796509	3528.392578	2447.830811	45.879803
742.461670	1531.796509	3519.239502	2445.184570	45.957951
742.782654	1530.032104	3500.052002	2438.568115	46.118114
743.103577	1527.275146	3486.708984	2440.663086	46.614891
743.424438	1528.488159	3469.396484	2437.685791	46.843925
743.745300	1528.929443	3453.737305	2438.126953	47.235756
744.066101	1529.260132	3436.093750	2433.054443	47.397648
744.386902	1534.442871	3418.780762	2431.951904	47.629940
744.707581	1532.899048	3395.182617	2425.114746	47.909767
745.028198	1531.906616	3382.722168	2422.468262	48.117256
745.348816	1530.693726	3369.268555	2420.152588	48.377628
745.669373	1530.583374	3360.998535	2416.844238	48.418571
745.989929	1529.921753	3352.176758	2416.292725	48.641434
746.310364	1530.804077	3345.119141	2420.703857	49.048801
746.630798	1530.583496	3336.958740	2419.601074	49.215553
746.951172	1528.378052	3327.034180	2420.704102	49.610710
747.271545	1526.393066	3320.858887	2421.365723	49.874043
747.591858	1525.621216	3316.999268	2424.343018	50.169300
747.912109	1525.621216	3315.676025	2424.232910	50.200233
748.232300	1522.533569	3319.976563	2426.879395	50.312908
748.552429	1526.834229	3321.961426	2430.187256	50.322510
748.872559	1528.267822	3316.889160	2434.047119	50.641201
749.192627	1528.488403	3319.645752	2433.936523	50.551010
749.512695	1530.362915	3321.299805	2435.921387	50.563393
749.832642	1533.781494	3316.337891	2433.936768	50.497997
750.152588	1536.538208	3315.455322	2432.723877	50.378159
750.472473	1537.310181	3308.948975	2427.541016	50.249004
750.792358	1538.854126	3300.789551	2426.769043	50.394295
751.112122	1539.515747	3296.157715	2421.806641	50.225994
751.431824	1540.397827	3291.968018	2424.783936	50.491047
751.751587	1542.162109	3293.952393	2424.783936	50.383987
752.071228	1546.021606	3284.909912	2425.004883	50.548576
752.390869	1547.786133	3282.925537	2423.681641	50.479836
752.710327	1550.542847	3281.712402	2422.027588	50.340809
753.029846	1546.793579	3276.198730	2416.293213	50.277382
753.349304	1546.793579	3271.787598	2415.080078	50.335625
753.668762	1546.793579	3271.125732	2415.411133	50.374142
753.988098	1547.786011	3263.627197	2415.962158	50.597698
754.307434	1547.786011	3258.113770	2412.874512	50.580276
754.626770	1548.006470	3243.006348	2408.904785	50.790466
754.946045	1548.557861	3226.465820	2402.288330	50.880650
755.265259	1546.462646	3212.791748	2400.193115	51.234203
755.584351	1544.698242	3212.901855	2399.972656	51.269188
755.903442	1543.816162	3206.836670	2399.862305	51.475380
756.222534	1541.059204	3204.521484	2398.428711	51.541264
756.541565	1536.097046	3203.859863	2398.318359	51.699276
756.860535	1534.553223	3199.559082	2396.223145	51.751766
757.179443	1535.104614	3201.985107	2398.428711	51.792801
757.498291	1532.237549	3200.220703	2399.531738	51.996578
757.817139	1529.260254	3202.977295	2396.664307	51.825012
758.135925	1529.811523	3206.947510	2391.371338	51.370899
758.454651	1529.370483	3203.639160	2389.827393	51.393002
758.773376	1526.944580	3206.837158	2384.755127	51.063416
759.092041	1526.282959	3200.110596	2382.549561	51.156200
759.410645	1522.864502	3200.110596	2380.344238	51.124264
759.729187	1524.628784	3204.411133	2377.146240	50.751663
760.047607	1525.841797	3205.844971	2375.271484	50.561195
760.366089	1527.716431	3206.396240	2371.853516	50.285770
760.684509	1528.047119	3214.887207	2370.750732	49.957527
761.002869	1528.157471	3226.245117	2372.845947	49.743515
761.321228	1526.834229	3258.114258	2381.336670	49.356686
761.639465	1523.415771	3301.450928	2392.694824	48.889870
761.957642	1524.628784	3355.594971	2403.501221	48.000473
762.275879	1524.297974	3392.095215	2411.771729	47.514458
762.593994	1528.047241	3424.294678	2421.034424	47.092335
762.912109	1529.811646	3457.266357	2430.517822	46.730343
763.230103	1533.781494	3481.416016	2436.141846	46.331093
763.548157	1530.914429	3510.197266	2446.286621	46.247669
763.866150	1530.142578	3521.555176	2454.998291	46.442196
764.184021	1533.671265	3534.346680	2457.645264	46.183105
764.501892	1533.561157	3543.609863	2464.482178	46.313354
764.819702	1535.545898	3548.902832	2469.775146	46.401569
765.137451	1534.443115	3551.218262	2472.201172	46.497898
765.455200	1535.215088	3557.062988	2473.634766	46.413960
765.772888	1536.317749	3558.386230	2477.825195	46.561600
766.090515	1535.215088	3556.290527	2480.251221	46.759071
766.408081	1536.758789	3554.195313	2486.205811	47.062054
766.725586	1537.310181	3549.674805	2490.065186	47.345047
767.043091	1536.207397	3542.837891	2492.380859	47.650700
767.360535	1533.671143	3533.905518	2492.270752	47.924366
767.677917	1533.560791	3512.953613	2492.380859	48.440109
767.995239	1531.686157	3482.959473	2486.646484	48.940369
768.312500	1535.104614	3428.705322	2478.596680	49.825291
768.629822	1532.678711	3368.716797	2462.276367	50.630630
768.947021	1531.576050	3315.345703	2450.808105	51.533115
769.264160	1528.378174	3279.175537	2437.906250	51.949364
769.581299	1528.488281	3238.375000	2426.437988	52.515160
769.898376	1523.856812	3201.103027	2420.483154	53.458241
770.215393	1529.260132	3163.059082	2410.669189	53.948441
770.532349	1530.252563	3136.483643	2399.421387	54.112316
770.849304	1527.495850	3109.136230	2388.945313	54.465572
771.166199	1529.590942	3082.450195	2380.564453	54.800426
771.483032	1529.921753	3060.395264	2374.830566	55.205711
771.799866	1530.031982	3043.634033	2369.757813	55.478642
772.116577	1529.590942	3022.461670	2362.590332	55.798496
772.433350	1529.591064	3013.529541	2355.753418	55.673626
772.749939	1528.929443	2994.341797	2348.585693	55.933487
773.066589	1530.583374	2978.242188	2344.174805	56.200497
773.383057	1531.245117	2968.758545	2338.550781	56.159870
773.699646	1533.671021	2958.282959	2334.250000	56.196285
774.016113	1537.089478	2946.924561	2331.272949	56.331657
774.332520	1537.971680	2943.947266	2326.200195	56.062744
774.648804	1539.625610	2932.699463	2319.914551	56.012032
774.965149	1537.751099	2931.486328	2321.017334	56.199070
775.281433	1539.956543	2928.178223	2323.774170	56.461994
775.597656	1539.846313	2922.885010	2323.994873	56.697514
775.913879	1540.838867	2908.549561	2321.679199	57.091045
776.229980	1539.625854	2895.647949	2320.245605	57.566891
776.546082	1542.603149	2887.598145	2312.306152	57.227203
776.862122	1539.515503	2881.974121	2310.762207	57.450314
777.178162	1536.979248	2869.513428	2309.990234	58.010593
777.494141	1540.728516	2869.292725	2310.651855	57.951534
777.809998	1537.971680	2867.638672	2312.967529	58.284958
778.125854	1533.340332	2864.220215	2314.180420	58.670967
778.441711	1534.332642	2860.581299	2313.298096	58.734497
778.757446	1531.796509	2852.420898	2312.967529	59.151642
779.073181	1534.112183	2842.276123	2313.629395	59.588650
779.388855	1534.222412	2846.466309	2317.709229	59.705883
779.704468	1531.465576	2844.040283	2313.519043	59.581635
780.020020	1532.568359	2835.549561	2312.636719	59.867966
780.335571	1528.488403	2833.233887	2310.100586	59.905338
780.651062	1527.385620	2824.853271	2304.697266	59.909904
780.966553	1523.856934	2813.605225	2303.704834	60.465122
781.281860	1524.298096	2804.231934	2304.807617	60.980457
781.597290	1525.511108	2792.984131	2300.617432	61.153675
781.912476	1522.754272	2783.169922	2296.316895	61.373611
782.227722	1523.746704	2773.355713	2291.464600	61.436649
782.542908	1521.651611	2765.857178	2290.031006	61.756626
782.858093	1520.769409	2761.225586	2282.753174	61.427704
783.173218	1522.313232	2755.491455	2279.334717	61.387840
783.488281	1521.982422	2742.258789	2276.577637	61.838058
783.803345	1523.305664	2738.840332	2276.246826	61.943207
784.118225	1517.902100	2726.930908	2275.144043	62.632248
784.433167	1519.335693	2714.801025	2270.512695	62.835533
784.748047	1521.761719	2708.625732	2266.542725	62.752007
785.062866	1518.674072	2699.252441	2265.329834	63.244911
785.377686	1521.210327	2698.039551	2261.360107	62.893559
785.692444	1517.791870	2690.100098	2264.227295	63.672283
786.007141	1519.114990	2681.057861	2258.382568	63.623402
786.321716	1519.666504	2675.654297	2259.044434	63.960705
786.636353	1516.358276	2677.639160	2255.184814	63.621693
786.950928	1516.137695	2676.205566	2256.397705	63.811783
787.265442	1519.115112	2677.087891	2259.705811	63.955795
787.579834	1520.659058	2684.365967	2259.044189	63.451126
787.894226	1519.776978	2687.784424	2254.633301	62.915379
788.208618	1517.681885	2688.776611	2247.355225	62.306946
788.522949	1519.887207	2689.327881	2248.237549	62.281940
788.837219	1519.556396	2690.871582	2246.362793	62.050453
789.151367	1519.887329	2689.438232	2241.290283	61.682049
789.465515	1520.218140	2688.004639	2246.363037	62.181305
789.779602	1521.100220	2684.806641	2249.009521	62.550941
790.093689	1523.967407	2684.475830	2244.047363	62.048664
790.407776	1522.644043	2679.623779	2240.628662	62.056801
790.721741	1523.636475	2679.403076	2237.210449	61.740318
791.035645	1523.415771	2679.072266	2235.666504	61.631699
791.349548	1525.510986	2671.573730	2233.902100	61.810848
791.663391	1529.921875	2665.619141	2230.042480	61.646763
791.977173	1531.134888	2654.701904	2231.807129	62.361412
792.290894	1533.560791	2648.195801	2223.867432	61.931183
792.604614	1532.899170	2638.381592	2221.992676	62.334190
792.918274	1532.127319	2627.244141	2218.684570	62.692604
793.231812	1534.112305	2614.783447	2221.551758	63.612270
793.545410	1535.876587	2603.315186	2218.133301	63.915314
793.858948	1531.796387	2591.957275	2211.516846	64.114838
794.172363	1531.575928	2579.827148	2208.759766	64.601295
794.485840	1531.906738	2572.990234	2207.436523	64.887184
794.799194	1533.009521	2566.925293	2210.855225	65.561020
795.112488	1534.442871	2563.065674	2207.877686	65.469559
795.425781	1536.427856	2558.434326	2205.562012	65.472595
795.738953	1536.538086	2551.928223	2211.737305	66.496529
796.052185	1540.177124	2545.752930	2209.421875	66.553383
796.365234	1536.868896	2541.672852	2209.642334	66.955688
796.678284	1533.671143	2542.995850	2209.862793	66.994461
796.991333	1533.671021	2542.113770	2208.208740	66.889046
797.304382	1533.009521	2535.828369	2206.885498	67.198174
797.617310	1534.553345	2533.402588	2205.121094	67.134033
797.930115	1532.678711	2533.733154	2201.482178	66.809898
798.242981	1527.054810	2533.402588	2201.592285	67.028267
798.555786	1524.849365	2534.505127	2199.276611	66.797745
798.868530	1521.430908	2532.189697	2196.078613	66.746658
799.181213	1523.084961	2532.300293	2192.550049	66.335205
799.493896	1520.879517	2529.984619	2191.226563	66.429855
799.806519	1518.343262	2528.661377	2184.500000	65.935349
800.119080	1519.004883	2524.360596	2182.514893	65.997536
800.431580	1520.989868	2521.603516	2178.655273	65.726212
800.744080	1523.526123	2519.287842	2176.449951	65.570290
801.056458	1525.180298	2511.678955	2174.134033	65.783539
801.368835	1527.716309	2504.952393	2168.289795	65.549515
801.681152	1525.731567	2493.814697	2166.415283	66.180649
801.993408	1522.423218	2482.677002	2165.532959	66.972893
802.305664	1521.982178	2479.148193	2158.806396	66.532265
802.617798	1516.909668	2470.877930	2151.969482	66.570328
802.929993	1518.673950	2462.607422	2147.669189	66.635551
803.242065	1518.012329	2452.241943	2144.912109	67.103394
803.554016	1519.886963	2452.241699	2141.273193	66.646973
803.865967	1521.541138	2451.249512	2139.398682	66.457138
804.177979	1520.438477	2448.823730	2137.523926	66.468681
804.489807	1519.887207	2439.670898	2138.737061	67.282104
804.801697	1522.202881	2436.583252	2136.531494	67.185234
805.113464	1522.974854	2436.031738	2136.862061	67.234276
805.425232	1525.952148	2434.598145	2135.759521	67.111656
805.736938	1523.526123	2427.981689	2137.965088	67.934677
806.048584	1525.400879	2424.673584	2136.200684	67.921532
806.360168	1529.150146	2425.004395	2135.208252	67.651421
806.671753	1527.937134	2423.239990	2133.995361	67.693100
806.983276	1526.172729	2419.160156	2134.546387	68.127907
807.294739	1525.290405	2412.654053	2134.767090	68.683983
807.606140	1521.431030	2407.360840	2132.892578	69.019188
807.917542	1521.541260	2403.611816	2134.105469	69.446167
808.228760	1522.864624	2400.524170	2129.143066	69.079002
808.540100	1523.526245	2402.068115	2126.165771	68.595421
808.851318	1523.967407	2397.877686	2119.549316	68.151382
809.162476	1525.952148	2394.900146	2121.754883	68.565979
809.473633	1524.849487	2395.230957	2118.336426	68.186989
809.784668	1525.731689	2395.010498	2117.123535	68.032471
810.095703	1526.503540	2388.614502	2114.918213	68.252777
810.406738	1527.165161	2381.226074	2113.925537	68.702400
810.717590	1526.282959	2371.742676	2114.035889	69.518738
811.028503	1521.761841	2368.103760	2112.051025	69.745949
811.339294	1521.761841	2361.046387	2108.301514	69.885674
811.650085	1522.423462	2352.776123	2104.883301	70.146080
811.960876	1523.085083	2351.121826	2101.905762	69.902779
812.271545	1523.415894	2351.232178	2093.414551	68.855698
812.582153	1522.202881	2341.197266	2089.885986	69.314651
812.892761	1516.689209	2333.809326	2087.129395	69.811058
813.203308	1519.556396	2328.626221	2083.159424	69.660614
813.513855	1520.218018	2325.428467	2084.262207	70.049286
813.824280	1516.248291	2323.884766	2079.299805	69.715958
814.134705	1519.446045	2318.701904	2077.645752	69.839928
814.445068	1518.233032	2317.819580	2070.147217	69.024948
814.755371	1517.350952	2321.458740	2071.139648	68.869957
815.065613	1516.689209	2320.466064	2066.618408	68.418144
815.375854	1513.932373	2315.172852	2068.934082	69.267807
815.686035	1514.263184	2316.496094	2066.287354	68.810959
815.996155	1515.255737	2312.085205	2064.082031	68.876251
816.306152	1518.674194	2304.807373	2065.405273	69.546875
816.616211	1516.579102	2302.822266	2060.222412	69.144424
816.926208	1518.674316	2306.020508	2060.002197	68.753479
817.236145	1520.659058	2308.997803	2055.039795	67.785675
817.546021	1525.841797	2317.157959	2050.187988	66.262543
817.855774	1526.503540	2324.105225	2056.032471	66.390144
818.165588	1525.400879	2339.763916	2062.097412	65.903839
818.475281	1524.629028	2349.908936	2070.478271	66.141106
818.784973	1525.290527	2366.339600	2083.270020	66.343277
819.094604	1526.062500	2396.885010	2090.768311	64.847404
819.404175	1527.275513	2419.821533	2099.259521	64.084541
819.713684	1526.172729	2456.762939	2111.058838	62.851093
820.023254	1524.298096	2534.284180	2133.554443	60.323242
820.332642	1524.187866	2684.475342	2182.294678	56.719288
820.642090	1523.636475	2922.443848	2257.721191	52.479328
820.951416	1522.974854	3194.376465	2359.282227	50.036289
821.260681	1523.967285	3454.178467	2460.071289	48.497490
821.569946	1525.400879	3665.019775	2547.737793	47.781261
821.879150	1529.150024	3838.809082	2612.688232	46.913338
822.188293	1528.929443	3977.311768	2665.398682	46.417149
822.497437	1528.708862	4100.045410	2714.469971	46.114586
822.806458	1526.613647	4208.553711	2748.764893	45.569672
823.115479	1529.480835	4293.243164	2788.022217	45.537254
823.424438	1529.370483	4370.543945	2817.023682	45.321178
823.733337	1527.165039	4440.566895	2843.599121	45.185463
824.042236	1525.952148	4501.988770	2871.387939	45.208981
824.351013	1526.944458	4551.832031	2884.069580	44.865307
824.659790	1526.944458	4587.119141	2898.184082	44.809193
824.968445	1522.202881	4637.402832	2913.622314	44.665493
825.277100	1523.195313	4701.140625	2934.905029	44.422089
825.585693	1521.871826	4773.699707	2965.450439	44.392838
825.894287	1523.084961	4851.772949	2998.091064	44.311935
826.202820	1521.100098	4899.300781	3021.579102	44.416515
826.511292	1524.959595	4891.250977	3025.438721	44.573654
826.819702	1528.488281	4792.556641	2998.201172	45.027027
827.128113	1529.260376	4605.093750	2938.985107	45.832283
827.436401	1532.678711	4370.654297	2850.766846	46.444660
827.744751	1533.230103	4138.199707	2763.761963	47.237858
828.052917	1533.340210	3952.059082	2685.578613	47.638378
828.361145	1528.819092	3805.065918	2630.001221	48.377098
828.669312	1527.054688	3683.545410	2581.922363	48.915939
828.977356	1525.400635	3573.272705	2538.585449	49.475006
829.285400	1525.841675	3477.335938	2507.929199	50.324898
829.593384	1523.856812	3398.711426	2471.539551	50.546997
829.901306	1522.312988	3322.182373	2442.537842	51.127312
830.209167	1524.849243	3253.482178	2421.145020	51.849976
830.517029	1525.731323	3192.501465	2394.569580	52.127060
830.824829	1524.518311	3135.821533	2378.469727	52.997562
831.132568	1527.606079	3096.564453	2360.715576	53.099529
831.440247	1530.252563	3047.713623	2340.204834	53.375488
831.747925	1528.157471	2990.372070	2315.172852	53.823521
832.055481	1528.488159	2934.133301	2291.684814	54.295116
832.363037	1530.693604	2880.430176	2268.307373	54.648720
832.670532	1532.678589	2841.614502	2253.420410	55.063187
832.977966	1532.568359	2810.517578	2242.613770	55.561317
833.285400	1533.009521	2791.440674	2230.704346	55.441635
833.592712	1533.009399	2771.150391	2223.315918	55.753468
833.900085	1531.355347	2757.917725	2216.699219	55.875175
834.207275	1529.811523	2743.692627	2208.429199	55.904789
834.514526	1529.811523	2728.254395	2207.436768	56.542141
834.821716	1531.465576	2712.705811	2198.394287	56.460041
835.128784	1532.678711	2701.347900	2193.983398	56.586132
835.435852	1535.986816	2698.260254	2191.557373	56.404160
835.742798	1532.568359	2687.894531	2183.838379	56.371094
836.049805	1535.545776	2679.734131	2182.956055	56.582493
836.356750	1536.207520	2666.501465	2180.640381	57.014626
836.663574	1530.031982	2653.048096	2174.134521	57.354702
836.970398	1527.495850	2640.036133	2172.590576	57.983944
837.277161	1529.039673	2629.339355	2167.187256	57.997616
837.583923	1527.385498	2611.916504	2161.894287	58.505363
837.890564	1527.937012	2592.287842	2156.490967	59.055149
838.197205	1528.267822	2561.301270	2147.117676	59.906082
838.503784	1532.237671	2521.272217	2132.892578	60.731438
838.810303	1530.693970	2469.223633	2116.241211	62.389851
839.116699	1530.252808	2421.255127	2097.825928	63.700520
839.423096	1531.024658	2384.203613	2078.638428	64.185097
839.729492	1529.591064	2343.182373	2068.934570	66.291702
840.035828	1528.929443	2307.123535	2056.694092	67.819153
840.342102	1526.723999	2272.056641	2052.393311	70.528145
840.648315	1525.952148	2245.150391	2041.255981	71.649765
840.954529	1526.613892	2223.205811	2031.110718	72.423584
841.260620	1527.606201	2202.033203	2024.273804	73.642899
841.566711	1527.385620	2181.963867	2014.680298	74.444069
841.872803	1526.944458	2162.004395	2008.284424	75.794418
842.178772	1525.731445	2151.308105	2004.645264	76.555580
842.484680	1522.974609	2137.193115	1997.587769	77.271065
842.790588	1521.872070	2127.158203	1998.469849	78.739250
843.096436	1525.841675	2118.667236	1992.956421	78.794640
843.402222	1526.944458	2110.837891	1988.876465	79.112381
843.707947	1523.415771	2102.346924	1985.457764	79.809486
844.013611	1522.423218	2091.429932	1980.716187	80.542633
844.319275	1526.172485	2078.527832	1977.628540	81.732903
844.624817	1527.936890	2068.162598	1976.746460	83.078156
844.930359	1527.826538	2049.857422	1971.894531	85.065460
845.235901	1526.613647	2036.955566	1964.837036	85.868584
845.541321	1525.841797	2020.855713	1955.353394	86.767578
845.846680	1525.510864	2005.638062	1950.501831	88.516327
846.152039	1528.047119	1993.287598	1943.885376	89.381355
846.457275	1528.378052	1981.929443	1939.805054	90.712326
846.762512	1530.032104	1968.806885	1932.086182	91.631081
847.067749	1533.891602	1959.543945	1930.762817	93.238350
847.372925	1534.332764	1948.736938	1928.667603	95.157059
847.677979	1535.325317	1941.789795	1931.313965	97.422691
847.983032	1537.861572	1936.937866	1930.873169	98.480316
848.288025	1535.656006	1930.211548	1929.549805	99.832283
848.592957	1541.390259	1925.138916	1925.800537	100.172409
848.897888	1539.956665	1923.926025	1926.462280	100.660538
849.202759	1540.618286	1920.617798	1919.735352	99.767776
849.507507	1541.831299	1917.199463	1920.617554	100.910599
849.812317	1539.295044	1913.560303	1918.853271	101.414230
850.117004	1541.169678	1907.936401	1916.317017	102.284996
850.421631	1541.941650	1902.863892	1916.427124	103.757935
850.726257	1541.390137	1901.540527	1915.434692	103.857880
851.030823	1540.397827	1898.673584	1916.316772	104.924469
851.335327	1539.736084	1893.821411	1911.906006	105.107414
851.639771	1540.177246	1885.881836	1909.479858	106.826065
851.944153	1540.177124	1881.470825	1908.046509	107.786751
852.248535	1538.964233	1874.854492	1907.053955	109.586304
852.552856	1535.325317	1873.641602	1903.966553	108.963493
852.857056	1534.663696	1873.089844	1903.304932	108.928116
853.161255	1537.861572	1875.515991	1903.966553	108.425941
853.465393	1536.317749	1874.192505	1903.304932	108.616333
853.769531	1532.568359	1873.310669	1901.871338	108.381897
854.073547	1527.165039	1870.884644	1896.798950	107.539375
854.377563	1524.408203	1868.458496	1899.776367	109.102699
854.681580	1520.548828	1865.150269	1894.703857	108.576164
854.985474	1517.681519	1855.446411	1896.799072	112.243034
855.289307	1517.571289	1853.020264	1896.688843	113.017952
855.593140	1517.791870	1852.910156	1895.145142	112.603012
855.896851	1516.137817	1852.469116	1893.380615	112.164047
856.200623	1517.902100	1850.153687	1893.490723	113.043442
856.504272	1518.453613	1852.800049	1893.600830	112.203148
856.807922	1515.917358	1854.454102	1891.505615	110.944603
857.111389	1513.711914	1852.579468	1892.167236	111.682373
857.414978	1516.248169	1844.419312	1886.102173	112.701561
857.718445	1516.358398	1844.419434	1884.447876	112.201523
858.021790	1517.350952	1843.978394	1885.660889	112.761482
858.325195	1517.681763	1841.993530	1888.307617	114.280731
858.628479	1515.917358	1841.000977	1887.976807	114.450386
858.931763	1516.468750	1837.141357	1892.718506	117.331429
859.234985	1515.476318	1831.297119	1891.505737	119.064171
859.538147	1512.609131	1827.547607	1892.167236	120.518173
859.841248	1511.065308	1827.988647	1891.505615	120.041748
860.144287	1514.924927	1826.996094	1892.167236	120.883423
860.447266	1520.989990	1828.098755	1889.961670	120.143654
860.750305	1525.180298	1825.121460	1887.976929	120.955933
861.053223	1529.150146	1825.011353	1893.490723	123.145775
861.356018	1530.804199	1831.076294	1889.410522	119.427124
861.658813	1531.245239	1826.555054	1888.087402	120.836540
861.961609	1528.378296	1823.247070	1889.962036	122.625305
862.264343	1529.370605	1821.813599	1890.844360	123.604858
862.567017	1529.701416	1819.718384	1889.190063	123.954353
862.869629	1529.480957	1819.608032	1888.638550	123.793198
863.172180	1532.017212	1819.497803	1889.631104	124.395836
863.474670	1527.385742	1816.961304	1886.212646	123.914772
863.777161	1522.643921	1821.151733	1888.087280	122.423386
864.079590	1521.541138	1821.151733	1891.174805	123.371361
864.381958	1521.982300	1821.703369	1886.653687	121.670258
864.684265	1520.107666	1823.688110	1881.801880	119.142792
864.986511	1518.784302	1824.680420	1880.147339	118.132599
865.288757	1520.217896	1824.901001	1872.428345	115.598946
865.590942	1520.438477	1827.106445	1871.767090	114.563194
865.893066	1519.556396	1829.532593	1869.781982	112.984673
866.195068	1517.791992	1828.429932	1868.679321	112.957008
866.497131	1518.894775	1829.311890	1866.363525	111.936081
866.799133	1514.263062	1824.459961	1867.797119	113.970856
867.100952	1509.852295	1821.703125	1865.481567	114.038261
867.402832	1512.939819	1822.364746	1864.047974	113.471191
867.704651	1513.491211	1821.372192	1867.907349	115.114655
868.006409	1515.696533	1822.364624	1869.892456	115.498131
868.308105	1519.335571	1826.775635	1866.473755	112.912476
868.609802	1517.681519	1830.524902	1867.686768	111.878746
868.911438	1515.696655	1832.620361	1870.553955	111.969315
869.213013	1517.571411	1829.863281	1871.766968	113.418114
869.514465	1518.343384	1829.311768	1869.340942	112.872429
869.815979	1522.423340	1833.281616	1869.892456	111.777344
870.117371	1526.834351	1834.825562	1868.900146	111.063492
870.418701	1529.370605	1835.487183	1866.363892	110.086586
870.720093	1530.914429	1839.015991	1874.634155	111.560524
871.021301	1533.671265	1839.787964	1880.037354	113.148384
871.322571	1535.656128	1838.133911	1879.375732	113.634659
871.623718	1534.553467	1840.339233	1883.345459	114.064171
871.924805	1534.222656	1845.191406	1884.779053	112.730423
872.225891	1536.207397	1847.837769	1886.543579	112.420425
872.526917	1541.279907	1846.845459	1889.189941	113.857742
872.827881	1541.831299	1848.389282	1891.505615	114.064659
873.128784	1544.808594	1851.476807	1891.946655	113.196625
873.429626	1546.462646	1858.203491	1890.292358	110.293442
873.730408	1542.603149	1858.313599	1886.322754	108.871788
874.031189	1541.279907	1857.651978	1888.748901	109.829224
874.331848	1539.956543	1858.534180	1889.520630	109.726501
874.632568	1537.530640	1857.431396	1892.056885	110.823822
874.933167	1537.640869	1854.123169	1889.520630	111.184654
875.233704	1539.956665	1853.130737	1886.102295	110.528191
875.534241	1538.082031	1853.902710	1883.676392	109.427399
875.834717	1537.751221	1853.351318	1887.866821	110.936470
876.135071	1536.427979	1851.256104	1890.072144	112.329277
876.435425	1533.450684	1851.035767	1888.969360	111.944389
876.735779	1531.355469	1852.579468	1889.630981	111.534477
877.036011	1528.488403	1853.240845	1887.204956	110.458466
877.336182	1526.172729	1851.586914	1883.565796	109.827133
877.636353	1526.944580	1856.659424	1885.109741	108.628761
877.936462	1525.841797	1863.276001	1887.204956	107.091446
878.236511	1527.937012	1868.348633	1887.205200	105.539345
878.536560	1527.165161	1875.295776	1888.969727	103.927818
878.836487	1523.415771	1889.961914	1889.851929	99.969994
879.136414	1521.431030	1918.963745	1895.916626	94.202461
879.436279	1522.313232	1970.460938	1912.126831	86.983284
879.736084	1522.313110	2053.055176	1938.040894	78.329536
880.035828	1522.864502	2156.711426	1979.062134	71.972839
880.335510	1523.967285	2274.923584	2021.958008	66.314209
880.635193	1523.305664	2391.922607	2064.744141	62.333401
880.934753	1524.518555	2499.879639	2103.890869	59.400803
881.234314	1524.959717	2592.508545	2139.067871	57.525066
881.533752	1523.415771	2675.213135	2174.465332	56.524662
881.833252	1523.085083	2748.654541	2205.121094	55.650539
882.132629	1521.320679	2812.833252	2230.483887	54.909508
882.431946	1519.776855	2872.160156	2251.876709	54.134048
882.731323	1522.864502	2918.805176	2278.893311	54.159092
883.030579	1526.613647	2956.518555	2298.632080	53.990894
883.329712	1526.723877	2991.364746	2308.777100	53.395561
883.628845	1526.282837	3021.027832	2322.671387	53.279224
883.927979	1529.480713	3040.325439	2331.272705	53.069118
884.226990	1530.693604	3058.410156	2337.889160	52.836735
884.526001	1530.803833	3066.460205	2343.843750	52.944130
884.824951	1530.142212	3073.297119	2349.026855	53.065617
885.123840	1530.473145	3074.620361	2350.901123	53.131462
885.422729	1530.473145	3053.227539	2345.939209	53.552040
885.721497	1530.914307	3009.008301	2334.250244	54.349449
886.020203	1532.899292	2928.619141	2313.739746	55.945358
886.318909	1532.678711	2828.602051	2278.893555	57.581711
886.617554	1529.149902	2714.249512	2231.917480	59.300297
886.916138	1528.047241	2597.140137	2187.256836	61.660648
887.214661	1524.408203	2491.829590	2150.756592	64.744110
887.513184	1524.518677	2402.067871	2117.343994	67.554657
887.811523	1527.495850	2321.127686	2083.490234	70.056969
888.109924	1514.483765	2151.307861	1982.260010	73.454544
888.408264	1528.378052	2035.521729	1940.577026	81.278542
888.706543	1546.903931	1977.628662	1963.734253	96.774178
889.004761	1565.429688	1931.314087	1938.261353	101.898758
889.302979	1509.852295	1919.735474	1961.418579	110.169510
889.601135	1470.484985	1905.841187	1861.842407	89.893616
889.899170	1489.010742	1859.526611	1880.368164	105.625008
890.197205	1468.169312	1882.683960	1952.155640	116.759766
890.495178	1528.378052	1875.736694	1889.631104	104.000015
890.793091	1560.798218	1901.209717	1880.368164	93.877541
>>>>>End Processed Spectral Data<<<<<
