Jaz Data File
++++++++++++++++++++++++++++++++++++
Date: Thu Sep 26 04:33:05 2019
User: jaz
Dark Spectrum Present: Yes
Reference Spectrum Present: Yes
Processed Spectrum Present: Yes
Spectrometers: JAZA3541
Integration Time (usec): 100000 (JAZA3541)
Spectra Averaged: 1 (JAZA3541)
Boxcar Smoothing: 10 (JAZA3541)
Correct for Electrical Dark: No (JAZA3541)
Strobe/Lamp Enabled: Yes (JAZA3541)
Correct for Detector Non-linearity: No (JAZA3541)
Correct for Stray Light: No (JAZA3541)
Number of Pixels in Processed Spectrum: 2048
>>>>>Begin Processed Spectral Data<<<<<
W	D	R	S	P
190.543274	0.000000	0.000000	0.000000	0.000000
190.921555	0.000000	0.000000	0.000000	0.000000
191.299805	1296.805664	1336.172974	1123.126343	-441.176514
191.678024	1229.649658	1322.278564	1204.176636	-27.500078
192.056229	1345.435913	1313.015747	1162.493652	564.285400
192.434387	1331.541504	1278.279907	1150.915039	339.130768
192.812531	1303.752808	1324.594360	1162.493652	-677.776550
193.190659	1310.699951	1296.805664	1199.545166	800.003540
193.568741	1319.962891	1359.330200	1171.756592	-376.470490
193.946793	0.000000	0.000000	0.000000	0.000000
194.324829	1207.815674	1211.785522	1055.859985	-3827.745117
194.702835	1271.994385	1273.317627	1111.988770	-12091.937500
195.080811	1337.606445	1335.070313	1169.881836	6613.399902
195.458755	1337.827148	1332.203125	1170.322876	2978.370850
195.836685	1338.268188	1331.541626	1168.448364	2524.615234
196.214569	1339.811890	1336.172974	1172.307861	4603.129883
196.592422	1341.907104	1340.032471	1173.631104	8976.473633
196.970261	1342.679077	1342.127686	1173.410400	30698.451172
197.348068	1343.781860	1343.120117	1172.418091	25895.812500
197.725861	1344.222900	1342.127563	1171.976929	8220.442383
198.103622	1343.561279	1338.157837	1169.771484	3216.279297
198.481323	1340.253052	1337.496216	1168.558594	6227.953613
198.859039	1337.937378	1335.290771	1172.859131	6237.355469
199.236694	1335.070313	1335.621460	1168.668945	-30191.804688
199.614334	1333.416138	1335.511230	1173.300415	-7642.416992
199.991959	1329.115479	1337.937134	1175.726440	-1738.778442
200.369553	1324.373657	1337.826904	1172.307983	-1130.326904
200.747101	1322.499023	1341.355835	1171.205322	-802.329163
201.124619	1320.514038	1341.576294	1173.520874	-697.898499
201.502136	1316.323608	1346.538452	1175.285278	-466.784912
201.879623	1313.677246	1349.736450	1179.034546	-373.393433
202.257065	1311.030640	1351.500854	1180.578369	-322.341431
202.634476	1309.927979	1352.934570	1179.916626	-302.305634
203.011871	1305.186279	1354.809082	1181.239990	-249.776886
203.389221	1303.091064	1361.866455	1183.996948	-202.625824
203.766571	1304.745117	1367.931519	1182.122070	-194.065567
204.143875	1300.334229	1365.064331	1183.114624	-181.089783
204.521164	1296.254272	1365.284912	1183.555664	-163.258820
204.898392	1297.798096	1363.300049	1186.202148	-170.370407
205.275620	1298.459717	1368.703369	1186.974121	-158.712692
205.652817	1293.718018	1368.482910	1189.289917	-139.675323
206.029984	1293.607666	1372.673218	1191.495361	-129.148911
206.407135	1291.953613	1374.988892	1192.156982	-120.185822
206.784225	1292.394775	1374.437378	1194.472656	-119.355209
207.161301	1293.607910	1372.893555	1194.472656	-125.035568
207.538376	1298.570190	1373.555176	1188.407715	-146.912704
207.915405	1302.209229	1370.798462	1187.415161	-167.364563
208.292404	1303.422119	1370.798584	1190.943970	-166.939819
208.669373	1305.406860	1366.718506	1188.407715	-190.826950
209.046310	1302.319336	1363.961670	1182.673584	-194.096725
209.423218	1303.863159	1361.645874	1187.856323	-200.763901
209.800095	1305.737793	1357.124756	1183.886475	-237.124969
210.176956	1308.715210	1353.265137	1183.555664	-280.942200
210.553787	1308.163818	1355.911743	1186.422729	-254.966248
210.930603	1309.597412	1356.242554	1182.122070	-273.287506
211.307358	1315.221313	1353.485718	1182.342651	-347.264435
211.684113	1317.316406	1349.846680	1185.099365	-406.443054
212.060837	1316.985596	1348.413086	1179.475586	-437.546906
212.437531	1316.765015	1350.839233	1180.468140	-400.000000
212.814178	1314.008179	1354.037109	1179.696289	-335.537048
213.190826	1312.574585	1351.280273	1177.711304	-348.432709
213.567413	1313.125977	1352.383057	1180.358032	-338.201263
213.943985	1310.258789	1357.345337	1176.718750	-283.605499
214.320541	1309.266479	1357.124756	1174.072266	-282.488678
214.697052	1307.612305	1361.315186	1171.205078	-254.003555
215.073563	1309.266357	1363.300049	1172.749023	-252.652237
215.449997	1303.863159	1360.874023	1176.277588	-223.791687
215.826431	1301.326904	1362.086914	1178.262695	-202.541458
216.202850	1300.334351	1364.954102	1176.167358	-192.150223
216.579224	1298.459717	1369.695923	1179.365356	-167.182343
216.955582	1300.885742	1374.989014	1181.129517	-161.607208
217.331894	1300.554932	1374.217041	1175.946777	-169.161804
217.708191	1300.003418	1376.863647	1175.505615	-161.979477
218.084442	1300.113770	1383.480103	1177.711182	-146.824966
218.460678	1296.915771	1384.141602	1174.954346	-139.822601
218.836899	1295.041260	1385.685303	1176.608398	-130.657089
219.213074	1292.615234	1387.339478	1176.277588	-122.817184
219.589233	1294.269287	1392.191650	1177.931763	-118.805878
219.965347	1296.805542	1398.697510	1180.357910	-114.285393
220.341431	1295.592529	1399.359131	1177.821655	-113.495934
220.717499	1296.254150	1400.241455	1179.144775	-112.618919
221.093552	1295.041260	1402.336548	1183.666016	-103.802551
221.469543	1299.011108	1407.078247	1179.806396	-110.306160
221.845535	1302.980835	1407.409058	1181.239990	-116.578491
222.221466	1305.296631	1411.709595	1183.004272	-114.922424
222.597397	1305.186279	1417.884766	1184.879028	-106.751434
222.973297	1302.760376	1426.706543	1187.635742	-92.882767
223.349167	1300.554932	1437.403076	1190.061768	-80.741440
223.725006	1297.467285	1446.996826	1189.179443	-72.419029
224.100800	1295.041260	1454.385010	1196.347412	-61.937695
224.476578	1295.372070	1465.081543	1198.221924	-57.244976
224.852325	1297.577515	1475.778076	1199.545288	-55.012299
225.228058	1298.680298	1495.847778	1198.663086	-50.727032
225.603760	1297.577637	1523.195313	1203.735718	-41.593338
225.979416	1295.261963	1552.086792	1208.697876	-33.705498
226.355057	1295.372192	1590.351318	1215.314209	-27.140221
226.730652	1296.805664	1642.069214	1219.725098	-22.325138
227.106232	1296.915894	1691.912231	1227.113281	-17.671711
227.481796	1294.159180	1736.903687	1236.486572	-13.026160
227.857315	1292.946167	1778.145630	1243.874878	-10.113632
228.232788	1296.033813	1815.638184	1248.616455	-9.125666
228.608246	1296.695435	1848.058350	1253.468506	-7.840014
228.983704	1297.026245	1883.345459	1258.871948	-6.507427
229.359100	1297.577637	1916.206665	1266.590942	-5.008930
229.734482	1293.166748	1945.870117	1274.751221	-2.821424
230.109833	1290.189453	1973.768921	1280.154541	-1.467995
230.485153	1290.189331	1989.979126	1284.124390	-0.866680
230.860443	1289.527710	2012.585205	1286.881104	-0.366030
231.235703	1293.166748	2031.331421	1292.615356	-0.074698
231.610931	1293.607788	2055.481445	1300.444702	0.897382
231.986145	1293.056396	2079.300049	1303.752808	1.360445
232.361313	1290.189209	2098.708252	1310.920532	2.564111
232.736465	1287.983765	2121.313965	1320.293701	3.877207
233.111572	1285.888550	2134.656982	1328.123047	4.975974
233.486664	1288.865845	2141.052734	1330.879883	4.930144
233.861725	1290.409668	2141.604248	1330.108032	4.663841
234.236755	1292.284302	2138.957520	1331.541626	4.636656
234.611771	1296.474731	2120.873047	1336.283325	4.828806
234.986740	1298.900635	2101.023926	1337.716797	4.839177
235.361679	1299.782959	2083.710938	1335.842041	4.599795
235.736588	1298.570068	2073.235107	1339.811890	5.323826
236.111496	1297.908447	2069.375488	1346.759155	6.332183
236.486343	1298.459717	2071.139893	1348.744141	6.507792
236.861160	1301.106323	2071.250000	1353.044800	6.743999
237.235962	1300.334351	2079.961426	1356.573608	7.213610
237.610733	1302.760376	2089.996338	1365.395386	7.956320
237.985474	1301.437134	2106.978271	1373.445435	8.939121
238.360199	1300.665283	2140.501221	1383.921143	9.913348
238.734879	1301.767944	2177.662842	1400.903076	11.318153
239.109543	1300.334473	2227.616455	1418.877563	12.783931
239.484177	1304.635132	2281.650146	1439.498413	13.803604
239.858749	1310.810303	2350.680908	1466.184326	14.941669
240.233322	1311.361694	2434.047119	1496.178589	16.462038
240.607864	1313.126099	2511.899414	1524.959595	17.670855
240.982391	1314.559570	2592.618896	1555.284546	18.835196
241.356857	1316.213745	2651.063232	1581.088379	19.843033
241.731308	1315.000610	2704.435059	1603.914673	20.793644
242.105728	1317.977905	2744.684814	1622.881470	21.371141
242.480118	1312.354126	2785.926758	1641.848389	22.360231
242.854492	1310.479492	2835.880127	1659.712646	22.894520
243.228836	1309.045898	2893.442383	1681.546509	23.510569
243.603134	1312.905518	2957.290283	1709.555786	24.121500
243.977402	1312.023193	3046.721436	1744.291504	24.918934
244.351654	1310.920532	3168.241699	1792.590942	25.933609
244.725861	1310.810303	3315.235107	1849.050537	26.852602
245.100067	1311.912964	3466.970215	1912.016235	27.846281
245.474213	1311.361694	3603.377197	1968.255249	28.660082
245.848343	1316.985474	3710.341553	2020.745117	29.404720
246.222443	1318.198486	3794.700195	2057.466064	29.851284
246.596512	1318.419067	3855.019287	2083.931396	30.178677
246.970566	1321.286133	3892.181641	2100.802979	30.320829
247.344574	1320.845093	3904.862793	2112.161133	30.623478
247.718567	1317.206055	3891.740234	2114.917725	30.984699
248.092529	1318.749756	3859.430420	2109.294189	31.115458
248.466431	1315.441650	3833.075195	2106.647461	31.426567
248.840332	1313.236206	3807.051025	2106.757324	31.819567
249.214203	1311.030640	3809.476563	2108.853027	31.932747
249.588043	1313.787598	3825.797363	2120.652344	32.120289
249.961838	1310.038330	3853.696045	2137.854492	32.544323
250.335617	1313.677124	3886.888428	2149.653564	32.487671
250.709381	1313.456665	3901.664795	2158.145020	32.636032
251.083084	1318.198608	3899.569824	2163.217529	32.735275
251.456787	1314.780029	3882.367188	2154.505859	32.704861
251.830460	1316.434204	3829.656738	2140.501221	32.789257
252.204071	1313.456787	3746.069824	2111.168945	32.792397
252.577667	1310.038452	3638.995117	2070.588623	32.656261
252.951248	1310.369263	3513.615234	2022.068604	32.302307
253.324799	1308.604858	3406.099365	1978.069580	31.917351
253.698303	1305.737671	3326.152100	1941.459106	31.464903
254.071793	1305.296631	3267.817627	1915.875977	31.111990
254.445236	1304.083618	3233.853760	1896.798950	30.714296
254.818665	1300.113770	3219.959473	1891.285156	30.792650
255.192062	1300.003418	3219.077393	1895.034180	31.006140
255.565430	1300.444458	3243.888672	1898.011719	30.747847
255.938782	1301.878052	3283.365967	1911.024048	30.741848
256.312103	1304.745117	3340.266846	1926.351807	30.537954
256.685364	1306.730225	3419.442383	1943.995483	30.163374
257.058594	1304.965820	3518.357178	1972.776611	30.171383
257.431793	1302.098633	3646.714600	2014.128906	30.368738
257.804993	1302.760254	3790.178955	2061.546143	30.504951
258.178162	1299.672729	3928.240234	2113.925293	30.977047
258.551270	1298.128906	4052.517578	2160.681152	31.315559
258.924377	1294.379639	4145.587402	2197.291748	31.667707
259.297485	1293.938599	4222.999023	2221.992676	31.684361
259.670502	1293.056396	4286.625977	2243.054688	31.734632
260.043518	1295.151489	4346.063477	2266.873779	31.850222
260.416473	1298.569946	4394.473145	2287.715088	31.950130
260.789459	1297.026123	4449.830078	2306.792236	32.027557
261.162354	1297.246704	4497.467773	2326.090088	32.149132
261.535278	1298.349365	4541.796875	2337.779053	32.047062
261.908142	1298.790527	4576.092285	2349.357422	32.055847
262.280975	1301.216553	4595.279297	2358.510010	32.096943
262.653717	1302.870605	4609.834961	2361.046387	31.998404
263.026520	1300.113892	4627.809570	2353.768555	31.663191
263.399261	1297.357056	4643.688477	2358.951416	31.724123
263.771973	1296.915894	4654.495605	2351.783203	31.417492
264.144653	1298.239258	4653.502930	2349.798584	31.340588
264.517334	1301.106323	4633.103027	2346.490234	31.374100
264.889954	1302.208862	4586.678223	2335.352783	31.455429
265.262543	1305.627563	4506.179199	2301.388672	31.112169
265.635071	1308.053589	4405.610840	2260.918701	30.761826
266.007599	1311.802856	4310.224609	2220.228027	30.296776
266.380127	1312.133545	4240.201660	2186.705566	29.868568
266.752594	1315.882935	4205.575684	2159.798828	29.204346
267.125031	1315.000732	4197.084473	2150.756592	28.998320
267.497437	1313.236328	4212.963867	2147.448242	28.768631
267.869843	1316.544556	4239.098633	2143.698975	28.302450
268.242218	1313.567261	4277.473633	2143.919678	28.015474
268.614532	1311.913208	4335.697754	2154.285156	27.858198
268.986816	1312.354126	4430.973633	2171.598145	27.552063
269.359100	1311.471924	4539.150879	2204.018066	27.652878
269.731354	1310.038452	4652.510742	2235.115234	27.676424
270.103516	1311.030762	4749.219727	2261.690918	27.650026
270.475708	1311.361572	4830.049805	2285.178955	27.675581
270.847839	1314.890381	4902.499023	2311.423828	27.777094
271.219971	1318.419067	4961.053711	2326.972168	27.687462
271.592041	1320.403809	5006.596191	2340.645996	27.677399
271.964081	1321.065552	5036.369629	2348.585693	27.656420
272.336151	1316.434204	5064.048340	2350.019287	27.579815
272.708130	1316.654785	5090.182129	2347.262451	27.311520
273.080109	1313.015869	5107.385254	2351.121826	27.359118
273.452026	1311.582275	5141.238770	2356.855957	27.294189
273.823914	1310.369263	5176.085449	2359.171875	27.130875
274.195770	1310.369263	5215.893555	2362.810791	26.947508
274.567627	1309.376831	5261.987793	2371.522461	26.872002
274.939423	1310.700073	5304.332031	2383.762451	26.869337
275.311249	1312.243896	5345.464355	2390.599609	26.736841
275.682983	1310.479492	5376.120117	2397.987793	26.748756
276.054688	1309.707520	5401.151855	2407.250488	26.825319
276.426422	1307.943115	5403.577148	2407.581299	26.849033
276.798065	1312.243896	5370.495117	2395.782227	26.699636
277.169708	1313.236206	5325.172852	2376.484619	26.502125
277.541321	1317.757446	5277.536133	2363.472412	26.408419
277.912903	1316.985352	5267.832031	2354.430176	26.258797
278.284424	1316.764893	5279.741211	2354.319824	26.181204
278.655945	1315.882813	5301.685547	2359.061523	26.172361
279.027435	1312.574707	5332.010254	2367.221680	26.238684
279.398865	1310.920532	5391.226563	2385.968262	26.347233
279.770294	1307.502075	5467.424805	2409.015137	26.479170
280.141663	1310.810303	5539.763672	2431.951660	26.511086
280.513031	1313.015869	5615.631348	2456.983643	26.587730
280.884369	1315.993164	5680.912598	2480.030762	26.668020
281.255676	1314.559570	5725.462402	2499.879883	26.872511
281.626953	1313.787720	5763.727051	2516.199951	27.020866
281.998199	1316.654907	5805.189453	2539.577637	27.245478
282.369385	1313.346680	5856.245605	2561.080811	27.465593
282.740540	1313.236328	5915.572754	2582.473877	27.578114
283.111694	1311.802856	5983.280273	2611.365234	27.819086
283.482819	1310.479492	6070.064941	2637.610107	27.883324
283.853912	1314.559570	6165.339844	2665.619141	27.852417
284.224945	1315.441772	6257.858398	2699.472900	28.003126
284.595978	1313.346436	6348.502930	2736.303955	28.260445
284.966980	1311.030762	6425.914551	2776.443115	28.649963
285.337952	1309.817749	6500.238281	2805.334717	28.813023
285.708893	1306.730103	6535.746094	2832.020752	29.169744
286.079803	1305.406860	6558.352051	2852.751953	29.456715
286.450684	1304.745239	6574.893066	2866.315186	29.630476
286.821533	1307.391846	6588.677246	2885.281982	29.877010
287.192322	1306.399414	6596.506836	2900.610107	30.135696
287.563110	1307.391968	6602.571289	2917.923096	30.415045
287.933868	1303.642700	6627.272461	2942.623779	30.786909
288.304596	1299.672852	6668.735352	2972.507813	31.156929
288.675262	1300.885742	6725.304199	3011.654785	31.538294
289.045929	1301.326782	6777.683594	3045.729004	31.853333
289.416565	1300.113770	6826.645020	3080.575195	32.216618
289.787170	1296.805664	6843.957520	3108.253418	32.655457
290.157745	1293.718018	6845.170898	3134.167725	33.152576
290.528259	1293.497437	6840.870605	3156.773438	33.588440
290.898773	1294.820801	6830.614746	3175.188721	33.967449
291.269226	1294.269287	6813.852539	3201.543945	34.554688
291.639679	1290.630371	6797.202148	3220.621338	35.048866
292.010101	1294.820801	6810.876465	3251.938721	35.480389
292.380463	1293.828369	6840.539551	3290.313721	35.994041
292.750824	1298.680298	6882.332031	3324.828613	36.287155
293.121155	1300.775391	6928.756836	3369.158447	36.751774
293.491455	1307.502197	6990.068359	3419.663330	37.169140
293.861725	1310.920532	7072.000977	3469.506592	37.468422
294.231964	1313.125977	7184.479004	3527.840820	37.720688
294.602142	1314.669678	7298.721680	3585.623779	37.950108
294.972321	1314.669800	7398.077148	3646.934814	38.338139
295.342468	1316.213623	7496.991699	3697.440186	38.526321
295.712555	1317.095825	7559.295410	3740.225830	38.818527
296.082672	1318.419067	7583.776855	3775.623047	39.218895
296.452728	1315.882813	7585.761719	3790.951172	39.475536
296.822693	1319.080688	7589.400879	3799.994141	39.565979
297.192657	1321.065552	7589.180664	3809.146240	39.694237
297.562622	1322.388916	7606.824219	3821.827393	39.771885
297.932556	1326.027954	7627.886230	3837.486328	39.852665
298.302460	1328.233398	7634.833496	3852.373047	40.023777
298.672333	1327.792358	7640.347656	3855.019287	40.034931
299.042145	1329.005127	7636.597656	3858.658447	40.104893
299.411957	1330.218140	7623.033691	3863.510010	40.256893
299.781677	1326.027954	7584.768555	3850.608643	40.336876
300.151428	1326.579224	7523.125977	3832.854980	40.446331
300.521149	1326.248291	7458.727051	3809.587402	40.494869
300.890839	1322.829956	7386.829590	3774.740967	40.433895
301.260468	1317.095825	7310.961914	3735.263428	40.344036
301.630096	1318.418945	7223.515625	3691.926270	40.194218
301.999695	1319.080688	7102.436523	3655.315918	40.395844
302.369232	1316.323975	6976.063965	3608.891113	40.506580
302.738739	1314.449219	6859.727051	3552.982910	40.368286
303.108246	1310.699951	6722.106445	3501.816162	40.490700
303.477692	1311.251343	6610.841309	3453.186035	40.416988
303.847137	1311.361816	6522.182129	3405.879395	40.195545
304.216553	1311.361572	6456.680176	3374.671875	40.100731
304.585876	1310.369141	6397.794434	3351.293945	40.117046
304.955231	1309.597046	6350.267090	3331.886230	40.119453
305.324493	1306.619751	6311.010254	3308.728760	40.007050
305.693787	1306.178711	6280.244629	3286.784668	39.818649
306.063049	1306.509521	6274.399414	3275.536377	39.635075
306.432251	1307.391846	6272.414551	3275.426270	39.637978
306.801422	1305.627319	6267.783691	3270.905518	39.605328
307.170593	1304.524658	6268.334961	3274.103516	39.678768
307.539673	1303.642456	6275.171875	3275.757813	39.668182
307.908783	1304.304077	6290.831055	3274.323730	39.506851
308.277832	1302.650146	6307.150879	3282.594238	39.563267
308.646851	1300.444702	6338.357910	3295.496338	39.600754
309.015839	1303.973389	6378.717773	3313.360107	39.595821
309.384796	1298.239258	6410.586914	3339.825928	39.934425
309.753723	1295.151733	6446.205566	3352.176270	39.934052
310.122620	1294.600220	6472.339844	3360.887695	39.907135
310.491486	1296.144165	6484.690430	3370.812012	39.985535
310.860352	1299.342041	6501.231445	3375.884766	39.919006
311.229126	1299.452148	6515.456055	3381.287842	39.912464
311.597931	1298.680298	6523.726074	3391.102295	40.046001
311.966675	1300.224121	6544.016602	3393.969482	39.928074
312.335388	1300.665161	6579.523926	3406.651123	39.894718
312.704071	1298.680298	6617.236816	3421.978760	39.922455
313.072723	1301.326904	6632.564941	3431.903564	39.964012
313.441345	1301.988525	6630.139160	3433.888672	40.012012
313.809875	1302.650146	6611.061523	3417.126953	39.832573
314.178436	1298.459839	6573.018066	3405.217529	39.941883
314.546967	1304.193970	6535.194824	3387.573730	39.827557
314.915466	1304.635132	6494.283691	3361.880127	39.641319
315.283936	1308.604858	6440.911621	3340.928223	39.598637
315.652374	1309.266602	6398.125977	3318.322510	39.479492
316.020752	1307.943237	6345.084961	3292.959717	39.407597
316.389130	1313.236328	6299.542480	3272.008301	39.283028
316.757416	1313.346680	6259.072266	3256.239502	39.284283
317.125732	1312.574585	6233.378418	3232.200195	39.010406
317.494019	1313.126099	6201.399414	3211.137939	38.827858
317.862274	1315.441895	6169.530762	3193.163574	38.683300
318.230469	1314.338989	6137.441406	3175.299561	38.584305
318.598663	1315.441772	6109.211914	3157.545654	38.427040
318.966797	1315.221069	6076.571289	3141.997314	38.366772
319.334930	1314.449341	6049.113281	3127.992676	38.303528
319.703003	1310.148682	6018.347656	3115.752197	38.350193
320.071045	1307.612305	5975.341309	3092.815430	38.245647
320.439056	1306.178711	5939.722656	3075.612793	38.187489
320.807037	1306.399292	5937.627441	3069.658203	38.073246
321.175049	1305.296631	5958.910156	3069.989014	37.920906
321.542969	1301.878052	5990.778809	3084.655273	38.021217
321.910828	1306.178711	6035.219238	3097.115967	37.871048
322.278717	1304.965820	6093.112305	3120.493652	37.917133
322.646515	1308.053345	6142.183594	3136.152588	37.816505
323.014313	1307.501953	6192.908691	3150.708252	37.728821
323.382111	1304.855469	6229.739746	3163.389893	37.737625
323.749817	1304.745117	6278.259766	3179.930908	37.703434
324.117523	1303.752808	6305.828125	3195.589600	37.821037
324.485199	1301.326782	6320.052734	3194.045654	37.713135
324.852814	1304.193970	6319.501465	3200.661865	37.813591
325.220428	1306.399292	6317.957520	3196.030518	37.705463
325.588013	1305.075928	6324.794434	3196.361328	37.677120
325.955536	1308.384155	6334.498535	3195.809814	37.552383
326.323059	1308.825317	6352.804199	3199.779785	37.489342
326.690552	1309.597168	6376.622070	3204.962891	37.405888
327.058014	1311.030640	6396.030273	3203.859863	37.223785
327.425415	1314.338989	6409.152344	3204.962891	37.108795
327.792816	1317.977905	6423.708984	3212.791992	37.111515
328.160187	1320.955322	6430.545410	3212.681641	37.023056
328.527496	1321.837646	6416.541504	3209.262939	37.046810
328.894775	1322.940430	6410.255859	3207.498779	37.044258
329.262054	1325.697144	6391.839844	3199.890137	36.994476
329.629303	1323.712280	6378.275879	3188.091064	36.885059
329.996490	1321.837646	6364.161621	3177.063721	36.793076
330.363647	1317.977905	6370.558105	3176.181641	36.777325
330.730774	1316.985718	6381.474609	3183.680176	36.858498
331.097839	1316.544434	6412.020020	3190.737305	36.781509
331.464935	1316.103394	6438.044434	3192.612305	36.636677
331.831970	1312.353882	6459.437500	3190.958252	36.498425
332.198975	1311.802490	6487.336426	3202.536377	36.532150
332.565948	1311.582153	6516.007324	3207.719482	36.433174
332.932892	1304.965698	6553.610352	3224.480957	36.571636
333.299744	1305.406860	6581.950195	3231.979248	36.512016
333.666656	1301.878174	6619.553711	3246.424805	36.567604
334.033478	1300.444702	6650.540039	3261.863037	36.661373
334.400299	1300.665283	6674.027344	3266.825439	36.590874
334.767090	1298.570068	6710.527344	3276.198242	36.541832
335.133850	1299.562622	6735.669434	3287.997314	36.578285
335.500549	1296.805786	6758.166016	3294.393311	36.576740
335.867218	1291.622803	6781.985352	3300.348145	36.586391
336.233917	1292.725586	6818.154785	3312.367920	36.551773
336.600525	1292.505005	6834.694824	3322.402588	36.626274
336.967102	1293.938599	6855.757324	3327.916260	36.570370
337.333649	1296.915894	6867.004395	3333.319824	36.559635
337.700195	1294.269287	6866.563965	3331.224609	36.555054
338.066681	1296.254150	6856.970215	3327.144775	36.522106
338.433136	1295.813110	6847.266602	3314.132080	36.356586
338.799591	1296.254272	6825.983398	3311.375732	36.441597
339.165985	1296.584961	6811.758789	3305.641357	36.427799
339.532318	1300.775391	6816.390625	3308.287842	36.396893
339.898651	1300.995972	6828.851074	3304.428467	36.242493
340.264954	1300.444580	6846.163574	3304.979980	36.145638
340.631226	1305.627319	6861.712891	3303.987305	35.967049
340.997467	1305.406860	6901.410645	3309.831787	35.818863
341.363678	1306.840454	6942.652344	3317.550537	35.677380
341.729828	1308.274048	6995.914551	3327.806152	35.507378
342.095947	1305.627563	7056.674316	3353.940918	35.616360
342.462067	1306.178833	7114.677734	3387.132813	35.826023
342.828156	1305.076050	7183.377441	3408.085205	35.775799
343.194183	1304.414551	7254.171875	3429.367676	35.714954
343.560211	1309.597290	7313.718750	3449.657471	35.643185
343.926178	1311.582275	7371.282227	3464.543945	35.529179
344.292114	1310.259155	7404.143066	3477.556152	35.565117
344.658020	1307.502197	7440.643066	3483.951904	35.486710
345.023926	1307.943237	7478.025391	3494.758545	35.442242
345.389771	1309.817871	7515.187500	3507.219238	35.411289
345.755585	1307.061157	7535.036621	3515.269043	35.456272
346.121368	1309.376953	7556.099121	3518.798096	35.369289
346.487122	1309.707642	7582.233398	3523.208740	35.288830
346.852844	1309.597412	7608.037109	3536.220947	35.351986
347.218536	1308.163818	7628.216309	3544.491699	35.384640
347.584167	1309.487061	7650.822266	3557.614258	35.451954
347.949768	1309.487061	7669.127930	3564.892578	35.464355
348.315369	1310.259033	7693.718750	3576.801758	35.506493
348.680939	1312.684937	7708.384766	3589.482910	35.598885
349.046448	1312.464478	7717.426270	3593.894043	35.619724
349.411957	1310.810303	7721.727051	3600.620117	35.717354
349.777435	1313.677490	7716.654785	3595.878418	35.642807
350.142792	1315.772705	7705.848145	3587.938965	35.557739
350.508209	1317.757568	7707.170898	3588.379883	35.537258
350.873566	1320.734985	7710.369629	3584.079590	35.422131
351.238892	1324.153320	7723.822754	3593.563232	35.461361
351.604187	1317.647217	7751.722656	3604.921387	35.549385
351.969482	1319.521973	7817.224609	3624.329346	35.471111
352.334717	1317.647339	7876.330566	3652.669189	35.601994
352.699890	1318.308838	7959.255371	3681.340088	35.582748
353.065063	1317.647217	8043.062500	3709.018555	35.557232
353.430237	1317.095825	8157.305176	3749.268311	35.556988
353.795319	1313.456787	8287.425781	3807.602295	35.763645
354.160370	1313.897827	8413.466797	3853.034668	35.764660
354.525421	1315.441650	8548.000977	3897.694824	35.703171
354.890442	1315.993164	8704.146484	3953.823730	35.703518
355.255402	1310.589600	8870.106445	4013.811768	35.759193
355.620331	1311.912964	9055.035156	4086.040283	35.826988
355.985260	1311.913086	9232.242188	4149.447266	35.825962
356.350098	1310.699951	9388.499023	4203.701172	35.814228
356.714935	1313.015869	9533.837891	4258.175781	35.825611
357.079742	1313.456909	9660.432617	4305.593262	35.846951
357.444519	1311.361694	9805.770508	4358.193359	35.868668
357.809296	1311.030762	9967.540039	4416.527344	35.874695
358.173981	1309.266479	10156.877930	4483.573242	35.877556
358.538605	1307.171265	10367.388672	4567.159668	35.981346
358.903259	1303.091187	10606.127930	4651.297852	35.990467
359.267914	1305.958008	10871.113281	4748.668457	35.992207
359.632477	1302.208740	11147.125000	4854.860840	36.086159
359.997009	1303.091064	11412.661133	4960.391602	36.176617
360.361542	1299.893188	11615.783203	5045.521973	36.309315
360.726013	1303.201416	11769.945313	5098.231934	36.257984
361.090485	1304.304321	11863.676758	5137.268555	36.299168
361.454895	1310.259033	11911.866211	5150.721680	36.225285
361.819244	1311.251343	11933.588867	5161.749023	36.249058
362.183594	1308.935791	11933.038086	5160.977539	36.257572
362.547913	1305.958374	11891.907227	5144.436523	36.260120
362.912201	1310.148682	11832.580078	5126.682617	36.270454
363.276489	1311.692383	11753.514648	5092.057617	36.204075
363.640686	1309.045898	11666.289063	5053.461914	36.152634
364.004883	1308.053467	11603.984375	5027.878906	36.129086
364.369049	1307.502075	11540.247070	5014.536133	36.227173
364.733154	1305.627319	11501.651367	4999.208008	36.225693
365.097198	1305.296631	11440.780273	4976.270996	36.219036
365.461273	1304.855469	11349.916992	4936.903809	36.157551
365.825287	1303.863037	11219.022461	4889.266113	36.160824
366.189270	1305.517212	11049.423828	4825.638672	36.126389
366.553223	1306.509644	10853.798828	4745.580566	36.021439
366.917114	1304.083740	10603.810547	4650.746094	35.986675
367.281006	1309.156250	10322.946289	4541.907227	35.864502
367.644867	1308.715088	10066.894531	4440.456543	35.757904
368.008698	1311.251465	9856.163086	4352.127930	35.586983
368.372498	1305.958374	9704.648438	4302.285156	35.676117
368.736237	1305.075928	9600.442383	4253.655273	35.544895
369.099976	1302.429565	9538.358398	4229.946289	35.545677
369.463654	1301.988525	9494.360352	4204.803711	35.433147
369.827332	1302.208862	9463.153320	4191.791992	35.407459
370.190948	1304.193848	9440.435547	4183.080566	35.383495
370.554535	1302.650146	9416.837891	4167.311523	35.304352
370.918091	1301.106445	9393.791016	4154.960938	35.264622
371.281647	1303.091309	9380.999023	4153.417969	35.285458
371.645111	1305.848267	9366.443359	4142.941895	35.197075
372.008575	1305.186523	9363.686523	4137.097656	35.141914
372.371979	1305.406982	9347.367188	4125.959961	35.072956
372.735382	1308.604858	9362.143555	4123.864746	34.956806
373.098724	1308.384155	9392.909180	4132.024414	34.926483
373.462067	1307.501953	9422.242188	4149.667969	35.024731
373.825348	1305.847900	9491.492188	4178.779297	35.097191
374.188599	1304.855347	9567.139648	4211.640625	35.181374
374.551819	1305.517090	9684.690430	4255.088379	35.201218
374.915009	1303.091187	9826.390625	4304.159180	35.210163
375.278168	1303.532227	9977.463867	4359.185059	35.228001
375.641266	1299.672729	10109.459961	4407.043945	35.271809
376.004395	1302.319214	10216.204102	4447.513672	35.284214
376.367462	1305.296631	10289.535156	4478.831055	35.323357
376.730469	1302.980957	10335.959961	4491.733398	35.301228
377.093475	1300.995972	10366.173828	4503.312500	35.325466
377.456421	1299.672852	10399.367188	4514.008789	35.323559
377.819336	1303.201538	10434.763672	4520.735352	35.235302
378.182281	1304.304199	10477.661133	4526.138184	35.121643
378.545135	1306.619873	10523.974609	4547.420898	35.159775
378.907928	1304.965820	10570.621094	4570.358398	35.241898
379.270752	1303.752808	10610.319336	4591.640625	35.328686
379.633484	1304.304077	10644.283203	4594.617676	35.228271
379.996246	1308.604858	10675.931641	4614.136230	35.287880
380.358948	1305.737671	10694.016602	4629.463867	35.402931
380.721558	1306.509521	10717.394531	4645.342773	35.478420
381.084198	1307.281494	10758.856445	4651.628906	35.384022
381.446747	1309.156006	10778.814453	4657.252441	35.356045
381.809326	1310.589722	10797.670898	4659.567871	35.300404
382.171875	1312.574707	10791.716797	4657.142090	35.283440
382.534363	1312.354126	10755.877930	4646.225098	35.303253
382.896790	1311.361572	10704.710938	4623.067871	35.255859
383.259247	1315.441772	10669.204102	4613.253906	35.256527
383.621613	1316.544556	10660.161133	4605.425293	35.199230
383.983948	1316.765015	10687.950195	4616.231445	35.208633
384.346283	1317.647217	10738.124023	4630.236328	35.163712
384.708588	1315.772705	10823.144531	4661.773926	35.193756
385.070831	1320.073242	10899.012695	4684.600586	35.124214
385.433075	1315.662354	10992.963867	4724.739258	35.227554
385.795258	1316.765015	11075.448242	4759.805664	35.281815
386.157440	1312.133667	11151.536133	4793.659180	35.383503
386.519531	1312.795288	11244.496094	4816.044922	35.273407
386.881622	1310.810303	11316.504883	4845.046387	35.322247
387.243683	1310.700073	11391.710938	4875.371582	35.360256
387.605713	1307.391724	11473.091797	4904.152344	35.381336
387.967682	1309.817749	11555.907227	4929.074219	35.323292
388.329651	1307.832886	11652.283203	4955.980469	35.266712
388.691559	1308.053345	11748.441406	4988.841797	35.255287
389.053467	1303.752686	11868.749023	5030.745605	35.276802
389.415314	1301.326782	11987.513672	5087.205078	35.427776
389.777130	1303.752808	12107.820313	5133.960938	35.451538
390.138885	1299.782959	12230.442383	5177.849121	35.478794
390.500641	1300.665039	12323.181641	5211.262207	35.478260
390.862366	1296.584961	12410.408203	5240.484863	35.486439
391.224060	1296.364502	12484.620117	5267.060059	35.489853
391.585693	1297.246704	12571.514648	5294.959473	35.458736
391.947296	1298.569946	12659.623047	5335.980957	35.537296
392.308868	1304.524658	12724.023438	5364.541504	35.553371
392.670441	1304.304077	12789.525391	5392.661133	35.596676
393.031952	1307.171265	12819.077148	5409.532227	35.635807
393.393433	1306.399414	12846.205078	5421.111816	35.656689
393.754883	1308.494507	12861.644531	5416.480469	35.557278
394.116302	1307.502075	12850.395508	5419.126465	35.620396
394.477692	1311.141113	12853.373047	5419.347168	35.592819
394.839020	1310.589722	12852.491211	5424.639648	35.644470
395.200348	1310.589722	12851.718750	5415.486816	35.567551
395.561646	1308.825317	12834.958008	5408.650391	35.569824
395.922882	1312.574585	12799.230469	5392.439941	35.518303
396.284088	1313.787476	12739.682617	5370.165039	35.501614
396.645264	1316.103271	12662.161133	5339.288574	35.458881
397.006409	1316.985474	12567.545898	5299.039063	35.394268
397.367523	1312.905396	12464.992188	5261.325684	35.405216
397.728577	1317.426514	12368.834961	5224.715820	35.355579
398.089600	1319.080688	12297.267578	5198.690918	35.339264
398.450592	1319.631958	12241.248047	5175.203613	35.302208
398.811584	1319.631958	12182.804688	5154.692871	35.303322
399.172546	1317.536865	12098.225586	5125.911621	35.325897
399.533447	1316.323853	12017.835938	5091.506348	35.277096
399.894318	1310.479492	11962.148438	5061.291504	35.213375
400.255127	1308.935791	11911.533203	5045.081055	35.238018
400.615936	1307.502197	11882.752930	5026.665527	35.168560
400.976685	1307.171387	11886.833008	5027.878418	35.168488
401.337433	1305.517212	11916.826172	5042.104004	35.213253
401.698151	1304.745483	11971.852539	5065.591797	35.256477
402.058807	1301.657715	12056.542969	5103.415039	35.349121
402.419434	1299.672729	12151.487305	5131.204102	35.307747
402.780060	1297.467285	12260.105469	5178.841797	35.405476
403.140594	1296.364624	12359.020508	5225.486816	35.516987
403.501129	1292.394775	12453.856445	5265.185059	35.593815
403.861633	1291.181763	12540.641602	5307.198730	35.699642
404.222076	1289.196777	12626.102539	5334.545898	35.683006
404.582550	1287.983765	12698.000000	5357.152344	35.663124
404.942932	1289.307007	12768.574219	5375.457031	35.595913
405.303284	1293.607666	12843.891602	5400.489746	35.556545
405.663605	1292.174316	12899.579102	5419.015137	35.553520
406.023895	1293.056396	12936.077148	5440.849609	35.624718
406.384125	1290.409912	12989.669922	5462.131836	35.657997
406.744354	1290.850952	13056.826172	5485.950684	35.654499
407.104553	1291.291992	13123.429688	5508.336426	35.640594
407.464691	1296.364624	13183.198242	5539.874023	35.699238
407.824829	1296.916016	13253.110352	5568.434570	35.726406
408.184906	1296.805664	13333.279297	5589.276367	35.662193
408.544922	1298.129028	13397.016602	5613.205566	35.665070
408.904938	1299.562500	13444.985352	5620.704102	35.578354
409.264923	1300.224121	13466.709961	5628.974609	35.579300
409.624847	1298.239258	13452.485352	5612.323730	35.494465
409.984802	1301.437256	13428.113281	5606.810059	35.503323
410.344666	1303.091187	13393.708008	5584.865723	35.414028
410.704529	1305.076050	13355.223633	5562.590820	35.331638
411.064331	1307.612305	13323.023438	5558.511230	35.378723
411.424133	1306.399414	13317.508789	5549.909668	35.329876
411.783875	1306.509644	13312.107422	5559.944336	35.428761
412.143555	1310.369263	13321.479492	5567.111816	35.440044
412.503235	1308.274048	13338.792969	5580.675781	35.513031
412.862885	1304.635010	13348.716797	5593.466309	35.609447
413.222473	1305.406860	13404.625000	5619.821777	35.658627
413.582062	1303.642578	13483.800781	5638.678711	35.590969
413.941559	1302.870605	13553.383789	5663.379395	35.594498
414.301086	1304.855591	13638.513672	5688.961914	35.545872
414.660522	1306.399414	13709.198242	5727.888184	35.649120
415.019958	1303.863037	13795.209961	5759.426270	35.669201
415.379364	1302.429688	13906.364258	5792.067383	35.620922
415.738708	1300.555054	14027.223633	5838.933594	35.660378
416.098053	1300.996216	14169.366211	5888.225586	35.647324
416.457336	1300.996094	14353.409180	5962.769531	35.715797
416.816559	1302.870728	14553.443359	6029.594727	35.671848
417.175812	1306.840454	14794.830078	6119.908203	35.684101
417.535004	1302.319336	15084.958008	6226.541992	35.727722
417.894135	1306.289063	15413.351563	6349.826660	35.751862
418.253265	1303.091187	15806.914063	6492.739746	35.781246
418.612335	1300.775513	16211.945313	6634.881836	35.772556
418.971405	1302.870728	16630.541016	6791.468750	35.808430
419.330414	1304.304077	17066.005859	6944.085449	35.781551
419.689423	1303.642334	17500.701172	7095.820801	35.760681
420.048370	1306.178711	17901.873047	7250.643555	35.819317
420.407257	1306.619751	18312.748047	7389.587891	35.769272
420.766144	1307.281372	18696.716797	7517.393555	35.711983
421.125000	1310.479370	19089.509766	7657.880859	35.701614
421.483795	1311.692383	19479.652344	7797.485840	35.699074
421.842560	1309.817749	19892.181641	7953.411621	35.752148
422.201324	1305.627563	20295.669922	8089.377441	35.722668
422.560028	1306.730225	20666.406250	8225.564453	35.738377
422.918671	1310.259033	21005.935547	8353.811523	35.761925
423.277283	1307.281494	21295.291016	8464.083008	35.805473
423.635925	1306.950806	21519.697266	8540.613281	35.787628
423.994476	1306.178833	21684.664063	8602.365234	35.803383
424.353027	1301.437134	21815.447266	8638.975586	35.768425
424.711487	1299.562500	21918.664063	8674.594727	35.767960
425.069946	1303.422119	21966.853516	8695.325195	35.772873
425.428375	1300.003662	21932.335938	8686.172852	35.799004
425.786743	1302.980957	21839.044922	8647.135742	35.762230
426.145081	1302.650146	21688.634766	8594.536133	35.769112
426.503418	1303.201538	21511.423828	8527.820313	35.750885
426.861725	1303.642578	21295.402344	8439.161133	35.692299
427.219971	1305.958252	21063.716797	8355.463867	35.679684
427.578186	1305.737671	20870.742188	8275.074219	35.621441
427.936371	1306.509521	20683.941406	8205.381836	35.602612
428.294495	1304.524658	20465.931641	8129.183594	35.616692
428.652618	1305.406982	20213.738281	8043.061035	35.633255
429.010712	1308.604858	19949.083984	7955.836426	35.660198
429.368744	1307.502197	19655.095703	7847.548340	35.645252
429.726746	1309.266479	19377.318359	7748.854980	35.640743
430.084717	1308.163818	19099.431641	7638.472656	35.580986
430.442688	1307.060913	18835.882813	7538.014648	35.546906
430.800568	1309.376709	18608.390625	7452.221680	35.509796
431.158417	1306.840454	18434.820313	7393.226074	35.534756
431.516235	1306.068604	18281.431641	7335.111816	35.516430
431.874023	1311.692505	18144.582031	7303.574219	35.596279
432.231812	1313.567261	18015.671875	7255.936523	35.578564
432.589508	1312.574707	17917.308594	7211.497070	35.525543
432.947205	1313.015869	17823.136719	7175.658691	35.509384
433.304840	1313.015747	17743.410156	7155.918945	35.561554
433.662476	1316.213623	17696.322266	7128.241211	35.482227
434.020050	1314.890381	17657.066406	7107.068359	35.443123
434.377594	1312.795166	17623.541016	7097.585449	35.466129
434.735138	1308.825195	17599.613281	7096.152344	35.525150
435.092621	1308.935669	17586.931641	7081.264160	35.460930
435.450043	1307.612305	17582.742188	7081.815430	35.478691
435.807465	1309.707520	17606.451172	7094.828125	35.498627
436.164856	1308.053345	17642.402344	7114.677246	35.548550
436.522156	1303.973267	17711.433594	7134.967773	35.538677
436.879486	1305.737671	17791.822266	7167.497559	35.555805
437.236755	1306.840454	17887.759766	7200.138184	35.542648
437.593994	1306.730225	17994.613281	7240.938965	35.559986
437.951172	1304.635010	18134.107422	7294.310059	35.590389
438.308380	1308.053467	18255.406250	7336.104004	35.569275
438.665497	1306.840454	18378.800781	7387.161621	35.615833
439.022583	1309.266602	18541.562500	7440.091309	35.577526
439.379608	1306.399414	18692.748047	7486.626465	35.546436
439.736633	1303.973389	18803.460938	7518.495605	35.512596
440.093628	1303.311646	18901.603516	7550.363770	35.498062
440.450562	1302.098633	18996.988281	7575.836914	35.455082
440.807495	1300.003540	19074.402344	7608.257324	35.490673
441.164368	1297.687866	19164.937500	7643.654785	35.517311
441.521210	1294.820679	19226.908203	7672.987305	35.568455
441.878021	1295.813232	19294.947266	7699.452148	35.577480
442.234833	1294.820801	19409.521484	7733.416504	35.543484
442.591522	1293.056274	19506.119141	7782.597656	35.631248
442.948242	1294.379517	19605.806641	7822.516602	35.650620
443.304901	1289.748169	19723.906250	7858.134766	35.631607
443.661530	1290.961060	19876.414063	7900.920410	35.565231
444.018127	1295.372070	20038.294922	7953.520020	35.523533
444.374664	1293.717773	20193.007813	8017.920410	35.579128
444.731201	1294.710327	20324.121094	8057.508301	35.538662
445.087738	1294.159058	20459.091797	8108.122559	35.554329
445.444183	1294.048950	20529.777344	8145.726074	35.619537
445.800598	1288.535278	20607.960938	8175.278809	35.646732
446.156982	1294.710449	20632.111328	8187.629395	35.645531
446.513336	1294.379639	20623.511719	8189.834961	35.673897
446.869598	1296.143921	20639.279297	8194.795898	35.664600
447.225891	1296.254272	20655.710938	8209.573242	35.710293
447.582153	1298.569946	20644.904297	8207.368164	35.711151
447.938354	1298.900757	20658.910156	8217.623047	35.737183
448.294495	1300.113892	20673.464844	8210.235352	35.668179
448.650665	1300.775269	20647.441406	8206.155273	35.692867
449.006775	1304.304199	20650.308594	8194.797852	35.617142
449.362823	1304.634888	20653.947266	8192.811523	35.599079
449.718842	1306.068604	20646.886719	8188.621094	35.585632
450.074860	1303.201416	20633.435547	8176.822266	35.558914
450.430817	1299.121338	20615.460938	8160.170410	35.519405
450.786713	1303.091187	20522.720703	8135.800781	35.550682
451.142578	1302.429443	20414.103516	8096.764160	35.550705
451.498444	1299.672852	20259.611328	8042.290039	35.562443
451.854248	1298.790649	20091.447266	7967.525879	35.485859
452.210022	1296.364624	19887.664063	7897.171875	35.504818
452.565765	1297.687866	19641.093750	7807.079102	35.486271
452.921478	1298.790527	19413.382813	7716.214844	35.426823
453.277191	1300.665039	19194.601563	7632.187500	35.383617
453.632813	1293.717896	19016.619141	7562.164551	35.369194
453.988434	1291.953491	18836.214844	7486.516602	35.308201
454.343964	1291.512451	18654.484375	7424.764160	35.323742
454.699524	1291.512451	18502.417969	7368.744629	35.310356
455.054993	1289.858398	18362.921875	7326.179199	35.355816
455.410400	1292.946045	18256.728516	7285.268555	35.324207
455.765839	1292.505005	18209.533203	7258.362305	35.265400
456.121216	1291.843384	18214.494141	7257.040039	35.249779
456.476593	1290.850952	18258.162109	7285.049316	35.327923
456.831909	1292.505005	18381.447266	7333.568359	35.350719
457.187195	1290.299438	18541.011719	7397.747070	35.404030
457.542450	1292.725586	18748.433594	7466.666504	35.369183
457.897644	1294.049072	18936.558594	7557.420898	35.501595
458.252808	1294.710571	19188.201172	7642.221191	35.473854
458.607971	1291.733398	19381.619141	7712.134766	35.491661
458.963013	1290.079224	19505.677734	7756.685059	35.500378
459.318085	1288.755859	19596.982422	7787.892090	35.498447
459.673096	1285.116821	19666.013672	7807.852051	35.486492
460.028076	1286.440063	19745.630859	7831.670410	35.457840
460.383057	1284.786133	19806.941406	7853.613770	35.464703
460.737976	1287.983887	19834.839844	7859.348145	35.431149
461.092865	1292.725586	19855.791016	7861.002441	35.383575
461.447723	1296.916016	19856.453125	7874.235352	35.439026
461.802551	1298.239258	19856.453125	7861.442871	35.365490
462.157288	1297.467407	19858.546875	7865.412109	35.385574
462.512054	1300.224121	19875.419922	7860.781250	35.318913
462.866760	1298.349487	19855.460938	7845.011719	35.278454
463.221405	1300.224121	19807.162109	7842.585449	35.350861
463.576019	1303.091187	19712.216797	7807.409180	35.332031
463.930603	1302.539917	19614.736328	7766.829102	35.300457
464.285156	1299.121338	19475.904297	7704.855469	35.241299
464.639709	1298.128906	19264.953125	7623.474609	35.205696
464.994171	1297.908203	19023.126953	7536.579590	35.196583
465.348633	1296.584961	18747.886719	7428.292480	35.136105
465.703033	1295.923462	18464.816406	7335.222656	35.175823
466.057434	1298.790649	18214.716797	7247.004395	35.163395
466.411774	1299.562622	18037.949219	7175.768066	35.106163
466.766083	1301.106445	17885.222656	7124.160156	35.112232
467.120331	1305.737793	17779.470703	7095.930176	35.148029
467.474548	1301.106445	17689.046875	7062.186523	35.154385
467.828735	1303.752930	17619.908203	7028.554199	35.086704
468.182922	1304.083740	17569.181641	7014.438965	35.108032
468.537048	1303.752808	17523.308594	6995.141602	35.089672
468.891144	1301.878296	17492.320313	6974.741211	35.038342
469.245178	1301.878174	17462.218750	6972.646484	35.090649
469.599213	1302.539917	17443.248047	6956.768066	35.030853
469.953186	1298.680298	17429.464844	6951.805176	35.045567
470.307129	1296.805664	17448.871094	6957.869629	35.048546
470.661041	1296.364624	17470.375000	6961.728516	35.027576
471.014923	1294.159180	17540.398438	6983.122070	35.017105
471.368713	1291.402344	17554.513672	6981.799316	34.989597
471.722504	1291.733154	17527.056641	6976.726074	35.016201
472.076294	1294.159180	17506.875000	6962.502441	34.962330
472.429993	1294.820679	17450.636719	6948.056641	34.991955
472.783722	1298.680298	17445.673828	6933.610840	34.897709
473.137329	1298.900757	17468.169922	6929.971191	34.825756
473.490967	1297.136353	17501.912109	6942.982910	34.840633
473.844543	1299.893188	17586.824219	6968.455566	34.804363
474.198090	1304.304077	17671.072266	6995.362305	34.772034
474.551605	1302.319214	17800.201172	7028.885254	34.710915
474.905060	1308.384155	17940.027344	7088.102051	34.751335
475.258484	1308.935547	18086.910156	7136.180664	34.731518
475.611877	1306.178711	18251.660156	7202.564941	34.796219
475.965240	1308.273926	18447.281250	7274.792969	34.812511
476.318573	1309.266235	18634.302734	7350.991699	34.872799
476.671844	1309.597168	18851.650391	7422.558105	34.847466
477.025116	1311.912964	19080.025391	7499.970215	34.826756
477.378326	1311.582275	19312.589844	7596.568359	34.914635
477.731506	1315.882690	19547.250000	7694.489746	34.986992
478.084656	1316.323975	19827.232422	7787.339355	34.957851
478.437744	1317.867554	20118.792969	7889.893555	34.955864
478.790833	1320.844971	20460.417969	8012.295898	34.961342
479.143890	1321.506836	20876.585938	8152.122070	34.930134
479.496826	1319.191040	21361.125000	8325.029297	34.955902
479.849823	1318.308838	22011.734375	8547.007813	34.932346
480.202728	1315.441650	22825.765625	8825.446289	34.913490
480.555603	1315.110840	23823.623047	9179.310547	34.938782
480.908478	1315.441772	25161.562500	9651.829102	34.959095
481.261292	1316.985596	26807.597656	10279.721680	35.160931
481.614075	1312.574707	28644.851563	11029.354492	35.550568
481.966797	1312.464355	30482.433594	11813.172852	35.998356
482.319489	1309.045898	32214.595703	12500.060547	36.210373
482.672150	1305.296631	33764.917969	13086.601563	36.295261
483.024780	1306.730103	35107.265625	13559.337891	36.249744
483.377350	1302.870605	36224.988281	13942.755859	36.194496
483.729919	1298.018677	37244.351563	14283.939453	36.125858
484.082428	1299.011108	38192.691406	14606.928711	36.070995
484.434937	1295.702881	39178.636719	14952.962891	36.051220
484.787384	1295.151489	40234.167969	15321.273438	36.020741
485.139771	1292.725586	41388.390625	15745.270508	36.045158
485.492157	1292.835815	42569.632813	16164.416992	36.028912
485.844482	1293.387207	43648.093750	16555.332031	36.033646
486.196777	1294.710449	44636.695313	16908.097656	36.023701
486.549072	1296.033813	45404.960938	17196.791016	36.048843
486.901276	1296.695313	45975.839844	17391.640625	36.023396
487.253448	1298.239258	46288.355469	17485.812500	35.980286
487.605591	1302.208984	46303.132813	17499.929688	35.994198
487.957703	1299.672607	46083.031250	17416.785156	35.989063
488.309784	1299.562378	45554.933594	17233.179688	36.003803
488.661835	1296.033691	44797.800781	16927.724609	35.933464
489.013855	1298.349365	44004.054688	16551.142578	35.716053
489.365814	1299.231567	43266.445313	16165.630859	35.423840
489.717743	1303.532349	42634.578125	15870.429688	35.244442
490.069611	1305.186401	42050.355469	15630.369141	35.157990
490.421509	1304.965820	41502.742188	15438.712891	35.160519
490.773315	1302.981079	41014.894531	15264.815430	35.157795
491.125092	1306.619995	40491.542969	15088.709961	35.171921
491.476807	1304.524780	39882.945313	14875.664063	35.178059
491.828522	1307.612305	39140.375000	14610.346680	35.161945
492.180176	1309.707520	38236.800781	14278.207031	35.119202
492.531830	1309.156128	37205.195313	13884.202148	35.031849
492.883423	1306.178711	36045.132813	13469.025391	35.012127
493.234985	1304.745239	34956.851563	13065.207031	34.947182
493.586487	1304.965698	33935.281250	12698.661133	34.917515
493.937988	1305.296509	33071.078125	12379.533203	34.862156
494.289429	1307.391846	32372.283203	12136.932617	34.861031
494.640869	1306.950562	31790.261719	11948.367188	34.908993
494.992218	1303.752808	31337.705078	11790.897461	34.917629
495.343567	1308.053345	30892.642578	11632.325195	34.897465
495.694855	1309.266479	30385.390625	11443.098633	34.852760
496.046112	1310.589722	29761.578125	11218.913086	34.825935
496.397339	1310.479492	28948.871094	10920.845703	34.771801
496.748535	1314.008179	28032.728516	10592.343750	34.725975
497.099670	1311.030884	27087.691406	10244.542969	34.657368
497.450806	1309.817871	26246.529297	9929.383789	34.565769
497.801880	1306.840576	25569.789063	9669.583008	34.467129
498.152924	1311.582275	24976.521484	9468.336914	34.467678
498.503937	1313.897827	24514.037109	9311.968750	34.474236
498.854889	1314.449219	24176.052734	9202.138672	34.501907
499.205841	1312.243774	23892.431641	9107.303711	34.521679
499.556702	1311.140991	23686.552734	9034.083008	34.515305
499.907562	1307.943115	23485.634766	8959.427734	34.500816
500.258362	1310.148560	23315.595703	8903.078125	34.504772
500.609161	1309.707520	23158.457031	8847.389648	34.499374
500.959900	1308.494507	22990.400391	8782.329102	34.470375
501.310608	1307.171265	22819.037109	8714.622070	34.434258
501.661255	1307.171265	22611.285156	8641.731445	34.427906
502.011902	1309.266602	22391.291016	8566.525391	34.423920
502.362488	1311.913086	22170.857422	8477.425781	34.352230
502.713043	1309.487061	21960.457031	8401.888672	34.344154
503.063568	1309.817871	21776.964844	8336.717773	34.332581
503.414063	1310.369263	21571.416016	8273.201172	34.365608
503.764496	1309.487061	21409.425781	8211.890625	34.340420
504.114899	1307.722656	21250.632813	8157.856445	34.348717
504.465271	1306.950684	21128.449219	8110.989746	34.326565
504.815613	1310.699951	21029.423828	8085.186035	34.355602
505.165894	1314.559570	20931.613281	8063.462891	34.403244
505.516174	1314.890381	20892.464844	8041.738770	34.359970
505.866394	1313.125977	20881.437500	8017.588379	34.261833
506.216583	1311.802856	20873.714844	8013.398926	34.258389
506.566711	1311.802734	20907.458984	8033.688965	34.302940
506.916840	1310.810303	20949.033203	8045.045898	34.291470
507.266907	1311.251343	21002.847656	8066.660156	34.306049
507.616882	1312.464355	21083.457031	8086.508301	34.262539
507.966858	1310.589966	21133.298828	8111.871094	34.310555
508.316803	1311.251587	21188.214844	8136.683105	34.338402
508.666748	1311.030884	21251.291016	8160.613281	34.350517
509.016632	1309.707642	21313.376953	8175.941406	34.324871
509.366486	1309.046021	21402.917969	8200.642578	34.297009
509.716309	1306.840454	21490.474609	8238.355469	34.342255
510.066040	1308.715088	21588.066406	8279.156250	34.372112
510.415771	1308.935669	21689.849609	8323.485352	34.417248
510.765503	1303.863037	21797.253906	8354.692383	34.405380
511.115173	1302.870483	21897.271484	8385.677734	34.391907
511.464752	1302.650024	21996.625000	8411.702148	34.353249
511.814270	1304.965820	22078.666016	8438.719727	34.340317
512.163818	1302.980835	22163.134766	8472.352539	34.368736
512.513306	1300.444580	22225.990234	8490.327148	34.359356
512.862793	1297.797974	22280.796875	8512.381836	34.382999
513.212219	1294.931030	22320.494141	8544.692383	34.480701
513.561646	1295.482178	22372.982422	8548.220703	34.409859
513.911011	1294.710449	22402.203125	8553.072266	34.387608
514.260315	1298.128906	22437.380859	8577.221680	34.434013
514.609558	1299.893188	22506.414063	8602.695313	34.436588
514.958801	1300.665283	22600.585938	8641.291016	34.463161
515.308044	1304.193970	22745.705078	8686.833008	34.431522
515.657227	1303.311890	22949.488281	8742.742188	34.368336
516.006348	1307.171387	23197.712891	8830.959961	34.370045
516.355408	1308.935669	23468.322266	8933.404297	34.407398
516.704529	1306.950684	23702.210938	9017.210938	34.428089
517.053467	1310.810181	23927.384766	9073.338867	34.322300
517.402466	1309.817627	24100.404297	9127.041992	34.300236
517.751404	1310.589600	24227.660156	9163.211914	34.265385
518.100281	1315.882813	24354.253906	9201.585938	34.228561
518.449219	1316.764893	24445.224609	9239.850586	34.256870
518.798035	1314.228638	24541.933594	9268.851563	34.246273
519.146851	1311.471924	24637.761719	9300.279297	34.248085
519.495544	1311.582275	24703.267578	9320.128906	34.236725
519.844299	1311.582031	24792.478516	9346.373047	34.218418
520.192932	1310.589600	24892.824219	9380.557617	34.220539
520.541626	1311.912964	24987.878906	9399.965820	34.161446
520.890198	1313.236084	25089.660156	9447.604492	34.211906
521.238770	1315.993042	25211.404297	9481.568359	34.172146
521.587280	1313.897827	25350.234375	9508.915039	34.094288
521.935791	1315.000488	25468.556641	9545.635742	34.076286
522.284180	1312.905273	25587.652344	9584.894531	34.076523
522.632629	1310.810181	25735.308594	9630.105469	34.061272
522.981018	1313.346436	25881.085938	9687.557617	34.086208
523.329346	1309.376709	26049.583984	9737.179688	34.065208
523.677551	1312.795288	26239.253906	9804.666992	34.067703
524.025818	1310.810303	26502.146484	9885.166016	34.036922
524.374023	1305.848267	26813.333984	10012.750977	34.134693
524.722229	1304.304443	27208.441406	10150.370117	34.149239
525.070374	1302.760376	27733.115234	10325.924805	34.139397
525.418457	1301.878174	28432.574219	10557.607422	34.115341
525.766541	1303.532227	29419.845703	10904.195313	34.146240
526.114563	1305.406860	30673.535156	11367.119141	34.260651
526.462585	1304.414429	32059.880859	11891.685547	34.424030
526.810547	1302.319214	33429.792969	12417.795898	34.598042
527.158447	1303.311523	34649.191406	12859.439453	34.655342
527.506348	1306.509521	35670.535156	13213.744141	34.650288
527.854065	1305.406860	36507.835938	13504.754883	34.654846
528.201904	1305.296631	37179.289063	13726.290039	34.623951
528.549622	1304.965820	37700.105469	13898.867188	34.603249
528.897339	1304.965820	38087.820313	14031.965820	34.600357
529.245056	1305.848022	38392.945313	14126.690430	34.569550
529.592712	1304.965942	38621.097656	14203.991211	34.566887
529.940369	1302.209106	38808.785156	14279.860352	34.601006
530.287903	1298.239258	39002.093750	14355.616211	34.631409
530.635437	1300.003662	39242.042969	14438.982422	34.629078
530.982910	1296.254272	39534.929688	14539.770508	34.633827
531.330383	1298.349487	39778.742188	14645.412109	34.685356
531.677795	1296.364624	39893.535156	14686.324219	34.691559
532.025208	1296.805664	39896.734375	14689.633789	34.696510
532.372498	1296.144043	39700.453125	14626.889648	34.711590
532.719788	1294.379639	39259.023438	14473.830078	34.715061
533.067078	1295.261841	38522.738281	14195.833008	34.653358
533.414307	1297.577637	37499.183594	13808.997070	34.560402
533.761536	1299.782959	36364.812500	13367.352539	34.414825
534.108643	1298.790649	35301.566406	12938.723633	34.232300
534.455811	1298.349487	34402.292969	12609.669922	34.169102
534.802856	1298.459717	33658.390625	12356.482422	34.171959
535.149902	1300.996094	33076.042969	12154.794922	34.158245
535.496887	1300.665161	32572.203125	11986.298828	34.170479
535.843811	1298.790527	32153.277344	11851.104492	34.200260
536.190796	1300.113892	31807.683594	11738.626953	34.216141
536.537659	1300.885742	31473.228516	11637.398438	34.258236
536.884460	1301.216553	31187.402344	11542.563477	34.267830
537.231323	1303.973267	30885.589844	11429.754883	34.229980
537.578064	1306.950806	30573.738281	11323.120117	34.223671
537.924805	1308.274048	30209.177734	11207.996094	34.254021
538.271423	1307.502197	29892.691406	11077.433594	34.178299
538.618164	1308.935547	29722.433594	10997.926758	34.099960
538.964783	1312.795288	29751.984375	11017.665039	34.124989
539.311279	1312.354126	29938.345703	11087.247070	34.146912
539.657776	1313.787720	30217.447266	11186.161133	34.156136
540.004333	1312.023193	30474.714844	11290.919922	34.218021
540.350769	1311.030762	30722.937500	11386.636719	34.256893
540.697144	1310.920410	30910.619141	11462.834961	34.297356
541.043518	1307.501953	31016.039063	11504.187500	34.322411
541.389893	1307.832764	30991.449219	11505.069336	34.353077
541.736145	1312.243652	30870.919922	11458.975586	34.327427
542.082458	1311.030762	30728.115234	11406.265625	34.317589
542.428711	1313.677490	30558.958984	11348.923828	34.314068
542.774902	1311.030884	30414.613281	11298.087891	34.315559
543.121033	1314.559570	30309.851563	11251.442383	34.270676
543.467102	1315.772705	30228.580078	11215.935547	34.241447
543.813171	1314.449341	30173.115234	11195.204102	34.238434
544.159180	1314.118530	30124.265625	11168.739258	34.205383
544.505127	1316.103394	30064.390625	11143.045898	34.182705
544.851135	1315.882813	29946.505859	11094.857422	34.155647
545.197021	1314.228760	29733.347656	11016.564453	34.140171
545.542908	1312.574585	29327.765625	10888.538086	34.181324
545.888733	1313.125977	28734.279297	10679.350586	34.156933
546.234558	1312.574585	27955.421875	10396.280273	34.094353
546.580322	1314.449219	27086.472656	10076.379883	33.997837
546.926025	1314.449219	26190.398438	9753.501953	33.924545
547.271667	1315.331421	25366.664063	9454.772461	33.841953
547.617371	1312.464233	24569.062500	9186.588867	33.857594
547.962952	1309.376709	23836.634766	8925.793945	33.809784
548.308533	1316.875244	23176.984375	8702.050781	33.783802
548.654053	1318.749878	22597.058594	8501.464844	33.756042
548.999573	1316.985596	22105.242188	8332.527344	33.747623
549.344971	1317.426514	21676.394531	8181.454102	33.715004
549.690430	1313.456787	21303.451172	8052.655273	33.712856
550.035767	1313.897827	20995.458984	7941.831055	33.675850
550.381104	1314.338867	20720.439453	7848.871094	33.672565
550.726440	1308.715088	20440.898438	7759.991699	33.719498
551.071655	1308.053345	20193.007813	7671.332520	33.694965
551.416931	1305.737671	19905.525391	7568.779785	33.672653
551.762085	1305.958130	19601.064453	7465.895996	33.669868
552.107178	1303.752686	19293.402344	7347.242676	33.594261
552.452332	1302.539795	18985.742188	7232.338379	33.533512
552.797424	1304.304077	18713.041016	7138.937500	33.515549
553.142395	1299.011108	18451.914063	7057.336426	33.570560
553.487366	1300.113770	18255.408203	6982.460449	33.513699
553.832336	1301.106323	18065.296875	6925.670898	33.551064
554.177185	1299.782959	17916.652344	6880.018066	33.581749
554.522095	1301.326782	17807.810547	6839.216309	33.549782
554.866943	1304.745361	17704.042969	6800.180176	33.510185
555.211731	1306.068604	17624.757813	6778.125000	33.532452
555.556396	1300.885742	17547.566406	6755.077148	33.571114
555.901123	1302.760376	17476.771484	6729.715820	33.553555
556.245789	1303.201538	17389.656250	6704.904785	33.579201
556.590454	1305.406860	17291.294922	6670.058105	33.558670
556.934998	1303.642700	17206.494141	6630.470215	33.496052
557.279541	1307.722656	17093.353516	6589.118164	33.456982
557.624023	1306.620117	16953.750000	6545.560059	33.481796
557.968567	1311.361694	16822.525391	6497.150879	33.432625
558.312988	1313.567017	16687.994141	6445.102539	33.377087
558.657349	1316.213745	16581.359375	6409.814941	33.367523
559.001770	1315.000732	16496.228516	6378.938477	33.356575
559.346069	1317.757568	16420.470703	6361.846191	33.398563
559.690308	1318.970459	16366.767578	6345.084961	33.400997
560.034485	1318.529541	16310.417969	6327.440430	33.410809
560.378723	1321.727173	16279.982422	6310.900391	33.353981
560.722900	1318.970459	16237.306641	6306.378906	33.431396
561.067017	1315.662354	16214.701172	6282.780273	33.338512
561.411072	1315.110962	16186.361328	6277.818359	33.371151
561.755127	1317.206055	16158.242188	6281.457520	33.449493
562.099182	1316.213745	16149.860352	6282.450195	33.479538
562.443115	1316.103394	16154.382813	6280.354980	33.455708
562.787048	1318.198486	16166.845703	6279.252441	33.410812
563.130920	1317.536865	16204.117188	6296.564941	33.446423
563.474792	1314.559570	16275.242188	6321.596680	33.467972
563.818604	1309.817749	16366.658203	6357.435059	33.523746
564.162354	1314.890259	16455.423828	6398.015625	33.572964
564.506042	1312.133545	16567.021484	6440.691406	33.619110
564.849731	1311.582153	16664.722656	6474.545410	33.628059
565.193420	1309.376709	16735.189453	6500.900391	33.654781
565.537048	1304.304077	16789.001953	6529.349609	33.743282
565.880615	1304.965820	16818.666016	6546.221680	33.784691
566.224121	1303.201416	16827.597656	6556.808105	33.840969
566.567627	1303.642578	16828.146484	6559.785645	33.857075
566.911072	1306.509766	16823.736328	6566.291504	33.896404
567.254517	1305.848022	16856.265625	6573.018555	33.871567
567.597839	1307.612305	16881.408203	6585.809570	33.891525
567.941223	1305.847900	16914.271484	6586.582031	33.832592
568.284485	1305.186401	16938.753906	6608.194824	33.920654
568.627808	1306.289063	17000.615234	6620.545898	33.861008
568.970947	1304.855591	17070.197266	6636.314941	33.817596
569.314148	1310.589600	17146.837891	6657.045898	33.760876
569.657288	1314.449341	17232.078125	6686.378906	33.748302
570.000366	1315.772461	17313.900391	6707.550781	33.702557
570.343445	1316.213745	17378.958984	6718.467285	33.632195
570.686462	1319.301392	17399.359375	6728.282227	33.637821
571.029419	1319.521851	17410.937500	6721.444824	33.570213
571.372314	1314.559570	17389.546875	6715.710449	33.599720
571.715210	1314.780029	17336.173828	6693.436035	33.571712
572.058105	1315.441650	17284.566406	6677.445801	33.577316
572.400879	1318.308716	17266.921875	6671.380859	33.564499
572.743713	1316.985474	17250.712891	6666.087891	33.570942
573.086426	1315.882813	17256.779297	6669.506836	33.584209
573.429077	1315.993042	17280.599609	6669.727539	33.535023
573.771790	1313.456787	17288.978516	6662.227539	33.481037
574.114441	1308.825317	17280.158203	6662.227539	33.518822
574.457031	1309.376709	17246.634766	6643.702148	33.470783
574.799561	1306.399414	17192.378906	6623.633789	33.471241
575.142029	1312.684937	17144.080078	6610.952148	33.466835
575.484436	1316.103271	17057.294922	6580.075684	33.440750
575.826904	1311.471802	16940.076172	6541.480469	33.464336
576.169250	1314.890381	16794.847656	6485.682129	33.403141
576.511597	1309.266357	16627.013672	6429.884766	33.429317
576.853943	1303.863037	16422.126953	6355.450684	33.413811
577.196167	1302.980835	16207.315430	6283.442871	33.416199
577.538391	1300.885742	15981.145508	6212.537598	33.457527
577.880554	1295.923462	15774.605469	6130.714844	33.392483
578.222717	1297.798096	15546.340820	6053.634766	33.377708
578.564819	1298.459717	15335.276367	5972.143066	33.295895
578.906860	1297.798096	15149.357422	5914.029297	33.326439
579.248901	1294.489990	14957.482422	5850.732910	33.347332
579.590942	1292.505005	14756.014648	5778.724609	33.321323
579.932861	1296.474854	14573.073242	5701.864746	33.181614
580.274780	1295.813232	14376.127930	5625.666504	33.102058
580.616638	1297.577515	14177.304688	5556.084961	33.063644
580.958496	1300.665161	13971.095703	5492.898438	33.086746
581.300232	1301.988525	13802.267578	5420.229004	32.945187
581.641968	1302.760376	13638.404297	5368.841797	32.962055
581.983704	1300.885620	13495.599609	5315.028809	32.917076
582.325317	1296.915771	13360.736328	5267.170410	32.910427
582.666992	1296.474731	13243.408203	5221.958496	32.857670
583.008606	1298.018555	13132.584961	5186.009766	32.852840
583.350098	1295.482300	13037.419922	5158.551758	32.899761
583.691589	1294.710449	12956.919922	5127.895996	32.868435
584.033081	1295.813232	12896.602539	5101.761719	32.807671
584.374512	1293.276978	12835.179688	5073.532227	32.752445
584.715881	1293.607666	12787.429688	5054.564941	32.721554
585.057190	1291.512451	12741.335938	5038.795410	32.727867
585.398499	1289.086548	12694.800781	5030.965820	32.807060
585.739807	1291.071655	12657.087891	5027.327148	32.872162
586.081055	1291.622803	12628.416992	5014.424316	32.838223
586.422180	1291.622803	12602.281250	5008.689941	32.863403
586.763367	1289.637939	12593.017578	5002.625000	32.848469
587.104431	1289.196777	12593.017578	5009.793457	32.914505
587.445496	1290.189331	12597.098633	5011.999023	32.916241
587.786499	1287.211914	12592.797852	5014.205078	32.965946
588.127502	1283.021484	12621.468750	5022.364746	32.979324
588.468445	1284.234619	12627.754883	5044.419434	33.148304
588.809326	1284.124390	12634.040039	5045.853516	33.143230
589.150208	1287.322266	12639.332031	5051.477539	33.158493
589.491028	1290.740723	12626.099609	5046.404785	33.132290
589.831848	1290.299683	12624.998047	5054.785156	33.212048
590.172546	1291.291992	12613.971680	5052.800781	33.221012
590.513245	1289.307251	12605.810547	5043.758301	33.176781
590.853943	1289.307251	12610.994141	5044.530273	33.168407
591.194458	1290.189331	12623.235352	5047.618652	33.154629
591.535095	1288.645508	12624.227539	5055.668457	33.231846
591.875610	1289.527588	12644.406250	5050.044434	33.118073
592.216125	1291.622803	12648.376953	5052.469727	33.115509
592.556580	1291.071411	12667.343750	5056.880371	33.102310
592.897034	1287.763184	12700.867188	5064.158203	33.088238
593.237366	1287.652954	12718.510742	5069.561523	33.085083
593.577698	1288.535156	12771.110352	5077.280273	32.995605
593.918030	1289.307007	12819.409180	5103.525391	33.080524
594.258301	1292.284302	12873.332031	5124.697266	33.092110
594.598511	1292.063843	12952.838867	5157.889648	33.152390
594.938721	1294.379639	13037.417969	5196.595703	33.230038
595.278809	1299.231567	13118.026367	5220.966309	33.182190
595.618958	1298.790527	13172.391602	5235.191406	33.152542
595.958984	1299.011108	13228.298828	5251.291016	33.130894
596.299011	1302.098633	13252.007813	5255.150879	33.080185
596.638977	1299.011108	13278.141602	5259.120117	33.058399
596.978943	1297.908447	13289.832031	5255.481445	33.001987
597.318848	1300.665161	13285.533203	5247.431641	32.931248
597.658630	1300.113770	13271.526367	5248.865234	32.984844
597.998474	1298.128662	13238.885742	5242.910645	33.036282
598.338257	1297.356934	13184.189453	5233.868164	33.116573
598.677979	1298.680298	13151.439453	5217.437500	33.061985
599.017700	1297.026245	13096.192383	5205.417480	33.124298
599.357361	1300.444580	13052.415039	5194.500000	33.135342
599.696960	1305.737671	13013.156250	5175.533691	33.054218
600.036560	1307.171265	12965.298828	5152.927734	32.987770
600.376038	1303.973389	12926.591797	5142.892578	33.029728
600.715576	1303.422119	12884.029297	5135.725098	33.092419
601.055054	1302.870850	12840.801758	5123.153809	33.110641
601.394409	1301.878174	12806.395508	5104.517578	33.053444
601.733826	1303.752930	12760.414063	5090.072266	33.049065
602.073120	1301.878296	12756.113281	5080.037109	32.984818
602.412415	1297.577515	12743.873047	5085.991699	33.097294
602.751587	1296.915894	12771.220703	5089.851563	33.055908
603.090820	1298.459839	12801.544922	5105.290039	33.093994
603.429993	1293.166748	12848.080078	5119.625977	33.115429
603.769104	1292.063965	12883.807617	5137.269531	33.171932
604.108154	1293.828369	12909.392578	5149.288574	33.192188
604.447205	1296.144165	12946.553711	5166.160645	33.217861
604.786194	1298.349487	12976.877930	5168.917969	33.142605
605.125183	1302.319336	13007.534180	5173.989746	33.076458
605.464111	1300.665039	13028.486328	5182.150391	33.096390
605.802979	1299.562378	13050.870117	5190.310059	33.109062
606.141846	1300.113770	13074.911133	5197.698730	33.101082
606.480652	1297.908325	13114.829102	5210.931641	33.113731
606.819336	1295.702881	13167.648438	5231.883301	33.155312
607.158020	1295.261719	13228.960938	5265.516113	33.269268
607.496765	1300.003296	13292.807617	5284.041504	33.220238
607.835388	1301.216431	13331.182617	5294.518066	33.194622
608.173950	1305.076050	13348.386719	5295.290039	33.132202
608.512512	1303.201416	13325.559570	5293.525879	33.190861
608.851013	1301.216431	13280.789063	5274.117188	33.163963
609.189514	1304.965820	13184.080078	5240.925293	33.133442
609.527893	1305.186279	13073.698242	5193.066895	33.036297
609.866333	1304.414673	12945.449219	5146.311035	33.003052
610.204712	1303.091309	12806.505859	5093.711426	32.952133
610.542969	1304.304321	12678.920898	5053.461914	32.960739
610.881226	1305.627563	12564.238281	5014.756348	32.944820
611.219482	1303.532349	12470.395508	4983.218262	32.951832
611.557678	1301.547363	12383.722656	4948.703125	32.910107
611.895813	1299.011108	12310.279297	4925.766602	32.936764
612.233948	1298.018555	12237.611328	4901.616699	32.940880
612.571960	1302.098633	12167.256836	4879.452148	32.925003
612.910034	1306.619873	12098.998047	4857.066406	32.897724
613.247986	1306.730103	12027.210938	4830.049805	32.865314
613.585938	1308.935547	11942.411133	4792.887695	32.764004
613.923828	1305.737671	11822.654297	4749.550781	32.745461
614.261658	1308.715088	11693.414063	4692.870605	32.587902
614.599487	1306.730103	11548.295898	4647.989746	32.624504
614.937317	1307.943115	11424.239258	4596.271484	32.505260
615.275024	1307.612305	11309.556641	4551.280273	32.430374
615.612732	1306.399414	11213.178711	4510.149414	32.338966
615.950378	1305.627441	11119.227539	4475.523438	32.301052
616.288025	1302.429443	11032.443359	4449.609375	32.345074
616.625549	1303.421997	10971.901367	4427.003906	32.306858
616.963074	1304.414307	10919.523438	4407.485352	32.272861
617.300537	1305.517212	10871.445313	4392.819336	32.273945
617.638000	1305.296631	10823.035156	4381.791992	32.323807
617.975464	1309.266357	10790.614258	4368.559082	32.266434
618.312744	1310.369141	10753.563477	4355.877930	32.250832
618.650024	1309.486938	10720.259766	4349.591797	32.304520
618.987305	1308.274048	10683.428711	4342.535156	32.364922
619.324585	1305.958374	10658.507813	4334.926270	32.386547
619.661743	1302.429565	10644.723633	4323.347656	32.335934
619.998901	1299.783081	10616.824219	4316.400879	32.377422
620.336060	1298.018799	10589.255859	4312.761230	32.447159
620.673096	1295.151611	10567.752930	4306.696289	32.477882
621.010193	1298.459717	10548.125000	4298.535645	32.434429
621.347168	1296.254272	10527.833984	4295.778809	32.491993
621.684082	1297.908447	10493.208984	4285.964844	32.495472
622.020996	1297.356934	10457.591797	4285.633789	32.622276
622.357849	1298.128906	10433.993164	4288.060059	32.727402
622.694641	1299.562500	10412.929688	4280.561523	32.710182
623.031433	1303.863037	10391.095703	4275.599121	32.702324
623.368164	1305.296631	10386.905273	4266.335938	32.604790
623.704895	1306.619873	10376.759766	4268.210938	32.652100
624.041504	1307.832886	10383.927734	4272.180664	32.661049
624.378174	1305.737671	10402.343750	4284.751465	32.748627
624.714783	1311.692505	10445.901367	4296.550781	32.677799
625.051331	1308.715210	10478.101563	4305.262207	32.679905
625.387756	1309.156250	10514.711914	4313.974121	32.641354
625.724304	1309.486938	10534.119141	4323.677246	32.675453
626.060669	1310.589600	10552.314453	4323.898438	32.605480
626.397034	1310.369141	10560.364258	4324.560059	32.585865
626.733337	1310.369141	10564.333984	4327.757813	32.606441
627.069641	1307.502075	10570.950195	4327.978516	32.606396
627.405884	1309.486938	10560.474609	4327.868164	32.627666
627.742126	1308.935669	10550.439453	4328.971191	32.679050
628.078308	1308.053467	10538.639648	4331.286621	32.752342
628.414429	1304.524780	10513.057617	4322.685547	32.775692
628.750488	1304.414551	10493.319336	4316.620605	32.780907
629.086548	1301.767944	10460.126953	4301.733398	32.756580
629.422546	1299.121338	10419.546875	4276.812012	32.648594
629.758545	1297.798096	10365.293945	4265.674316	32.730934
630.094421	1294.710571	10318.648438	4249.244141	32.741070
630.430298	1293.497437	10264.283203	4234.688477	32.786324
630.766113	1293.276855	10200.986328	4215.059082	32.800602
631.101929	1292.615479	10124.567383	4187.932129	32.782295
631.437622	1293.166626	10043.185547	4157.937988	32.740177
631.773376	1288.865967	9950.115234	4129.487793	32.796909
632.109070	1292.725586	9856.714844	4098.942383	32.767635
632.444641	1292.946167	9763.423828	4071.153564	32.798714
632.780273	1293.387329	9687.446289	4042.372314	32.749172
633.115784	1294.489990	9618.195313	4023.074707	32.780891
633.451294	1297.246826	9549.165039	3999.035400	32.741341
633.786682	1299.121338	9481.458008	3977.752930	32.736755
634.122131	1302.650146	9403.604492	3951.948730	32.703537
634.457458	1301.106323	9351.556641	3929.012207	32.642967
634.792847	1303.311768	9290.575195	3905.855225	32.583668
635.128113	1303.201538	9227.279297	3881.043945	32.531765
635.463318	1304.414429	9176.002930	3862.627930	32.499329
635.798584	1300.775513	9127.813477	3839.250732	32.432129
636.133728	1301.657715	9074.221680	3820.504150	32.406891
636.468872	1304.965820	9012.358398	3808.815186	32.486336
636.803955	1305.737793	8963.067383	3787.973633	32.416470
637.139038	1303.201416	8913.554688	3771.101563	32.428192
637.473999	1305.406860	8849.266602	3749.598633	32.399754
637.808899	1305.958374	8783.101563	3722.581787	32.320145
638.143799	1307.391846	8715.173828	3700.196533	32.301228
638.478638	1309.156128	8654.302734	3678.913574	32.262901
638.813538	1309.156006	8589.573242	3644.840332	32.081738
639.148315	1305.516968	8517.233398	3622.785645	32.132000
639.483032	1306.509521	8454.048828	3599.297363	32.078003
639.817749	1303.421875	8386.782227	3573.824463	32.052620
640.152405	1302.098633	8323.044922	3554.857178	32.086254
640.487000	1301.547363	8252.250000	3537.544189	32.169365
640.821594	1301.326782	8187.410156	3519.901123	32.218231
641.156128	1299.121338	8138.338379	3506.557617	32.276157
641.490662	1297.687744	8078.791504	3482.077393	32.212894
641.825134	1298.569946	8018.140625	3463.992920	32.225613
642.159546	1298.459717	7977.560059	3448.223633	32.186428
642.493896	1302.760376	7925.291016	3431.242188	32.140007
642.828186	1301.216553	7883.938477	3418.229980	32.160152
643.162537	1299.562622	7849.974609	3405.217529	32.145378
643.496765	1293.718140	7814.246094	3387.243408	32.106686
643.830994	1292.505005	7780.061523	3378.311279	32.150875
644.165100	1293.387329	7751.059570	3364.637207	32.074249
644.499268	1292.615479	7734.409180	3355.043457	32.016361
644.833313	1291.071655	7720.955566	3352.507324	32.060230
645.167358	1288.535278	7705.075684	3352.066162	32.159554
645.501343	1287.652954	7682.139648	3341.590088	32.120434
645.835327	1287.873535	7662.069824	3343.244141	32.245174
646.169189	1289.638062	7648.727539	3333.871338	32.146637
646.503052	1289.417358	7636.818359	3326.041748	32.085957
646.836914	1293.387207	7626.342285	3318.212402	31.972834
647.170654	1295.041260	7611.676270	3309.280518	31.887854
647.504395	1296.584961	7607.376465	3303.546387	31.802055
647.838074	1296.695435	7601.641602	3296.599365	31.719603
648.171753	1299.562500	7598.995605	3289.762207	31.593315
648.505371	1300.665283	7600.097656	3293.401367	31.633581
648.838928	1301.988525	7603.184570	3289.210938	31.537224
649.172424	1304.635010	7610.131836	3290.093018	31.487732
649.505920	1302.870728	7606.382324	3289.210938	31.511644
649.839294	1308.274048	7598.001465	3293.401123	31.561417
650.172729	1310.920532	7596.127441	3296.047607	31.584116
650.506104	1314.890381	7600.207520	3300.789551	31.595846
650.839355	1317.536987	7584.989746	3301.561035	31.655989
651.172668	1318.308838	7565.913086	3294.613770	31.633003
651.505859	1316.875244	7542.977051	3294.173340	31.758205
651.839111	1319.080688	7527.979980	3288.769287	31.723635
652.172241	1321.175903	7515.959961	3281.050293	31.637493
652.505371	1319.521729	7502.616211	3278.073242	31.675909
652.838379	1320.845093	7475.930176	3264.289063	31.574608
653.171387	1319.632202	7461.924805	3259.547607	31.582922
653.504333	1318.088379	7438.988281	3254.144043	31.630245
653.837280	1318.970459	7418.918945	3251.166748	31.675617
654.170227	1319.080811	7399.731934	3245.322266	31.678209
654.503052	1315.662354	7379.772461	3238.926758	31.715525
654.835876	1315.441895	7365.657715	3234.956787	31.726387
655.168579	1312.243896	7348.234375	3235.397705	31.861446
655.501343	1312.574707	7332.906250	3232.310303	31.887539
655.833984	1310.920532	7323.863770	3237.493408	32.040428
656.166626	1312.464233	7319.673340	3241.573242	32.113232
656.499268	1313.456787	7342.720215	3249.512695	32.110985
656.831787	1312.684937	7376.904785	3259.106445	32.096817
657.164307	1311.912964	7422.889160	3271.457275	32.065979
657.496765	1311.140991	7469.424316	3285.902588	32.066753
657.829224	1311.361572	7518.275391	3295.276367	31.962982
658.161621	1315.110718	7566.463379	3311.044922	31.928038
658.493958	1317.095703	7605.831055	3322.733643	31.892548
658.826233	1310.920410	7635.494629	3331.334717	31.945459
659.158508	1310.479370	7661.739746	3336.187012	31.894577
659.490723	1311.140991	7680.155273	3341.811035	31.883585
659.822876	1310.479492	7699.012695	3354.933350	32.001930
660.154968	1306.399414	7700.555664	3357.138672	32.072086
660.487061	1307.943115	7699.343750	3354.933105	32.027252
660.819153	1303.642700	7693.719727	3353.609863	32.080479
661.151123	1305.406982	7679.934570	3351.073242	32.091263
661.483093	1308.935791	7668.576660	3348.096436	32.064087
661.815002	1310.479614	7652.807129	3337.399902	31.958618
662.146851	1312.354126	7623.915039	3327.364990	31.925713
662.478760	1314.008057	7595.354980	3314.683838	31.851065
662.810486	1311.802612	7558.523926	3292.077637	31.701031
663.142212	1309.597168	7505.482910	3272.449707	31.679934
663.473938	1306.730103	7453.654785	3248.961670	31.596800
663.805603	1306.840332	7388.263184	3219.518555	31.451162
664.137207	1307.060913	7295.854980	3189.965332	31.440460
664.468689	1306.730103	7208.187500	3160.081543	31.404978
664.800293	1304.965820	7131.107910	3132.844238	31.373735
665.131775	1304.083496	7048.623535	3110.568848	31.446997
665.463196	1302.539795	6980.255859	3081.016113	31.323799
665.794617	1304.965820	6923.795410	3059.402344	31.224234
666.125916	1309.156250	6865.902344	3048.705811	31.305183
666.457275	1308.715210	6822.564941	3032.385742	31.260746
666.788574	1305.627563	6776.801270	3018.381104	31.305046
667.119812	1306.730225	6747.910645	3010.000488	31.303322
667.450928	1307.612305	6727.731445	3004.045654	31.298820
667.782104	1311.582153	6713.063965	2994.231689	31.151628
668.113159	1308.384155	6691.230469	2987.505127	31.193924
668.444214	1304.414307	6669.286621	2984.968750	31.325153
668.775208	1303.311523	6650.980469	2985.961182	31.465105
669.106201	1304.414307	6636.645996	2979.785889	31.419708
669.437134	1303.311646	6629.367676	2980.447510	31.489264
669.768005	1302.870605	6622.200195	2978.903564	31.508350
670.098877	1300.444702	6610.951660	2975.154053	31.535772
670.429688	1303.201416	6591.874023	2973.059082	31.574228
670.760437	1299.893311	6567.504395	2971.956055	31.742332
671.091187	1298.349487	6559.564941	2968.427490	31.743198
671.421814	1296.033813	6542.692871	2963.244873	31.776623
671.752441	1295.261963	6521.189941	2961.591064	31.885805
672.083008	1292.946167	6507.185059	2961.480713	31.999580
672.413574	1293.607788	6493.731934	2961.149658	32.067348
672.744080	1296.033813	6466.936035	2958.503418	32.150475
673.074524	1293.828369	6440.581055	2949.460938	32.168488
673.404968	1297.467407	6416.541504	2938.764404	32.062378
673.735352	1301.437256	6396.582520	2926.303711	31.890482
674.065613	1303.752930	6375.410156	2917.040771	31.809875
674.395935	1302.429688	6351.700684	2912.960693	31.896307
674.726196	1301.657837	6320.494141	2907.336914	31.993055
675.056335	1304.414551	6304.504395	2903.477051	31.980675
675.386536	1304.745361	6292.815430	2893.001221	31.841087
675.716614	1306.840454	6281.346680	2886.054199	31.746140
676.046692	1308.274048	6279.913086	2887.266846	31.760004
676.376770	1310.259033	6268.334961	2880.981689	31.680082
676.706726	1312.023315	6257.638184	2885.061768	31.806732
677.036621	1310.038452	6262.820801	2882.304932	31.745117
677.366516	1310.258911	6260.616211	2884.179199	31.794073
677.696411	1314.338989	6274.068359	2886.715576	31.702869
678.026184	1313.787720	6291.381836	2889.362061	31.653330
678.355957	1312.464355	6305.166016	2891.016113	31.617186
678.685669	1312.464355	6330.639160	2897.191406	31.579750
679.015320	1309.817749	6346.187500	2894.103760	31.456905
679.344971	1306.730103	6362.838379	2897.522461	31.462782
679.674561	1305.406860	6371.991211	2902.705078	31.526134
680.004150	1301.547241	6394.928711	2905.020996	31.481518
680.333618	1299.231689	6410.145996	2909.873291	31.513767
680.663086	1299.672729	6424.701660	2916.158691	31.541012
680.992493	1298.680298	6430.987305	2921.562012	31.620901
681.321899	1298.569824	6429.002930	2921.892822	31.641052
681.651184	1298.128784	6429.994629	2921.672363	31.636517
681.980530	1296.585083	6419.849609	2923.877686	31.762806
682.309753	1295.372070	6412.682129	2920.790039	31.763132
682.638977	1290.850952	6387.650391	2917.261230	31.910423
682.968079	1288.314697	6361.735840	2908.329346	31.931406
683.297241	1288.976318	6340.563965	2901.823242	31.927525
683.626343	1288.865845	6318.619629	2891.126709	31.855652
683.955383	1293.056396	6279.803711	2883.076904	31.884924
684.284363	1294.048950	6252.235352	2868.080078	31.746105
684.613281	1292.284546	6209.890137	2854.074951	31.759165
684.942139	1296.144043	6166.111816	2840.401123	31.709801
685.271057	1299.231567	6128.619629	2832.351074	31.745626
685.599792	1301.657593	6088.370117	2816.582275	31.648542
685.928589	1305.737671	6056.721191	2808.312012	31.626596
686.257324	1310.810181	6019.118164	2792.983887	31.479963
686.585999	1310.699951	5994.527344	2778.097168	31.329021
686.914612	1310.810303	5948.323242	2764.092529	31.337536
687.243164	1310.369141	5912.043457	2751.521729	31.318005
687.571777	1307.281494	5879.072754	2737.296387	31.279097
687.900269	1308.825317	5843.344727	2721.858398	31.161694
688.228699	1309.707520	5811.365234	2707.192139	31.043777
688.557129	1305.186401	5783.466309	2697.377686	31.087635
688.885498	1306.950806	5757.552246	2679.182861	30.832508
689.213867	1310.920532	5727.668457	2669.258301	30.754251
689.542114	1311.140991	5706.827148	2655.805176	30.590542
689.870361	1310.369141	5686.095703	2641.910645	30.430182
690.198608	1305.737671	5651.470215	2631.103516	30.498100
690.526794	1305.296631	5620.042969	2619.745605	30.464109
690.854858	1302.870605	5598.098633	2611.916504	30.476749
691.182922	1300.775513	5560.605957	2606.954346	30.662695
691.510986	1300.224121	5533.919922	2595.595947	30.596714
691.838928	1297.908447	5499.404785	2585.892090	30.655357
692.166931	1297.687866	5463.015137	2569.020508	30.521795
692.494812	1296.695557	5415.708496	2554.795410	30.543724
692.822632	1295.702881	5372.591309	2538.254639	30.477943
693.150452	1293.056396	5328.923828	2532.299805	30.705751
693.478149	1296.144043	5291.430664	2517.743652	30.576019
693.805908	1294.379639	5266.067871	2511.127686	30.635538
694.133606	1294.710449	5228.244141	2499.659180	30.632729
694.461243	1296.585083	5198.580078	2494.807373	30.707939
694.788818	1295.261841	5180.605957	2494.476807	30.865089
695.116333	1293.938477	5170.019531	2496.240967	31.018507
695.443848	1295.261719	5164.505371	2496.461670	31.044827
695.771301	1292.284302	5178.620605	2505.283203	31.211885
696.098755	1289.748047	5203.322266	2513.002197	31.256701
696.426147	1293.166626	5236.514160	2529.763916	31.359074
696.753418	1293.717896	5275.661133	2544.650635	31.415131
697.080688	1297.687744	5332.451660	2560.750244	31.304495
697.407898	1298.569946	5386.485352	2577.401367	31.283215
697.735107	1301.768066	5424.308594	2591.405762	31.282597
698.062317	1303.201660	5465.219727	2601.661377	31.197840
698.389404	1306.289307	5499.735352	2612.688721	31.153360
698.716492	1305.407104	5531.273438	2619.084473	31.086582
699.043457	1303.863281	5551.122559	2629.009033	31.200020
699.370483	1305.406982	5568.545410	2632.427490	31.127783
699.697388	1309.597412	5572.294434	2638.271973	31.169807
700.024292	1313.677490	5568.766113	2633.640381	31.020807
700.351135	1314.008423	5560.936523	2634.081543	31.083010
700.677917	1318.860352	5549.137695	2631.324707	31.025492
701.004639	1319.191162	5533.699219	2627.354736	31.039534
701.331299	1319.963013	5514.731934	2618.643066	30.959513
701.658020	1321.286133	5491.244629	2602.212646	30.717968
701.984619	1319.963013	5453.972168	2585.451172	30.611643
702.311218	1319.742432	5411.186523	2571.336426	30.590519
702.637756	1319.191040	5359.027344	2548.950684	30.440828
702.964233	1319.411621	5287.901855	2527.227051	30.435137
703.290649	1316.213867	5216.665527	2501.312988	30.383638
703.617065	1319.080933	5132.086914	2479.148193	30.423958
703.943481	1320.624756	5047.287109	2449.705322	30.297367
704.269775	1320.735107	4959.289551	2425.776367	30.370337
704.596008	1319.522095	4881.105957	2401.075439	30.367201
704.922241	1317.095947	4814.500977	2375.602295	30.265478
705.248474	1316.323975	4747.565430	2354.760986	30.264177
705.574585	1315.882935	4687.687500	2338.991943	30.343069
705.900696	1316.103271	4637.072266	2320.025146	30.229788
706.226746	1314.559570	4597.925781	2312.196045	30.384563
706.552734	1311.692505	4570.799316	2299.955811	30.323132
706.878723	1306.068604	4551.612305	2293.229248	30.415878
707.204651	1302.649902	4529.888672	2284.627686	30.427801
707.530518	1301.547363	4516.986328	2274.261963	30.251379
707.856323	1302.098633	4510.700684	2270.623047	30.185246
708.182068	1301.988403	4514.008789	2264.999023	29.981459
708.507813	1299.341797	4509.597656	2269.740723	30.228086
708.833496	1301.106201	4522.278809	2273.820801	30.197531
709.159180	1301.878052	4538.268066	2275.254395	30.075989
709.484802	1303.091187	4550.949219	2279.003418	30.047873
709.810303	1303.752563	4569.696289	2285.950684	30.073944
710.135864	1306.178711	4579.620117	2283.083496	29.843357
710.461304	1306.288818	4591.309570	2281.098877	29.674397
710.786743	1305.627319	4600.352051	2286.722656	29.777765
711.112122	1305.847900	4608.181152	2281.870605	29.555548
711.437500	1305.406860	4615.128418	2282.422119	29.519560
711.762817	1308.825195	4614.136230	2281.539795	29.428837
712.088013	1307.171143	4618.546875	2280.437012	29.391586
712.413269	1309.266357	4613.364258	2276.247070	29.266104
712.738403	1312.133423	4616.562012	2275.916016	29.166391
713.063538	1313.125977	4610.276855	2271.505371	29.066895
713.388611	1312.243652	4604.983398	2269.850830	29.082382
713.713623	1309.817749	4597.154297	2262.242188	28.972527
714.038574	1312.243652	4596.713379	2260.147217	28.860170
714.363525	1310.258789	4590.096680	2260.588135	28.974888
714.688477	1305.847900	4579.951660	2257.721191	29.072790
715.013306	1306.730103	4555.581543	2258.603027	29.298750
715.338135	1307.391724	4534.299316	2248.788818	29.173351
715.662842	1306.068604	4507.282227	2240.849121	29.200817
715.987549	1306.950684	4475.633789	2232.688965	29.215237
716.312195	1308.274048	4442.441406	2219.125488	29.061991
716.636841	1303.863037	4403.735840	2204.128418	29.042011
716.961426	1300.003540	4372.087891	2199.166260	29.268814
717.285950	1297.687744	4341.210938	2187.918457	29.250006
717.610474	1293.497437	4300.630371	2171.487793	29.196926
717.934937	1293.056396	4265.012695	2163.437988	29.286488
718.259277	1292.615234	4230.827637	2152.631348	29.270046
718.583679	1291.291992	4202.046875	2144.802002	29.322634
718.908020	1288.535156	4169.406738	2135.979980	29.416265
719.232239	1286.881104	4142.720703	2125.394043	29.361345
719.556519	1287.542725	4115.262695	2114.807861	29.255554
719.880737	1287.322144	4084.717285	2102.788330	29.150913
720.204834	1284.344727	4055.274902	2090.437744	29.091063
720.528931	1288.755615	4025.060303	2083.711182	29.052158
720.852966	1286.440063	3988.890625	2072.573242	29.089640
721.176941	1288.424805	3950.295410	2064.192627	29.143709
721.500916	1289.307129	3919.970703	2056.252930	29.154081
721.824829	1284.675537	3898.798096	2044.343506	29.060152
722.148743	1284.785767	3867.370117	2035.521973	29.069183
722.472534	1288.535034	3844.874268	2023.502075	28.750761
722.796326	1289.417236	3823.701660	2014.680298	28.618061
723.119995	1288.424805	3799.882813	2007.402100	28.627884
723.443665	1293.056396	3787.201172	2000.785767	28.375633
723.767334	1294.820801	3769.006348	1997.036499	28.381691
724.090942	1294.600220	3758.751221	1997.257080	28.515171
724.414551	1299.231689	3752.686035	1997.698242	28.468700
724.737976	1300.223999	3747.503418	1995.823608	28.423386
725.061462	1302.539795	3747.393555	1993.397827	28.257643
725.384888	1302.870728	3747.834717	1994.500610	28.287939
725.708252	1303.311768	3747.503662	1995.713379	28.328447
726.031616	1303.863159	3752.465820	1999.021606	28.390007
726.354858	1302.981079	3753.017090	2005.086548	28.656944
726.678162	1301.878296	3762.721436	2008.835693	28.728258
727.001404	1305.517334	3766.580811	2011.372070	28.680883
727.324463	1307.281860	3771.102051	2016.334106	28.778570
727.647583	1309.928345	3778.269775	2023.501709	28.909023
727.970642	1306.179077	3790.069092	2026.479126	28.998869
728.293701	1308.715210	3792.384766	2030.448975	29.059172
728.616699	1309.707642	3797.126221	2036.513916	29.219301
728.939575	1309.928223	3815.431152	2042.909912	29.254873
729.262512	1305.958252	3825.686768	2054.819336	29.719912
729.585266	1305.627441	3834.950195	2057.576172	29.729252
729.908142	1304.193848	3854.909180	2068.052002	29.946821
730.230896	1302.098633	3868.252197	2072.793945	30.033094
730.553467	1304.193848	3887.329346	2073.455566	29.780153
730.876160	1301.106201	3901.333740	2078.197266	29.885502
731.198792	1296.695313	3912.360840	2083.821533	30.092770
731.521362	1294.159058	3927.357910	2085.806396	30.064095
731.843872	1293.056152	3925.152832	2084.041748	30.051540
732.166321	1289.968506	3925.152832	2081.725830	30.045614
732.488770	1291.732910	3926.476074	2075.881592	29.761864
732.811157	1289.196655	3919.639404	2073.014404	29.797939
733.133484	1288.755615	3912.250732	2068.493164	29.721327
733.455811	1290.299438	3894.386475	2063.200195	29.680298
733.778015	1290.961182	3877.845947	2059.340332	29.702875
734.100281	1289.527710	3869.685547	2054.488525	29.647831
734.422424	1286.660522	3857.666016	2050.408447	29.706198
734.744507	1290.189331	3842.668945	2044.012695	29.532984
735.066589	1288.645508	3832.192627	2040.814941	29.571672
735.388611	1291.512695	3820.062988	2032.213501	29.293497
735.710571	1290.630493	3804.293945	2026.369019	29.269569
736.032532	1292.505005	3794.038574	2017.657593	28.988319
736.354431	1292.284424	3781.467529	2012.805664	28.946093
736.676270	1293.276733	3765.367920	2006.189209	28.838436
736.998108	1298.900879	3751.914551	2005.637695	28.810961
737.319824	1297.687866	3736.807373	1998.911133	28.749031
737.641541	1301.547485	3717.729980	1992.515259	28.597498
737.963135	1302.209106	3696.888672	1986.009277	28.554974
738.284790	1303.311890	3671.305176	1982.480713	28.681198
738.606323	1303.532227	3660.498047	1981.047119	28.745214
738.927856	1305.517334	3650.022217	1977.077148	28.643993
739.249390	1307.391968	3639.436279	1974.099854	28.588987
739.570740	1311.913086	3628.740234	1973.658813	28.562586
739.892212	1310.810303	3617.933350	1968.476196	28.505888
740.213562	1308.604858	3610.214355	1967.152954	28.612505
740.534790	1310.479614	3603.818359	1963.954834	28.494490
740.856079	1306.730347	3588.931641	1957.228027	28.503082
741.177246	1304.304443	3578.455322	1950.611816	28.419724
741.498413	1306.399536	3569.964600	1944.546875	28.192137
741.819580	1307.943237	3562.245605	1936.938110	27.901976
742.140625	1309.707642	3551.989990	1934.291260	27.854816
742.461670	1307.722534	3536.992920	1929.549683	27.893751
742.782654	1306.950562	3515.489990	1919.735352	27.746155
743.103577	1309.155884	3498.728760	1915.324463	27.684332
743.424438	1309.707275	3477.335938	1909.480225	27.669542
743.745300	1305.847900	3448.003418	1901.209839	27.792658
744.066101	1304.745117	3421.758545	1892.829224	27.778950
744.386902	1303.421875	3399.924561	1886.433228	27.808758
744.707581	1302.649902	3381.399170	1880.478638	27.796942
745.028198	1302.429443	3367.504395	1874.744263	27.713997
745.348816	1299.562378	3355.815430	1869.561523	27.720284
745.669373	1297.357056	3337.620605	1861.621826	27.656466
745.989929	1295.261963	3316.558350	1858.534180	27.866879
746.310364	1293.497437	3301.892090	1854.013184	27.908646
746.630798	1294.159180	3289.431641	1856.108276	28.164028
746.951172	1290.409912	3286.343750	1850.153442	28.044193
747.271545	1286.109375	3276.529297	1850.153687	28.337955
747.591858	1290.299683	3275.537109	1853.241211	28.356382
747.912109	1295.261841	3266.936035	1851.697388	28.221476
748.232300	1291.512695	3258.555176	1849.491943	28.366405
748.552429	1294.159180	3245.542725	1850.594482	28.514912
748.872559	1289.637817	3235.066895	1848.940430	28.749577
749.192627	1293.387329	3235.287598	1847.396606	28.529234
749.512695	1293.166626	3236.941162	1851.256470	28.711655
749.832642	1293.938477	3234.956543	1851.035767	28.701294
750.152588	1295.592651	3234.625732	1848.609741	28.520250
750.472473	1295.592651	3243.116455	1848.278809	28.378916
750.792358	1297.246704	3246.204346	1853.130737	28.522120
751.112122	1298.570068	3241.242188	1848.389160	28.302208
751.431824	1300.775391	3249.181641	1848.499390	28.111385
751.751587	1300.334351	3246.093750	1845.081055	27.996613
752.071228	1299.452148	3243.447510	1842.544800	27.936932
752.390869	1300.665161	3240.911133	1844.088501	28.007961
752.710327	1303.752808	3238.595215	1844.970581	27.972189
753.029846	1303.201416	3238.595215	1838.574829	27.662247
753.349304	1304.524780	3236.610596	1837.913086	27.606865
753.668762	1305.186279	3230.545654	1835.376831	27.537226
753.988098	1304.965820	3223.157471	1833.061157	27.530895
754.307434	1304.193848	3213.674072	1830.855713	27.581425
754.626770	1303.862915	3210.917480	1828.209106	27.495081
754.946045	1302.760376	3209.262939	1826.003662	27.445192
755.265259	1299.011108	3208.050293	1822.916138	27.443388
755.584351	1300.885742	3207.277832	1819.607910	27.209627
755.903442	1299.562500	3202.756592	1821.041504	27.400202
756.222534	1298.459839	3192.391357	1816.520508	27.353718
756.541565	1296.033813	3191.288330	1814.866455	27.375355
756.860535	1295.813354	3191.178223	1813.101929	27.292295
757.179443	1294.820923	3185.995605	1813.322510	27.416906
757.498291	1297.467529	3183.789795	1810.014160	27.171743
757.817139	1300.665405	3188.752197	1808.029541	26.871864
758.135925	1302.540039	3184.892822	1806.154541	26.754522
758.454651	1301.657837	3183.569092	1809.683350	26.995190
758.773376	1305.958374	3179.820313	1810.345093	26.916964
759.092041	1306.178955	3185.002930	1811.668335	26.904564
759.410645	1302.540039	3189.193359	1810.014160	26.898111
759.729187	1301.547485	3180.482178	1811.447876	27.137739
760.047607	1301.768188	3185.223633	1803.838867	26.656891
760.366089	1305.406982	3187.319092	1804.941650	26.543995
760.684509	1305.186523	3201.543945	1807.808838	26.504620
761.002869	1305.627563	3227.237305	1808.911499	26.190746
761.321228	1304.193970	3265.833008	1822.916138	26.443304
761.639465	1306.840576	3313.470703	1838.905884	26.515366
761.957642	1306.730225	3365.739990	1854.454224	26.601332
762.275879	1304.965820	3409.297607	1873.972412	27.039776
762.593994	1303.752930	3447.561768	1883.455933	27.040798
762.912109	1302.539673	3483.180176	1896.027100	27.216196
763.230103	1305.296387	3503.359863	1905.620850	27.311516
763.548157	1302.649780	3515.710449	1909.701050	27.430395
763.866150	1302.980713	3529.274170	1912.567871	27.381258
764.184021	1301.326660	3539.860596	1913.449951	27.344830
764.501892	1298.018555	3546.587158	1920.727905	27.693588
764.819702	1295.923340	3544.491699	1919.073853	27.713211
765.137451	1296.474731	3548.792725	1915.765625	27.495714
765.455200	1292.504883	3554.416748	1915.655273	27.549721
765.772888	1293.607666	3544.161377	1914.552612	27.590763
766.090515	1293.828247	3534.347168	1912.126709	27.596216
766.408081	1295.371948	3534.897949	1912.126831	27.539530
766.725586	1293.938477	3525.415283	1908.818848	27.554863
767.043091	1294.269287	3515.600342	1902.863892	27.397745
767.360535	1294.820679	3500.824463	1896.357910	27.268185
767.677917	1293.497437	3468.404053	1889.631104	27.409620
767.995239	1291.512573	3422.089355	1871.105469	27.203569
768.312500	1292.174194	3362.983643	1856.328857	27.243195
768.629822	1290.299561	3302.553467	1834.163818	27.027617
768.947021	1290.520142	3246.204346	1808.690796	26.495621
769.264160	1294.379639	3190.406738	1789.834473	26.131210
769.581299	1294.379639	3148.392822	1769.433838	25.623022
769.898376	1292.505005	3111.230713	1751.569580	25.241001
770.215393	1292.174072	3077.928467	1744.401978	25.324194
770.532349	1292.504883	3049.698975	1734.918701	25.177288
770.849304	1291.512451	3019.925293	1730.838501	25.417889
771.166199	1290.740601	2998.863281	1722.347412	25.267904
771.483032	1287.542725	2981.770752	1721.465454	25.611826
771.799866	1288.645508	2961.260010	1718.598267	25.705431
772.116577	1291.622803	2940.528564	1714.297607	25.633654
772.433350	1293.938599	2928.509033	1712.864014	25.629084
772.749939	1294.931030	2919.025391	1711.320313	25.638245
773.066589	1294.048828	2905.131348	1706.468384	25.598909
773.383057	1297.357178	2888.811035	1701.836914	25.415737
773.699646	1298.680420	2876.460205	1704.593750	25.726868
774.016113	1300.885864	2860.029785	1702.167603	25.737312
774.332520	1303.201660	2851.208008	1696.323242	25.395348
774.648804	1308.494751	2842.055176	1696.543945	25.303808
774.965149	1307.943359	2831.689697	1691.471313	25.170065
775.281433	1313.126099	2820.993164	1689.376099	24.952465
775.597656	1313.677490	2814.156494	1689.927490	25.075325
775.913879	1312.905640	2807.540283	1688.604126	25.136477
776.229980	1314.449463	2797.836426	1690.037720	25.319641
776.546082	1312.023315	2787.691162	1692.022705	25.751011
776.862122	1315.882935	2780.854248	1687.281006	25.351900
777.178162	1317.978149	2771.812012	1685.186035	25.257898
777.494141	1315.331421	2767.621582	1680.554443	25.148075
777.809998	1314.780151	2755.822266	1679.561768	25.313738
778.125854	1316.544556	2750.309082	1676.363892	25.096125
778.441711	1317.426758	2744.133789	1673.055786	24.926563
778.757446	1316.323975	2737.847900	1670.739990	24.932117
779.073181	1313.567017	2733.547363	1665.226318	24.765081
779.388855	1316.323853	2727.702637	1663.241455	24.580050
779.704468	1315.552124	2723.623047	1660.484741	24.496820
780.020020	1310.258911	2717.888672	1662.800171	25.045027
780.335571	1311.251343	2708.736328	1660.264160	24.974352
780.651062	1310.479492	2703.222168	1655.081299	24.742676
780.966553	1307.722656	2697.708740	1653.537598	24.879023
781.281860	1301.657471	2686.020020	1650.008789	25.163301
781.597290	1301.767944	2678.631592	1647.031494	25.076088
781.912476	1299.231812	2675.102783	1641.848633	24.901814
782.227722	1300.775635	2666.060547	1635.011719	24.481050
782.542908	1299.011108	2654.923096	1630.710938	24.463226
782.858093	1299.452148	2642.682373	1628.505615	24.497175
783.173218	1302.539917	2640.256836	1620.676392	23.782047
783.488281	1300.003662	2639.595215	1620.235107	23.905155
783.803345	1299.562622	2630.883789	1614.390869	23.647806
784.118225	1301.547485	2618.202148	1608.766968	23.333338
784.433167	1302.208862	2609.821533	1606.340942	23.258575
784.748047	1303.532227	2603.425537	1599.173218	22.743481
785.062866	1306.619995	2590.193115	1597.188232	22.637451
785.377686	1305.958374	2579.276123	1595.313599	22.724510
785.692444	1306.619995	2568.689697	1592.997925	22.691133
786.007141	1305.517334	2564.830078	1592.005615	22.749575
786.321716	1308.825439	2558.765137	1595.644531	22.946634
786.636353	1311.141113	2562.073242	1598.070557	22.937250
786.950928	1309.487061	2567.256104	1597.298584	22.882700
787.265442	1308.715088	2574.313721	1599.724365	22.993805
787.579834	1304.414551	2570.674561	1598.842285	23.251760
787.894226	1308.163696	2576.850098	1600.275635	23.024755
788.208618	1304.193970	2578.834961	1601.047607	23.289196
788.522949	1305.517212	2574.424072	1605.127563	23.611691
788.837219	1302.870605	2574.424072	1607.112549	23.926792
789.151367	1303.752808	2579.937500	1606.230469	23.701715
789.465515	1301.657593	2579.937744	1603.694214	23.628359
789.779602	1299.893188	2571.005615	1603.253296	23.865719
790.093689	1303.973267	2559.427002	1597.960205	23.416788
790.407776	1300.554688	2555.016113	1597.849854	23.699028
790.721741	1299.672607	2549.943848	1600.386108	24.051861
791.035645	1298.018555	2541.562988	1592.446655	23.676525
791.349548	1296.695190	2534.615967	1592.336304	23.882071
791.663391	1293.938477	2536.270020	1587.374023	23.619745
791.977173	1296.805664	2532.630859	1580.978271	22.994564
792.290894	1296.254150	2521.714111	1575.574829	22.793129
792.604614	1298.790771	2510.466064	1569.068604	22.306128
792.918274	1299.231812	2501.754639	1560.687866	21.742294
793.231812	1298.680542	2485.764893	1556.387329	21.709223
793.545410	1298.459839	2473.083496	1552.417603	21.620352
793.858948	1300.113892	2456.983398	1549.109375	21.523212
794.172363	1304.524780	2451.690186	1549.329834	21.339996
794.485840	1302.209106	2442.427490	1546.021729	21.382977
794.799194	1308.494629	2439.449951	1541.500610	20.602581
795.112488	1307.171265	2438.126953	1539.405396	20.534327
795.425781	1309.156128	2435.370117	1541.721191	20.650166
795.738953	1305.958374	2428.533203	1541.831421	21.011787
796.052185	1307.061035	2428.753906	1541.169678	20.871012
796.365234	1307.171265	2428.754150	1540.728638	20.823906
796.678284	1305.627441	2429.966797	1544.588135	21.253431
796.991333	1308.825317	2427.540771	1542.823853	20.916716
797.304382	1309.927979	2429.305176	1538.964233	20.461044
797.617310	1312.023193	2428.974121	1542.934082	20.673325
797.930115	1312.574463	2422.468262	1540.177246	20.506718
798.242981	1314.890259	2417.726318	1538.633423	20.287981
798.555786	1313.236084	2413.425781	1537.089600	20.346811
798.868530	1317.205933	2412.764160	1536.207397	19.989943
799.181213	1313.346436	2411.110352	1537.530640	20.421896
799.493896	1313.125854	2406.479004	1540.948975	20.837103
799.806519	1316.985474	2406.037842	1533.781494	19.906851
800.119080	1318.198608	2402.068115	1533.230103	19.839241
800.431580	1315.000610	2392.033203	1529.921997	19.954956
800.744080	1313.897949	2382.329346	1525.400757	19.795637
801.056458	1315.000732	2373.948486	1524.518555	19.785473
801.368835	1312.133667	2360.054199	1521.651367	19.993664
801.681152	1314.890381	2348.144531	1521.320679	19.978657
801.993408	1316.765015	2338.440430	1515.696777	19.471132
802.305664	1319.962891	2329.397949	1516.137817	19.434130
802.617798	1320.845093	2318.812012	1516.799561	19.635366
802.929993	1320.403809	2310.431396	1519.004883	20.060156
803.242065	1321.396240	2301.058105	1513.932495	19.653337
803.554016	1318.418945	2295.985596	1513.932495	20.000023
803.865967	1318.639404	2289.479492	1516.027588	20.331688
804.177979	1316.103271	2288.045898	1515.035034	20.467440
804.489807	1314.890381	2288.045654	1518.453613	20.917858
804.801697	1311.251343	2286.281494	1521.320557	21.544893
805.113464	1310.369263	2280.547363	1521.982178	21.811760
805.425232	1306.730225	2282.311523	1522.974609	22.165695
805.736938	1305.627563	2277.900879	1520.879395	22.139025
806.048584	1300.554932	2273.269287	1514.373291	21.981619
806.360168	1297.467285	2267.535400	1516.137817	22.541771
806.671753	1296.915771	2257.280029	1511.616699	22.356197
806.983276	1298.790527	2257.831299	1511.506470	22.180073
807.294739	1300.223999	2252.979248	1512.829712	22.314831
807.606140	1301.437012	2248.568359	1507.646851	21.772043
807.917542	1301.326782	2247.906738	1506.103027	21.633274
808.228760	1301.216431	2242.393311	1500.699829	21.195103
808.540100	1300.223999	2231.917236	1504.559204	21.931597
808.851318	1297.026123	2225.080322	1503.235962	22.219589
809.162476	1297.356934	2217.361328	1496.068237	21.598951
809.473633	1297.246704	2212.840088	1492.208740	21.293518
809.784668	1291.071411	2206.113525	1490.444336	21.788387
810.095703	1295.813110	2194.975830	1485.592407	21.106224
810.406738	1298.570068	2186.594971	1485.482178	21.048071
810.717590	1302.870605	2174.465332	1483.056152	20.673088
811.028503	1303.311890	2163.548096	1472.139160	19.625689
811.339294	1303.201416	2153.733887	1468.500244	19.434746
811.650085	1302.209106	2148.661377	1466.735840	19.437214
811.960876	1299.231812	2137.082764	1464.640625	19.742033
812.271545	1301.988525	2129.143311	1462.986572	19.464077
812.582153	1309.045898	2126.496582	1457.693481	18.184288
812.892761	1307.281616	2116.902832	1451.959229	17.869791
813.203308	1302.980957	2115.579590	1452.069580	18.347141
813.513855	1303.973511	2111.058594	1447.768921	17.816635
813.824280	1303.311768	2107.530029	1440.490845	17.057444
814.134705	1301.988525	2105.765869	1437.182861	16.819874
814.445068	1301.437012	2096.943604	1438.175171	17.188816
814.755371	1301.437012	2098.156738	1438.064941	17.148808
815.065613	1299.562378	2102.016113	1435.969604	16.998766
815.375854	1302.980835	2101.354492	1434.756592	16.505524
815.686035	1302.208984	2104.111328	1438.064697	16.941677
815.996155	1303.311646	2104.442139	1440.049683	17.068136
816.306152	1308.053467	2105.544922	1447.989380	17.547010
816.616211	1306.840454	2114.036133	1448.761108	17.581940
816.926208	1303.091187	2117.675049	1442.034546	17.056974
817.236145	1303.752930	2126.166016	1443.798950	17.028671
817.546021	1304.524780	2139.619141	1452.620728	17.734037
817.855774	1305.186401	2151.638916	1457.252197	17.965071
818.165588	1305.958252	2168.951660	1466.735718	18.630207
818.475281	1309.928101	2192.218750	1474.675171	18.672653
818.784973	1305.406860	2222.102783	1482.284180	19.295092
819.094604	1299.231689	2250.112061	1497.170898	20.816416
819.404175	1298.790405	2295.434082	1515.145264	21.708345
819.713684	1298.680298	2358.620117	1542.492920	23.002497
820.023254	1297.577515	2484.661865	1592.887695	24.876934
820.332642	1295.923340	2704.766113	1685.185791	27.629942
820.642090	1295.923584	2994.231445	1799.979492	29.679890
820.951416	1296.144043	3298.804688	1910.362305	30.670113
821.260681	1292.725586	3552.982910	1993.287354	30.994780
821.569946	1293.497559	3751.914551	2057.024902	31.057682
821.879150	1294.159180	3915.779785	2107.640137	31.029697
822.188293	1295.592773	4045.460449	2147.779297	30.990091
822.497437	1298.018799	4152.204102	2176.670654	30.784681
822.806458	1298.018799	4247.811035	2195.637695	30.429903
823.115479	1298.790649	4328.861328	2218.905029	30.366102
823.424438	1300.334473	4405.721191	2243.495605	30.371777
823.733337	1295.813232	4468.245605	2261.359863	30.435532
824.042236	1296.144043	4520.073730	2277.128662	30.428226
824.351013	1295.372192	4567.932129	2290.361572	30.404007
824.659790	1297.467407	4607.079102	2301.168457	30.326851
824.968445	1297.908447	4665.522949	2319.804443	30.344803
825.277100	1301.106445	4735.656250	2353.327393	30.636356
825.585693	1304.635010	4822.220703	2383.211426	30.662407
825.894287	1309.376709	4879.562012	2403.832520	30.655434
826.202820	1314.890381	4901.395996	2403.611816	30.356050
826.511292	1313.787720	4834.019531	2372.294434	30.069233
826.819702	1316.213745	4662.435059	2299.072998	29.372213
827.128113	1320.073242	4409.911133	2196.960449	28.379715
827.436401	1319.962769	4141.618164	2093.524902	27.415190
827.744751	1321.506592	3911.148438	2017.216309	26.865093
828.052917	1322.057983	3731.293945	1955.684570	26.299898
828.361145	1319.521729	3583.308105	1904.518066	25.841499
828.669312	1320.183350	3465.977295	1867.356201	25.499784
828.977356	1315.993164	3366.732178	1835.046509	25.310551
829.285400	1312.464233	3275.867920	1809.132202	25.296274
829.593384	1310.920532	3197.353516	1787.298340	25.252834
829.901306	1307.833008	3122.257813	1769.654541	25.452780
830.209167	1312.133667	3057.858887	1751.459595	25.165812
830.517029	1312.795288	2998.532471	1732.713379	24.910057
830.824829	1314.669922	2946.704346	1716.503174	24.621616
831.132568	1311.802856	2898.073975	1697.646606	24.323948
831.440247	1308.935791	2841.724609	1679.672119	24.187046
831.747925	1308.384399	2783.059814	1652.765625	23.353018
832.055481	1305.848022	2716.786133	1631.262451	23.063692
832.363037	1306.178833	2668.706787	1619.683838	23.009069
832.670532	1304.635010	2628.898438	1608.876831	22.974419
832.977966	1306.178833	2611.034180	1602.150269	22.682318
833.285400	1308.825317	2591.847168	1595.534058	22.346365
833.592712	1306.840454	2572.659668	1592.225830	22.545507
833.900085	1307.391724	2552.700195	1590.020630	22.695494
834.207275	1302.760254	2539.798096	1589.800049	23.203800
834.514526	1301.767822	2527.668213	1585.609741	23.153751
834.821716	1302.760376	2517.964111	1585.058228	23.230495
835.128784	1303.091187	2508.921631	1580.536987	23.008692
835.435852	1306.399292	2503.297852	1581.088501	22.950083
835.742798	1308.163696	2494.696533	1576.787720	22.639410
836.049805	1307.722534	2485.323730	1574.030884	22.614477
836.356750	1309.597168	2474.847656	1564.988647	21.917303
836.663574	1306.950562	2463.930664	1557.600342	21.664139
836.970398	1307.060913	2452.021484	1551.535400	21.352219
837.277161	1304.524658	2437.244629	1548.006592	21.495333
837.583923	1305.075928	2424.122314	1543.264893	21.284994
837.890564	1308.053345	2396.774658	1535.325195	20.875116
838.197205	1308.604858	2354.650391	1521.651367	20.366848
838.503784	1311.692505	2308.005371	1503.566772	19.258434
838.810303	1309.376709	2257.059326	1481.512329	18.163847
839.116699	1306.509766	2211.626953	1462.655640	17.251453
839.423096	1309.046021	2160.791260	1448.761353	16.403418
839.729492	1308.715210	2120.541992	1438.395630	15.973903
840.035828	1304.745361	2089.996582	1430.235474	15.980887
840.342102	1302.760620	2067.500732	1417.884888	15.054038
840.648315	1308.494751	2039.601807	1408.732178	13.710362
840.954529	1311.692505	2021.517090	1404.762573	13.111700
841.260620	1313.015747	2003.432251	1399.138550	12.474036
841.566711	1310.258911	1989.207275	1396.491943	12.700971
841.872803	1309.707397	1968.365845	1391.088623	12.355603
842.178772	1312.795044	1954.250977	1394.617432	12.755730
842.484680	1310.920532	1935.394165	1388.772949	12.466887
842.790588	1312.574585	1921.830688	1385.023682	11.891402
843.096436	1313.567017	1911.354858	1383.590088	11.713699
843.402222	1314.118286	1899.996826	1384.362061	11.989477
843.707947	1315.551880	1889.300415	1376.863525	10.686152
844.013611	1315.993042	1878.162720	1374.878662	10.474706
844.319275	1313.125977	1861.070679	1365.836182	9.619621
844.624817	1314.118530	1844.529785	1355.470581	7.796224
844.930359	1311.913086	1820.380005	1345.876831	6.679637
845.235901	1311.030884	1800.530884	1336.283203	5.158799
845.541321	1315.993164	1778.035400	1330.328491	3.102601
845.846680	1311.913086	1765.354004	1323.270996	2.504827
846.152039	1311.472046	1751.459839	1316.434204	1.127795
846.457275	1316.323975	1736.793335	1310.479492	-1.389990
846.762512	1318.308838	1724.553223	1308.163696	-2.497300
847.067749	1316.654785	1716.392822	1300.444702	-4.055177
847.372925	1315.110840	1705.365479	1297.798096	-4.436269
847.677979	1313.125977	1699.410889	1296.364502	-4.339148
847.983032	1314.669922	1687.391235	1293.828247	-5.591758
848.288025	1310.369263	1681.767456	1293.166626	-4.631858
848.592957	1309.045898	1679.782349	1286.991455	-5.948820
848.897888	1312.905518	1675.812744	1286.881104	-7.171093
849.202759	1312.133667	1675.151001	1283.462646	-7.897975
849.507507	1308.715210	1670.739990	1280.375122	-7.828218
849.812317	1308.825439	1668.093506	1278.279907	-8.502156
850.117004	1308.163818	1667.211182	1277.066895	-8.660954
850.421631	1305.958374	1663.682617	1275.633301	-8.477221
850.726257	1304.745361	1661.146240	1277.948975	-7.518609
851.030823	1304.635010	1660.154053	1279.933960	-6.947884
851.335327	1303.421875	1660.264282	1279.933960	-6.582153
851.639771	1301.326782	1656.404785	1276.846313	-6.894392
851.944153	1296.805664	1654.419800	1274.971680	-6.105459
852.248535	1297.136353	1657.507446	1274.530518	-6.272933
852.552856	1295.041260	1663.792725	1273.096924	-5.950983
852.857056	1291.733032	1663.131104	1270.009399	-5.849151
853.161255	1286.770874	1662.579834	1272.214722	-3.873285
853.465393	1284.124268	1660.594727	1272.766113	-3.017011
853.769531	1279.382568	1652.765381	1269.568115	-2.628523
854.073547	1280.044189	1649.788086	1270.670898	-2.535077
854.377563	1280.375000	1644.715576	1267.803955	-3.450356
854.681580	1280.485474	1645.156616	1264.605957	-4.354476
854.985474	1280.926392	1640.194336	1266.370483	-4.051547
855.289307	1279.492920	1640.525269	1264.275269	-4.215038
855.593140	1276.736084	1639.312134	1268.134766	-2.372280
855.896851	1277.066895	1640.525269	1270.891602	-1.699037
856.200623	1276.736084	1638.981445	1268.575928	-2.252660
856.504272	1275.633423	1635.783691	1268.465576	-1.990238
856.807922	1278.169678	1635.452759	1264.495850	-3.827169
857.111389	1280.044312	1639.312256	1261.849243	-5.064484
857.414978	1278.390259	1637.768555	1262.400635	-4.449246
857.718445	1279.382568	1635.121826	1262.180054	-4.835709
858.021790	1284.565308	1632.585693	1263.282837	-6.115294
858.325195	1287.322144	1635.452881	1263.944336	-6.715238
858.628479	1291.071655	1630.380371	1265.488159	-7.539888
858.931763	1289.637817	1624.315308	1267.142334	-6.721540
859.234985	1288.866089	1626.410522	1269.899048	-5.619124
859.538147	1291.071533	1623.763916	1269.127197	-6.595984
859.841248	1294.710571	1626.410522	1272.435303	-6.715487
860.144287	1297.687866	1629.828857	1273.538086	-7.270942
860.447266	1298.459717	1628.615723	1270.340088	-8.517074
860.750305	1296.915894	1632.585571	1272.214600	-7.358810
861.053223	1299.121338	1634.680786	1273.868774	-7.525511
861.356018	1295.592651	1635.342407	1272.435425	-6.815966
861.658813	1294.489746	1634.460205	1270.781372	-6.973657
861.961609	1299.672607	1630.049316	1268.355347	-9.479258
862.264343	1299.562256	1629.056885	1263.944458	-10.809827
862.567017	1301.216309	1630.821289	1263.834106	-11.341516
862.869629	1302.539673	1627.843994	1264.936890	-11.559263
863.172180	1302.429443	1623.322754	1263.944458	-11.993078
863.474670	1302.980713	1619.463135	1260.967041	-13.275199
863.777161	1304.083496	1617.037231	1259.092529	-14.376236
864.079590	1303.973267	1616.044800	1259.423340	-14.275550
864.381958	1302.760254	1622.330322	1258.210327	-13.940581
864.684265	1300.665161	1622.991943	1254.130249	-14.437184
864.986511	1297.246704	1621.889160	1253.027466	-13.620904
865.288757	1299.341797	1621.338013	1254.461182	-13.938243
865.590942	1301.988281	1621.117432	1253.137817	-15.307427
865.893066	1303.642578	1622.661133	1252.917236	-15.900436
866.195068	1301.988403	1619.352905	1252.476196	-15.601054
866.497131	1300.223999	1619.353027	1250.822021	-15.480252
866.799133	1304.193848	1623.874023	1252.476074	-16.177973
867.100952	1304.965698	1619.794067	1249.057617	-17.758272
867.402832	1306.619751	1616.816650	1248.285645	-18.805510
867.704651	1309.597168	1615.272827	1245.528809	-20.959589
868.006409	1309.045898	1617.808960	1248.175293	-19.714342
868.308105	1307.612305	1620.345459	1249.829346	-18.476761
868.609802	1310.810303	1620.896973	1251.704102	-19.061188
868.911438	1310.148682	1618.360474	1251.373291	-19.069805
869.213013	1310.479370	1617.478394	1253.909546	-18.426712
869.514465	1310.258911	1621.117432	1256.445679	-17.311165
869.815979	1312.133545	1620.345459	1261.518311	-16.422218
870.117371	1311.802734	1622.771362	1260.305298	-16.560331
870.418701	1315.000610	1624.425537	1259.423218	-17.961512
870.720093	1317.536987	1622.440674	1262.731445	-17.974707
871.021301	1319.080811	1621.558350	1268.686157	-16.660627
871.322571	1320.955322	1622.550781	1268.465576	-17.404024
871.623718	1319.301392	1625.638550	1269.458130	-16.270720
871.924805	1318.088379	1625.417969	1269.458008	-15.823524
872.225891	1318.970581	1625.528442	1270.229980	-15.899315
872.526917	1321.396484	1629.277588	1266.921631	-17.693470
872.827881	1323.491699	1626.631104	1270.119629	-17.606443
873.128784	1318.970459	1619.242920	1263.172485	-18.582447
873.429626	1317.867798	1620.345581	1262.400635	-18.337599
873.730408	1317.757568	1618.691406	1262.069824	-18.504980
874.031189	1314.338989	1621.338013	1265.267700	-15.984184
874.331848	1314.780151	1621.227661	1263.172485	-16.840622
874.632568	1311.692627	1620.786499	1262.069824	-16.054283
874.933167	1311.251343	1620.896973	1263.723999	-15.348947
875.233704	1309.156250	1623.102295	1266.480713	-13.593271
875.534241	1308.494629	1626.630981	1264.385620	-13.864813
875.834717	1307.171509	1627.513184	1264.275269	-13.390778
876.135071	1303.752930	1634.570679	1261.628662	-12.733376
876.435425	1302.539917	1634.019165	1263.613647	-11.743199
876.735779	1304.635132	1635.893799	1264.936890	-11.984061
877.036011	1298.901001	1636.004150	1262.510864	-10.794956
877.336182	1297.246948	1638.650635	1265.598633	-9.270057
877.636353	1294.931152	1645.928589	1267.363037	-7.854221
877.936462	1294.931030	1651.001099	1266.921631	-7.866261
878.236511	1297.908447	1661.366821	1273.758667	-6.644442
878.536560	1297.798218	1679.782349	1278.610718	-5.023114
878.836487	1297.246826	1703.049805	1291.181763	-1.494583
879.136414	1294.379639	1762.486816	1309.928101	3.321560
879.436279	1291.843506	1852.138428	1346.538696	9.761857
879.736084	1293.276855	1963.513550	1390.647827	14.527848
880.035828	1290.961182	2086.908691	1433.874512	17.955120
880.335510	1293.938477	2202.694824	1474.785767	19.900526
880.635193	1293.276855	2303.594238	1513.160522	21.763821
880.934753	1297.797852	2393.576904	1541.390259	22.230066
881.234314	1296.474854	2473.193359	1561.790771	22.547102
881.533752	1298.569946	2539.467529	1583.183594	22.936111
881.833252	1297.798096	2600.889404	1600.937500	23.263098
882.132629	1298.570068	2658.892822	1617.809204	23.467897
882.431946	1298.680298	2704.766113	1635.121826	23.927525
882.731323	1299.893433	2746.559326	1648.023804	24.064323
883.030579	1298.459839	2780.192627	1658.279175	24.283686
883.329712	1298.018677	2813.053955	1667.321411	24.375851
883.628845	1298.790527	2833.675049	1665.557129	23.895388
883.927979	1298.900879	2847.128174	1667.541870	23.810522
884.226990	1299.452148	2858.045166	1668.755005	23.694630
884.526001	1296.144043	2861.684082	1664.674805	23.540169
884.824951	1296.695435	2855.398682	1661.035889	23.374588
885.123840	1295.702881	2838.306396	1653.647705	23.203941
885.422729	1297.687744	2793.645996	1634.129272	22.490034
885.721497	1300.223999	2709.948975	1606.561157	21.730278
886.020203	1301.216553	2605.962158	1570.502075	20.638929
886.318909	1302.760376	2484.331299	1532.127319	19.412033
886.617554	1302.980835	2367.773193	1489.562012	17.522776
886.916138	1302.980957	2268.858643	1454.054321	15.641045
887.214661	1300.554932	2181.522705	1427.699219	14.432343
887.513184	1301.106323	2099.369629	1405.424072	13.068088
887.811523	1298.018677	2028.905518	1383.810791	11.738085
888.109924	1303.752808	1794.686401	1336.172974	6.603778
888.408264	1292.174194	1871.105347	1310.699951	3.199993
888.706543	1294.489868	1690.478760	1350.067261	14.035089
889.004761	1331.541504	1743.740479	1384.803223	12.921361
889.302979	1313.015747	1655.742920	1368.593140	16.216221
889.601135	1329.225830	1637.217163	1271.332642	-18.797018
889.899170	1282.911255	1678.900146	1296.805664	3.508788
890.197205	1313.015747	1667.321533	1287.542725	-7.189559
890.495178	1299.121338	1597.849854	1252.806885	-15.503860
890.793091	1271.332642	1570.061157	1287.542725	5.426360
>>>>>End Processed Spectral Data<<<<<
