Jaz Data File
++++++++++++++++++++++++++++++++++++
Date: Thu Sep 26 04:32:32 2019
User: jaz
Dark Spectrum Present: Yes
Reference Spectrum Present: Yes
Processed Spectrum Present: Yes
Spectrometers: JAZA3541
Integration Time (usec): 100000 (JAZA3541)
Spectra Averaged: 1 (JAZA3541)
Boxcar Smoothing: 10 (JAZA3541)
Correct for Electrical Dark: No (JAZA3541)
Strobe/Lamp Enabled: Yes (JAZA3541)
Correct for Detector Non-linearity: No (JAZA3541)
Correct for Stray Light: No (JAZA3541)
Number of Pixels in Processed Spectrum: 2048
>>>>>Begin Processed Spectral Data<<<<<
W	D	R	S	P
190.543274	0.000000	0.000000	0.000000	0.000000
190.921555	0.000000	0.000000	0.000000	0.000000
191.299805	1296.805664	1336.172974	1162.493652	-341.176514
191.678024	1229.649658	1322.278564	1162.493652	-72.500053
192.056229	1345.435913	1313.015747	1169.440796	542.856934
192.434387	1331.541504	1278.279907	1169.440796	304.348206
192.812531	1303.752808	1324.594360	1185.650879	-566.665710
193.190659	1310.699951	1296.805664	1218.071045	666.669006
193.568741	1319.962891	1359.330200	1150.915039	-429.411743
193.946793	0.000000	0.000000	0.000000	0.000000
194.324829	1207.815674	1211.785522	1081.774170	-3174.969971
194.702835	1271.994385	1273.317627	1138.895386	-10058.551758
195.080811	1337.606445	1335.070313	1196.237061	5574.210449
195.458755	1337.827148	1332.203125	1194.362305	2550.928955
195.836685	1338.268188	1331.541626	1194.031494	2144.285400
196.214569	1339.811890	1336.172974	1193.259644	4027.359863
196.592422	1341.907104	1340.032471	1193.369873	7923.533203
196.970261	1342.679077	1342.127686	1193.921143	26978.636719
197.348068	1343.781860	1343.120117	1192.818481	22812.986328
197.725861	1344.222900	1342.127563	1195.244507	7109.997070
198.103622	1343.561279	1338.157837	1193.921265	2769.345947
198.481323	1340.253052	1337.496216	1188.517822	5503.962891
198.859039	1337.937378	1335.290771	1187.194702	5695.696777
199.236694	1335.070313	1335.621460	1187.966675	-26690.431641
199.614334	1333.416138	1335.511230	1185.209839	-7073.973145
199.991959	1329.115479	1337.937134	1184.217285	-1642.528442
200.369553	1324.373657	1337.826904	1184.217407	-1041.802368
200.747101	1322.499023	1341.355835	1182.011963	-745.020203
201.124619	1320.514038	1341.576294	1183.555664	-650.255005
201.502136	1316.323608	1346.538452	1186.863892	-428.463959
201.879623	1313.677246	1349.736450	1185.761108	-354.739227
202.257065	1311.030640	1351.500854	1183.886475	-314.167267
202.634476	1309.927979	1352.934570	1183.445557	-294.100067
203.011871	1305.186279	1354.809082	1180.468140	-251.332321
203.389221	1303.091064	1361.866455	1185.540771	-199.999176
203.766571	1304.745117	1367.931519	1189.731079	-182.023407
204.143875	1300.334229	1365.064331	1189.620728	-171.038666
204.521164	1296.254272	1365.284912	1191.715820	-151.437759
204.898392	1297.798096	1363.300049	1194.031738	-158.417191
205.275620	1298.459717	1368.703369	1193.700684	-149.136658
205.652817	1293.718018	1368.482910	1193.921265	-133.480774
206.029984	1293.607666	1372.673218	1191.274780	-129.427902
206.407135	1291.953613	1374.988892	1193.810913	-118.193977
206.784225	1292.394775	1374.437378	1191.826050	-122.581100
207.161301	1293.607910	1372.893555	1188.407593	-132.685196
207.538376	1298.570190	1373.555176	1186.422729	-149.559891
207.915405	1302.209229	1370.798462	1190.943970	-162.219711
208.292404	1303.422119	1370.798584	1188.517822	-170.540710
208.669373	1305.406860	1366.718506	1185.650879	-195.323380
209.046310	1302.319336	1363.961670	1183.776245	-192.307922
209.423218	1303.863159	1361.645874	1178.372803	-217.176285
209.800095	1305.737793	1357.124756	1178.593384	-247.425415
210.176956	1308.715210	1353.265137	1180.578369	-287.625244
210.553787	1308.163818	1355.911743	1181.901611	-264.434967
210.930603	1309.597412	1356.242554	1183.555664	-270.214111
211.307358	1315.221313	1353.485718	1179.144775	-355.621735
211.684113	1317.316406	1349.846680	1176.057251	-434.239075
212.060837	1316.985596	1348.413086	1176.939331	-445.617096
212.437531	1316.765015	1350.839233	1176.277710	-412.297943
212.814178	1314.008179	1354.037109	1173.631348	-350.688446
213.190826	1312.574585	1351.280273	1175.505981	-354.130371
213.567413	1313.125977	1352.383057	1176.277832	-348.594818
213.943985	1310.258789	1357.345337	1178.924438	-278.921173
214.320541	1309.266479	1357.124756	1177.270386	-275.806213
214.697052	1307.612305	1361.315186	1181.901733	-234.085342
215.073563	1309.266357	1363.300049	1184.217407	-231.427734
215.449997	1303.863159	1360.874023	1185.981812	-206.769974
215.826431	1301.326904	1362.086914	1185.320068	-190.926300
216.202850	1300.334351	1364.954102	1183.996704	-180.034195
216.579224	1298.459717	1369.695923	1185.871338	-158.049377
216.955582	1300.885742	1374.989014	1187.415161	-153.124924
217.331894	1300.554932	1374.217041	1193.811035	-144.910187
217.708191	1300.003418	1376.863647	1195.685669	-135.723969
218.084442	1300.113770	1383.480103	1191.715820	-130.026047
218.460678	1296.915771	1384.141602	1193.259644	-118.836502
218.836899	1295.041260	1385.685303	1195.575195	-109.732597
219.213074	1292.615234	1387.339478	1200.868408	-96.856750
219.589233	1294.269287	1392.191650	1202.632813	-93.580742
219.965347	1296.805542	1398.697510	1205.610107	-89.502083
220.341431	1295.592529	1399.359131	1204.838257	-87.459999
220.717499	1296.254150	1400.241455	1209.800415	-83.138741
221.093552	1295.041260	1402.336548	1212.888062	-76.567390
221.469543	1299.011108	1407.078247	1212.777954	-79.795906
221.845535	1302.980835	1407.409058	1217.188843	-82.154030
222.221466	1305.296631	1411.709595	1222.371704	-77.927467
222.597397	1305.186279	1417.884766	1222.702515	-73.189774
222.973297	1302.760376	1426.706543	1222.922974	-64.412964
223.349167	1300.554932	1437.403076	1225.679810	-54.714020
223.725006	1297.467285	1446.996826	1223.584595	-49.410095
224.100800	1295.041260	1454.385010	1228.436523	-41.799404
224.476578	1295.372070	1465.081543	1229.318726	-38.921425
224.852325	1297.577515	1475.778076	1231.854980	-36.881218
225.228058	1298.680298	1495.847778	1231.193359	-34.228230
225.603760	1297.577637	1523.195313	1232.847412	-28.690228
225.979416	1295.261963	1552.086792	1243.213135	-20.266275
226.355057	1295.372192	1590.351318	1246.631592	-16.523407
226.730652	1296.805664	1642.069214	1249.278320	-13.765526
227.106232	1296.915894	1691.912231	1253.137939	-11.083129
227.481796	1294.159180	1736.903687	1260.195313	-7.671211
227.857315	1292.946167	1778.145630	1264.936890	-5.772735
228.232788	1296.033813	1815.638184	1270.560791	-4.902388
228.608246	1296.695435	1848.058350	1271.001831	-4.660017
228.983704	1297.026245	1883.345459	1272.766235	-4.137680
229.359100	1297.577637	1916.206665	1277.287354	-3.279879
229.734482	1293.166748	1945.870117	1278.390015	-2.263928
230.109833	1290.189453	1973.768921	1278.169556	-1.758376
230.485153	1290.189331	1989.979126	1280.154541	-1.433972
230.860443	1289.527710	2012.585205	1285.888672	-0.503285
231.235703	1293.166748	2031.331421	1289.307251	-0.522850
231.610931	1293.607788	2055.481445	1295.041504	0.188183
231.986145	1293.056396	2079.300049	1299.121582	0.771413
232.361313	1290.189209	2098.708252	1302.539917	1.527572
232.736465	1287.983765	2121.313965	1307.281494	2.315736
233.111572	1285.888550	2134.656982	1314.008179	3.312992
233.486664	1288.865845	2141.052734	1320.403931	3.700841
233.861725	1290.409668	2141.604248	1321.286133	3.627427
234.236755	1292.284302	2138.957520	1322.719604	3.594693
234.611771	1296.474731	2120.873047	1327.130615	3.718577
234.986740	1298.900635	2101.023926	1326.468994	3.436923
235.361679	1299.782959	2083.710938	1323.601807	3.038398
235.736588	1298.570068	2073.235107	1326.248535	3.572959
236.111496	1297.908447	2069.375488	1328.674438	3.987985
236.486343	1298.459717	2071.139893	1330.438843	4.138727
236.861160	1301.106323	2071.250000	1333.636719	4.223938
237.235962	1300.334351	2079.961426	1338.819458	4.936348
237.610733	1302.760376	2089.996338	1349.295532	5.911208
237.985474	1301.437134	2106.978271	1363.851318	7.748106
238.360199	1300.665283	2140.501221	1378.076538	9.217426
238.734879	1301.767944	2177.662842	1389.985962	10.071758
239.109543	1300.334473	2227.616455	1405.424072	11.333079
239.484177	1304.635132	2281.650146	1425.934937	12.415347
239.858749	1310.810303	2350.680908	1447.658691	13.160136
240.233322	1311.361694	2434.047119	1475.998657	14.664568
240.607864	1313.126099	2511.899414	1502.353760	15.785108
240.982391	1314.559570	2592.618896	1533.340454	17.118210
241.356857	1316.213745	2651.063232	1555.946289	17.959518
241.731308	1315.000610	2704.435059	1577.559692	18.896832
242.105728	1317.977905	2744.684814	1594.872437	19.407948
242.480118	1312.354126	2785.926758	1612.185059	20.347212
242.854492	1310.479492	2835.880127	1635.011719	21.275213
243.228836	1309.045898	2893.442383	1659.161499	22.097727
243.603134	1312.905518	2957.290283	1683.972412	22.565697
243.977402	1312.023193	3046.721436	1716.833740	23.336079
244.351654	1310.920532	3168.241699	1762.486572	24.312759
244.725861	1310.810303	3315.235107	1810.014160	24.905092
245.100067	1311.912964	3466.970215	1865.811890	25.702286
245.474213	1311.361694	3603.377197	1915.214233	26.345917
245.848343	1316.985474	3710.341553	1957.227905	26.750824
246.222443	1318.198486	3794.700195	1990.971558	27.166267
246.596512	1318.419067	3855.019287	2016.885620	27.535542
246.970566	1321.286133	3892.181641	2034.419067	27.738697
247.344574	1320.845093	3904.862793	2043.792358	27.977646
247.718567	1317.206055	3891.740234	2045.336182	28.282015
248.092529	1318.749756	3859.430420	2041.366455	28.441854
248.466431	1315.441650	3833.075195	2035.962769	28.618982
248.840332	1313.236206	3807.051025	2026.148682	28.587225
249.214203	1311.030640	3809.476563	2027.471680	28.675468
249.588043	1313.787598	3825.797363	2031.992920	28.590864
249.961838	1310.038330	3853.696045	2044.674316	28.881086
250.335617	1313.677124	3886.888428	2058.789551	28.956518
250.709381	1313.456665	3901.664795	2065.074951	29.040104
251.083084	1318.198608	3899.569824	2066.398438	28.984591
251.456787	1314.780029	3882.367188	2060.443359	29.041403
251.830460	1316.434204	3829.656738	2048.423828	29.125538
252.204071	1313.456787	3746.069824	2020.965820	29.084324
252.577667	1310.038452	3638.995117	1991.633179	29.266098
252.951248	1310.369263	3513.615234	1951.494019	29.099098
253.324799	1308.604858	3406.099365	1910.803345	28.710371
253.698303	1305.737671	3326.152100	1877.501099	28.299314
254.071793	1305.296631	3267.817627	1853.792358	27.948528
254.445236	1304.083618	3233.853760	1839.677612	27.754290
254.818665	1300.113770	3219.959473	1829.973633	27.599087
255.192062	1300.003418	3219.077393	1828.870850	27.558470
255.565430	1300.444458	3243.888672	1837.913086	27.655470
255.938782	1301.878052	3283.365967	1851.697388	27.747801
256.312103	1304.745117	3340.266846	1864.268555	27.487963
256.685364	1306.730225	3419.442383	1888.528442	27.537979
257.058594	1304.965820	3518.357178	1914.111816	27.520935
257.431793	1302.098633	3646.714600	1952.155518	27.725517
257.804993	1302.760254	3790.178955	1998.029053	27.951418
258.178162	1299.672729	3928.240234	2040.594116	28.187269
258.551270	1298.128906	4052.517578	2081.835938	28.453030
258.924377	1294.379639	4145.587402	2120.100830	28.960402
259.297485	1293.938599	4222.999023	2144.801758	29.049013
259.670502	1293.056396	4286.625977	2162.555908	29.045576
260.043518	1295.151489	4346.063477	2183.176758	29.106878
260.416473	1298.569946	4394.473145	2200.379395	29.129122
260.789459	1297.026123	4449.830078	2216.369141	29.159536
261.162354	1297.246704	4497.467773	2231.145752	29.182327
261.535278	1298.349365	4541.796875	2244.929688	29.184389
261.908142	1298.790527	4576.092285	2257.941895	29.266495
262.280975	1301.216553	4595.279297	2268.858643	29.375340
262.653717	1302.870605	4609.834961	2278.452393	29.500826
263.026520	1300.113892	4627.809570	2278.562744	29.403194
263.399261	1297.357056	4643.688477	2280.437012	29.377840
263.771973	1296.915894	4654.495605	2282.863037	29.364819
264.144653	1298.239258	4653.502930	2287.825439	29.493544
264.517334	1301.106323	4633.103027	2283.083984	29.471149
264.889954	1302.208862	4586.678223	2272.387207	29.538361
265.262543	1305.627563	4506.179199	2251.215088	29.544516
265.635071	1308.053589	4405.610840	2213.281250	29.223921
266.007599	1311.802856	4310.224609	2177.111816	28.858812
266.380127	1312.133545	4240.201660	2143.478760	28.392277
266.752594	1315.882935	4205.575684	2118.887939	27.788593
267.125031	1315.000732	4197.084473	2110.948242	27.617085
267.497437	1313.236328	4212.963867	2111.058594	27.513697
267.869843	1316.544556	4239.098633	2108.742920	27.106371
268.242218	1313.567261	4277.473633	2111.168945	26.910490
268.614532	1311.913208	4335.697754	2123.188721	26.829805
268.986816	1312.354126	4430.973633	2143.809326	26.661001
269.359100	1311.471924	4539.150879	2172.701172	26.682617
269.731354	1310.038452	4652.510742	2193.542480	26.432652
270.103516	1311.030762	4749.219727	2214.714600	26.283716
270.475708	1311.361572	4830.049805	2229.380859	26.089815
270.847839	1314.890381	4902.499023	2251.435791	26.105005
271.219971	1318.419067	4961.053711	2264.006836	25.958897
271.592041	1320.403809	5006.596191	2272.938721	25.840618
271.964081	1321.065552	5036.369629	2272.938721	25.620329
272.336151	1316.434204	5064.048340	2276.908447	25.628952
272.708130	1316.654785	5090.182129	2278.011230	25.476334
273.080109	1313.015869	5107.385254	2274.592529	25.342199
273.452026	1311.582275	5141.238770	2277.900879	25.232513
273.823914	1310.369263	5176.085449	2281.650146	25.125509
274.195770	1310.369263	5215.893555	2294.000488	25.185638
274.567627	1309.376831	5261.987793	2296.647217	24.977678
274.939423	1310.700073	5304.332031	2304.035400	24.872982
275.311249	1312.243896	5345.464355	2312.305908	24.795620
275.682983	1310.479492	5376.120117	2320.466064	24.842003
276.054688	1309.707520	5401.151855	2325.428223	24.825480
276.426422	1307.943115	5403.577148	2317.598877	24.652002
276.798065	1312.243896	5370.495117	2304.917480	24.460625
277.169708	1313.236206	5325.172852	2288.045654	24.297729
277.541321	1317.757446	5277.536133	2281.870605	24.347652
277.912903	1316.985352	5267.832031	2270.732910	24.140333
278.284424	1316.764893	5279.741211	2275.144043	24.183317
278.655945	1315.882813	5301.685547	2279.995850	24.188679
279.027435	1312.574707	5332.010254	2291.794922	24.362133
279.398865	1310.920532	5391.226563	2307.564209	24.425709
279.770294	1307.502075	5467.424805	2336.786377	24.742870
280.141663	1310.810303	5539.763672	2354.209473	24.672752
280.513031	1313.015869	5615.631348	2375.161377	24.686045
280.884369	1315.993164	5680.912598	2396.333496	24.750523
281.255676	1314.559570	5725.462402	2410.669189	24.850006
281.626953	1313.787720	5763.727051	2426.327881	25.001244
281.998199	1316.654907	5805.189453	2440.663330	25.041767
282.369385	1313.346680	5856.245605	2464.151123	25.331940
282.740540	1313.236328	5915.572754	2482.125732	25.397739
283.111694	1311.802856	5983.280273	2501.202881	25.460896
283.482819	1310.479492	6070.064941	2524.580811	25.508553
283.853912	1314.559570	6165.339844	2552.700195	25.524567
284.224945	1315.441772	6257.858398	2590.192627	25.792057
284.595978	1313.346436	6348.502930	2624.046387	26.030970
284.966980	1311.030762	6425.914551	2652.827637	26.233185
285.337952	1309.817749	6500.238281	2675.212891	26.306061
285.708893	1306.730103	6535.746094	2700.244873	26.649654
286.079803	1305.406860	6558.352051	2716.234375	26.857838
286.450684	1304.745239	6574.893066	2736.083740	27.159361
286.821533	1307.391846	6588.677246	2748.213623	27.281651
287.192322	1306.399414	6596.506836	2758.799805	27.455027
287.563110	1307.391968	6602.571289	2771.591553	27.651558
287.933868	1303.642700	6627.272461	2796.071533	28.034046
288.304596	1299.672852	6668.735352	2827.499512	28.456116
288.675262	1300.885742	6725.304199	2859.478516	28.732901
289.045929	1301.326782	6777.683594	2904.800293	29.279930
289.416565	1300.113770	6826.645020	2937.220703	29.622684
289.787170	1296.805664	6843.957520	2963.024658	30.037378
290.157745	1293.718018	6845.170898	2983.976318	30.447132
290.528259	1293.497437	6840.870605	3007.574707	30.898901
290.898773	1294.820801	6830.614746	3032.716797	31.393799
291.269226	1294.269287	6813.852539	3059.292480	31.977474
291.639679	1290.630371	6797.202148	3078.479980	32.467564
292.010101	1294.820801	6810.876465	3109.135742	32.891525
292.380463	1293.828369	6840.539551	3137.696533	33.242550
292.750824	1298.680298	6882.332031	3178.497314	33.666443
293.121155	1300.775391	6928.756836	3223.377930	34.161495
293.491455	1307.502197	6990.068359	3265.833008	34.462086
293.861725	1310.920532	7072.000977	3310.824463	34.714043
294.231964	1313.125977	7184.479004	3355.705078	34.788898
294.602142	1314.669678	7298.721680	3418.891113	35.163826
294.972321	1314.669800	7398.077148	3476.122803	35.530304
295.342468	1316.213623	7496.991699	3520.673096	35.666374
295.712555	1317.095825	7559.295410	3562.024902	35.963753
296.082672	1318.419067	7583.776855	3594.885742	36.334187
296.452728	1315.882813	7585.761719	3615.066162	36.670300
296.822693	1319.080688	7589.400879	3618.705078	36.674755
297.192657	1321.065552	7589.180664	3624.880127	36.754501
297.562622	1322.388916	7606.824219	3638.885010	36.860847
297.932556	1326.027954	7627.886230	3653.441162	36.932171
298.302460	1328.233398	7634.833496	3659.616455	36.967354
298.672333	1327.792358	7640.347656	3663.255615	36.997116
299.042145	1329.005127	7636.597656	3659.395752	36.945801
299.411957	1330.218140	7623.033691	3659.065186	37.008034
299.781677	1326.027954	7584.768555	3647.927490	37.098507
300.151428	1326.579224	7523.125977	3638.774658	37.314255
300.521149	1326.248291	7458.727051	3613.742676	37.301304
300.890839	1322.829956	7386.829590	3585.071777	37.306099
301.260468	1317.095825	7310.961914	3549.895020	37.251404
301.630096	1318.418945	7223.515625	3517.364990	37.238106
301.999695	1319.080688	7102.436523	3480.754395	37.377499
302.369232	1316.323975	6976.063965	3425.838867	37.272293
302.738739	1314.449219	6859.727051	3373.018311	37.122921
303.108246	1310.699951	6722.106445	3327.254883	37.264896
303.477692	1311.251343	6610.841309	3277.191162	37.096073
303.847137	1311.361816	6522.182129	3230.656250	36.832867
304.216553	1311.361572	6456.680176	3201.434082	36.733829
304.585876	1310.369141	6397.794434	3176.401855	36.679314
304.955231	1309.597046	6350.267090	3160.963867	36.728588
305.324493	1306.619751	6311.010254	3146.517822	36.765678
305.693787	1306.178711	6280.244629	3135.159668	36.770340
306.063049	1306.509521	6274.399414	3132.954346	36.765003
306.432251	1307.391846	6272.414551	3125.014404	36.608547
306.801422	1305.627319	6267.783691	3126.778564	36.700806
307.170593	1304.524658	6268.334961	3127.771484	36.730789
307.539673	1303.642456	6275.171875	3123.580811	36.607212
307.908783	1304.304077	6290.831055	3128.102051	36.574512
308.277832	1302.650146	6307.150879	3130.969482	36.533501
308.646851	1300.444702	6338.357910	3136.372803	36.442234
309.015839	1303.973389	6378.717773	3152.141846	36.418949
309.384796	1298.239258	6410.586914	3165.154053	36.517757
309.753723	1295.151733	6446.205566	3170.667725	36.410336
310.122620	1294.600220	6472.339844	3184.451660	36.499546
310.491486	1296.144165	6484.690430	3196.581787	36.627552
310.860352	1299.342041	6501.231445	3200.551758	36.548443
311.229126	1299.452148	6515.456055	3205.403564	36.540451
311.597931	1298.680298	6523.726074	3210.917480	36.597519
311.966675	1300.224121	6544.016602	3211.358643	36.445656
312.335388	1300.665161	6579.523926	3223.598633	36.427067
312.704071	1298.680298	6617.236816	3239.146973	36.484837
313.072723	1301.326904	6632.564941	3239.478027	36.354614
313.441345	1301.988525	6630.139160	3237.934082	36.334290
313.809875	1302.650146	6611.061523	3228.119873	36.272053
314.178436	1298.459839	6573.018066	3221.062500	36.450497
314.546967	1304.193970	6535.194824	3205.072998	36.338726
314.915466	1304.635132	6494.283691	3189.414551	36.318054
315.283936	1308.604858	6440.911621	3165.705811	36.184528
315.652374	1309.266602	6398.125977	3139.240723	35.960400
316.020752	1307.943237	6345.084961	3118.729736	35.948692
316.389130	1313.236328	6299.542480	3098.219238	35.797699
316.757416	1313.346680	6259.072266	3084.765869	35.817177
317.125732	1312.574585	6233.378418	3068.224609	35.678116
317.494019	1313.126099	6201.399414	3059.182129	35.719280
317.862274	1315.441895	6169.530762	3039.994873	35.527840
318.230469	1314.338989	6137.441406	3021.469238	35.394855
318.598663	1315.441772	6109.211914	3010.000732	35.349194
318.966797	1315.221069	6076.571289	2996.326904	35.307335
319.334930	1314.449341	6049.113281	2977.029297	35.115055
319.703003	1310.148682	6018.347656	2964.568115	35.139114
320.071045	1307.612305	5975.341309	2947.034912	35.122490
320.439056	1306.178711	5939.722656	2928.619873	35.015125
320.807037	1306.399292	5937.627441	2917.923340	34.796906
321.175049	1305.296631	5958.910156	2918.033203	34.655579
321.542969	1301.878052	5990.778809	2922.444092	34.561749
321.910828	1306.178711	6035.219238	2932.589355	34.391979
322.278717	1304.965820	6093.112305	2949.460693	34.345123
322.646515	1308.053345	6142.183594	2961.370117	34.200912
323.014313	1307.501953	6192.908691	2978.462891	34.203110
323.382111	1304.855469	6229.739746	2995.003662	34.318535
323.749817	1304.745117	6278.259766	3006.251221	34.211342
324.117523	1303.752808	6305.828125	3018.050537	34.271732
324.485199	1301.326782	6320.052734	3018.381348	34.212955
324.852814	1304.193970	6319.501465	3022.902344	34.269253
325.220428	1306.399292	6317.957520	3015.514404	34.103470
325.588013	1305.075928	6324.794434	3016.947998	34.102947
325.955536	1308.384155	6334.498535	3016.065918	33.976181
326.323059	1308.825317	6352.804199	3018.932617	33.903934
326.690552	1309.597168	6376.622070	3021.579102	33.786728
327.058014	1311.030640	6396.030273	3029.629150	33.797417
327.425415	1314.338989	6409.152344	3033.819092	33.749619
327.792816	1317.977905	6423.708984	3032.606445	33.582432
328.160187	1320.955322	6430.545410	3028.526123	33.418941
328.527496	1321.837646	6416.541504	3029.408203	33.516579
328.894775	1322.940430	6410.255859	3020.697021	33.372349
329.262054	1325.697144	6391.839844	3020.255615	33.448692
329.629303	1323.712280	6378.275879	3011.544189	33.392239
329.996490	1321.837646	6364.161621	3005.368652	33.387997
330.363647	1317.977905	6370.558105	3002.391602	33.337696
330.730774	1316.985718	6381.474609	3007.133301	33.372520
331.097839	1316.544434	6412.020020	3014.521484	33.323231
331.464935	1316.103394	6438.044434	3024.887207	33.362038
331.831970	1312.353882	6459.437500	3028.856934	33.349041
332.198975	1311.802490	6487.336426	3034.812012	33.291435
332.565948	1311.582153	6516.007324	3039.001953	33.191364
332.932892	1304.965698	6553.610352	3047.383301	33.197479
333.299744	1305.406860	6581.950195	3056.645996	33.189137
333.666656	1301.878174	6619.553711	3063.593018	33.129414
334.033478	1300.444702	6650.540039	3067.893799	33.035843
334.400299	1300.665283	6674.027344	3082.118896	33.153423
334.767090	1298.570068	6710.527344	3094.249023	33.179844
335.133850	1299.562622	6735.669434	3103.070801	33.176468
335.500549	1296.805786	6758.166016	3115.200684	33.295639
335.867218	1291.622803	6781.985352	3129.205322	33.469238
336.233917	1292.725586	6818.154785	3139.460449	33.422470
336.600525	1292.505005	6834.694824	3148.061768	33.480568
336.967102	1293.938599	6855.757324	3144.202637	33.267246
337.333649	1296.915894	6867.004395	3148.062012	33.233692
337.700195	1294.269287	6866.563965	3141.225098	33.145336
338.066681	1296.254150	6856.970215	3137.255127	33.107265
338.433136	1295.813110	6847.266602	3130.087402	33.041332
338.799591	1296.254272	6825.983398	3119.060303	32.963749
339.165985	1296.584961	6811.758789	3113.656982	32.946777
339.532318	1300.775391	6816.390625	3114.649658	32.886166
339.898651	1300.995972	6828.851074	3120.052979	32.907104
340.264954	1300.444580	6846.163574	3122.809570	32.860752
340.631226	1305.627319	6861.712891	3125.456055	32.753792
340.997467	1305.406860	6901.410645	3131.300537	32.628529
341.363678	1306.840454	6942.652344	3146.958984	32.650459
341.729828	1308.274048	6995.914551	3172.873047	32.783348
342.095947	1305.627563	7056.674316	3189.414063	32.755539
342.462067	1306.178833	7114.677734	3210.365967	32.782776
342.828156	1305.076050	7183.377441	3229.884277	32.744293
343.194183	1304.414551	7254.171875	3253.262207	32.755077
343.560211	1309.597290	7313.718750	3267.487305	32.609100
343.926178	1311.582275	7371.282227	3278.404297	32.457417
344.292114	1310.259155	7404.143066	3289.983154	32.487064
344.658020	1307.502197	7440.643066	3308.288574	32.622543
345.023926	1307.943237	7478.025391	3316.448730	32.552330
345.389771	1309.817871	7515.187500	3329.460938	32.546700
345.755585	1307.061157	7535.036621	3338.833740	32.623322
346.121368	1309.376953	7556.099121	3343.685547	32.566017
346.487122	1309.707642	7582.233398	3351.735596	32.555115
346.852844	1309.597412	7608.037109	3350.963623	32.410667
347.218536	1308.163818	7628.216309	3358.351563	32.439407
347.584167	1309.487061	7650.822266	3363.313965	32.387928
347.949768	1309.487061	7669.127930	3371.583984	32.424740
348.315369	1310.259033	7693.718750	3387.463623	32.540417
348.680939	1312.684937	7708.384766	3400.255127	32.640217
349.046448	1312.464478	7717.426270	3401.247803	32.611954
349.411957	1310.810303	7721.727051	3399.262695	32.576500
349.777435	1313.677490	7716.654785	3394.741699	32.501507
350.142792	1315.772705	7705.848145	3389.779297	32.456684
350.508209	1317.757568	7707.170898	3386.801758	32.382381
350.873566	1320.734985	7710.369629	3388.235840	32.357109
351.238892	1324.153320	7723.822754	3396.175293	32.377014
351.604187	1317.647217	7751.722656	3415.031982	32.598076
351.969482	1319.521973	7817.224609	3434.770752	32.553795
352.334717	1317.647339	7876.330566	3456.604980	32.612606
352.699890	1318.308838	7959.255371	3482.408447	32.587219
353.065063	1317.647217	8043.062500	3512.292480	32.632118
353.430237	1317.095825	8157.305176	3549.012939	32.629368
353.795319	1313.456787	8287.425781	3590.475342	32.650253
354.160370	1313.897827	8413.466797	3631.497070	32.644222
354.525421	1315.441650	8548.000977	3686.522705	32.783428
354.890442	1315.993164	8704.146484	3737.578857	32.776604
355.255402	1310.589600	8870.106445	3798.780029	32.914677
355.620331	1311.912964	9055.035156	3865.936279	32.984413
355.985260	1311.913086	9232.242188	3919.418457	32.921680
356.350098	1310.699951	9388.499023	3964.409912	32.851894
356.714935	1313.015869	9533.837891	4021.090332	32.941650
357.079742	1313.456909	9660.432617	4059.575195	32.899559
357.444519	1311.361694	9805.770508	4104.566406	32.882858
357.809296	1311.030762	9967.540039	4158.269531	32.891300
358.173981	1309.266479	10156.877930	4221.675781	32.917461
358.538605	1307.171265	10367.388672	4288.611816	32.906940
358.903259	1303.091187	10606.127930	4368.669434	32.952446
359.267914	1305.958008	10871.113281	4449.499023	32.864506
359.632477	1302.208740	11147.125000	4538.489746	32.872612
359.997009	1303.091064	11412.661133	4625.274414	32.861767
360.361542	1299.893188	11615.783203	4691.658203	32.879036
360.726013	1303.201416	11769.945313	4740.949219	32.844482
361.090485	1304.304321	11863.676758	4773.480469	32.854000
361.454895	1310.259033	11911.866211	4800.275879	32.919697
361.819244	1311.251343	11933.588867	4805.899902	32.899052
362.183594	1308.935791	11933.038086	4800.275879	32.862446
362.547913	1305.958374	11891.907227	4789.248535	32.904842
362.912201	1310.148682	11832.580078	4762.893066	32.813179
363.276489	1311.692383	11753.514648	4724.959473	32.688423
363.640686	1309.045898	11666.289063	4697.722656	32.717941
364.004883	1308.053467	11603.984375	4675.888184	32.710346
364.369049	1307.502075	11540.247070	4650.856934	32.673100
364.733154	1305.627319	11501.651367	4633.213379	32.636112
365.097198	1305.296631	11440.780273	4616.231934	32.666771
365.461273	1304.855469	11349.916992	4584.803711	32.652348
365.825287	1303.863037	11219.022461	4545.767578	32.696445
366.189270	1305.517212	11049.423828	4492.836914	32.710903
366.553223	1306.509644	10853.798828	4419.284668	32.603756
366.917114	1304.083740	10603.810547	4333.933594	32.579990
367.281006	1309.156250	10322.946289	4243.289551	32.551605
367.644867	1308.715088	10066.894531	4154.519531	32.493103
368.008698	1311.251465	9856.163086	4086.371338	32.476868
368.372498	1305.958374	9704.648438	4035.535645	32.500034
368.736237	1305.075928	9600.442383	3993.191162	32.405022
369.099976	1302.429565	9538.358398	3954.705811	32.203732
369.463654	1301.988525	9494.360352	3945.112061	32.263226
369.827332	1302.208862	9463.153320	3930.666260	32.207764
370.190948	1304.193848	9440.435547	3917.984863	32.125286
370.554535	1302.650146	9416.837891	3913.573975	32.177269
370.918091	1301.106445	9393.791016	3913.133301	32.276394
371.281647	1303.091309	9380.999023	3908.722168	32.256260
371.645111	1305.848267	9366.443359	3906.296143	32.261238
372.008575	1305.186523	9363.686523	3902.436768	32.229946
372.371979	1305.406982	9347.367188	3906.296143	32.341484
372.735382	1308.604858	9362.143555	3910.597168	32.308681
373.098724	1308.384155	9392.909180	3918.206055	32.281696
373.462067	1307.501953	9422.242188	3926.916992	32.279716
373.825348	1305.847900	9491.492188	3947.428223	32.270889
374.188599	1304.855347	9567.139648	3980.509766	32.383953
374.551819	1305.517090	9684.690430	4028.037598	32.491516
374.915009	1303.091187	9826.390625	4077.218750	32.547577
375.278168	1303.532227	9977.463867	4122.761719	32.502327
375.641266	1299.672729	10109.459961	4165.768066	32.533081
376.004395	1302.319214	10216.204102	4204.142578	32.553970
376.367462	1305.296631	10289.535156	4230.166992	32.555573
376.730469	1302.980957	10335.959961	4257.514648	32.708302
377.093475	1300.995972	10366.173828	4261.705078	32.660240
377.456421	1299.672852	10399.367188	4275.819336	32.706005
377.819336	1303.201538	10434.763672	4291.919434	32.729534
378.182281	1304.304199	10477.661133	4299.417969	32.650139
378.545135	1306.619873	10523.974609	4304.821289	32.527786
378.907928	1304.965820	10570.621094	4314.525391	32.480808
379.270752	1303.752808	10610.319336	4326.435059	32.479027
379.633484	1304.304077	10644.283203	4336.138672	32.460827
379.996246	1308.604858	10675.931641	4341.762207	32.380177
380.358948	1305.737671	10694.016602	4348.268066	32.407753
380.721558	1306.509521	10717.394531	4355.987305	32.403732
381.084198	1307.281494	10758.856445	4367.014648	32.372734
381.446747	1309.156006	10778.814453	4369.550781	32.317902
381.809326	1310.589722	10797.670898	4367.014648	32.216705
382.171875	1312.574707	10791.716797	4359.407227	32.142490
382.534363	1312.354126	10755.877930	4346.725098	32.131767
382.896790	1311.361572	10704.710938	4339.888184	32.241177
383.259247	1315.441772	10669.204102	4330.735840	32.236160
383.621613	1316.544556	10660.161133	4322.023926	32.166126
383.983948	1316.765015	10687.950195	4336.028320	32.218582
384.346283	1317.647217	10738.124023	4344.850098	32.134285
384.708588	1315.772705	10823.144531	4374.403320	32.171146
385.070831	1320.073242	10899.012695	4398.332520	32.135700
385.433075	1315.662354	10992.963867	4424.908203	32.129265
385.795258	1316.765015	11075.448242	4450.160156	32.108788
386.157440	1312.133667	11151.536133	4481.257324	32.208496
386.519531	1312.795288	11244.496094	4507.502441	32.166767
386.881622	1310.810303	11316.504883	4527.792480	32.151512
387.243683	1310.700073	11391.710938	4553.706055	32.169453
387.605713	1307.391724	11473.091797	4581.715332	32.209526
387.967682	1309.817749	11555.907227	4615.018066	32.258160
388.329651	1307.832886	11652.283203	4650.194824	32.310677
388.691559	1308.053345	11748.441406	4684.269531	32.338036
389.053467	1303.752686	11868.749023	4726.062988	32.392918
389.415314	1301.326782	11987.513672	4770.723145	32.466179
389.777130	1303.752808	12107.820313	4815.273438	32.501839
390.138885	1299.782959	12230.442383	4857.397461	32.547119
390.500641	1300.665039	12323.181641	4881.767578	32.488976
390.862366	1296.584961	12410.408203	4906.689941	32.483017
391.224060	1296.364502	12484.620117	4932.493164	32.499512
391.585693	1297.246704	12571.514648	4952.893066	32.424690
391.947296	1298.569946	12659.623047	4984.541504	32.443928
392.308868	1304.524658	12724.023438	5009.683594	32.445896
392.670441	1304.304077	12789.525391	5033.392090	32.468575
393.031952	1307.171265	12819.077148	5042.765137	32.449829
393.393433	1306.399414	12846.205078	5056.107910	32.493687
393.754883	1308.494507	12861.644531	5059.856934	32.470470
394.116302	1307.502075	12850.395508	5065.040039	32.552826
394.477692	1311.141113	12853.373047	5072.538086	32.588123
394.839020	1310.589722	12852.491211	5073.089844	32.598614
395.200348	1310.589722	12851.718750	5063.716309	32.519577
395.561646	1308.825317	12834.958008	5051.255859	32.469093
395.922882	1312.574585	12799.230469	5029.091309	32.355080
396.284088	1313.787476	12739.682617	5007.698242	32.329288
396.645264	1316.103271	12662.161133	4977.042480	32.266178
397.006409	1316.985474	12567.545898	4943.850586	32.237194
397.367523	1312.905396	12464.992188	4901.727051	32.180717
397.728577	1317.426514	12368.834961	4867.211914	32.120663
398.089600	1319.080688	12297.267578	4843.723633	32.105877
398.450592	1319.631958	12241.248047	4821.779297	32.066200
398.811584	1319.631958	12182.804688	4798.952637	32.028587
399.172546	1317.536865	12098.225586	4774.692871	32.068047
399.533447	1316.323853	12017.835938	4743.044922	32.020908
399.894318	1310.479492	11962.148438	4720.879883	32.017521
400.255127	1308.935791	11911.533203	4698.714844	31.971212
400.615936	1307.502197	11882.752930	4691.768066	32.001755
400.976685	1307.171387	11886.833008	4697.502441	32.045742
401.337433	1305.517212	11916.826172	4705.993164	32.045776
401.698151	1304.745483	11971.852539	4728.819336	32.099365
402.058807	1301.657715	12056.542969	4750.543457	32.068085
402.419434	1299.672729	12151.487305	4786.161621	32.128162
402.780060	1297.467285	12260.105469	4832.586426	32.246975
403.140594	1296.364624	12359.020508	4872.063965	32.322247
403.501129	1292.394775	12453.856445	4911.100586	32.421432
403.861633	1291.181763	12540.641602	4939.109863	32.427586
404.222076	1289.196777	12626.102539	4972.081055	32.485798
404.582550	1287.983765	12698.000000	4993.032715	32.471897
404.942932	1289.307007	12768.574219	5020.380371	32.502712
405.303284	1293.607666	12843.891602	5041.111328	32.445122
405.663605	1292.174316	12899.579102	5061.070801	32.469761
406.023895	1293.056396	12936.077148	5077.611328	32.504925
406.384125	1290.409912	12989.669922	5099.555664	32.558861
406.744354	1290.850952	13056.826172	5125.580078	32.591679
407.104553	1291.291992	13123.429688	5156.677246	32.668530
407.464691	1296.364624	13183.198242	5179.282715	32.665703
407.824829	1296.916016	13253.110352	5206.630371	32.700325
408.184906	1296.805664	13333.279297	5225.155762	32.637051
408.544922	1298.129028	13397.016602	5241.807129	32.595379
408.904938	1299.562500	13444.985352	5257.686523	32.589428
409.264923	1300.224121	13466.709961	5255.480957	32.509441
409.624847	1298.239258	13452.485352	5254.819336	32.553070
409.984802	1301.437256	13428.113281	5241.917480	32.494316
410.344666	1303.091187	13393.708008	5224.935059	32.437084
410.704529	1305.076050	13355.223633	5204.203613	32.357510
411.064331	1307.612305	13323.023438	5187.442871	32.290451
411.424133	1306.399414	13317.508789	5187.111816	32.309361
411.783875	1306.509644	13312.107422	5186.560547	32.318680
412.143555	1310.369263	13321.479492	5190.860840	32.307518
412.503235	1308.274048	13338.792969	5204.535156	32.386478
412.862885	1304.635010	13348.716797	5215.452148	32.470860
413.222473	1305.406860	13404.625000	5227.361816	32.414948
413.582062	1303.642578	13483.800781	5254.047852	32.433121
413.941559	1302.870605	13553.383789	5281.946777	32.480892
414.301086	1304.855591	13638.513672	5308.522461	32.461311
414.660522	1306.399414	13709.198242	5320.983398	32.368370
415.019958	1303.863037	13795.209961	5347.338379	32.370213
415.379364	1302.429688	13906.364258	5382.625977	32.372402
415.738708	1300.555054	14027.223633	5416.920898	32.344406
416.098053	1300.996216	14169.366211	5460.808594	32.325871
416.457336	1300.996094	14353.409180	5522.561035	32.343178
416.816559	1302.870728	14553.443359	5596.223145	32.401260
417.175812	1306.840454	14794.830078	5667.569824	32.330463
417.535004	1302.319336	15084.958008	5763.506836	32.368168
417.894135	1306.289063	15413.351563	5865.289063	32.317146
418.253265	1303.091187	15806.914063	5993.866699	32.341648
418.612335	1300.775513	16211.945313	6134.685059	32.418045
418.971405	1302.870728	16630.541016	6272.194824	32.420612
419.330414	1304.304077	17066.005859	6410.145996	32.393974
419.689423	1303.642334	17500.701172	6547.876465	32.377697
420.048370	1306.178711	17901.873047	6672.925781	32.338188
420.407257	1306.619751	18312.748047	6800.731934	32.306660
420.766144	1307.281372	18696.716797	6926.994141	32.316822
421.125000	1310.479370	19089.509766	7060.424316	32.341160
421.483795	1311.692383	19479.652344	7182.163574	32.312218
421.842560	1309.817749	19892.181641	7315.483398	32.319168
422.201324	1305.627563	20295.669922	7457.955566	32.397652
422.560028	1306.730225	20666.406250	7583.115234	32.419888
422.918671	1310.259033	21005.935547	7694.379395	32.413815
423.277283	1307.281494	21295.291016	7801.013184	32.488132
423.635925	1306.950806	21519.697266	7875.887695	32.498985
423.994476	1306.178833	21684.664063	7928.378906	32.496040
424.353027	1301.437134	21815.447266	7971.604980	32.515182
424.711487	1299.562500	21918.664063	8014.170410	32.564987
425.069946	1303.422119	21966.853516	8022.331055	32.515942
425.428375	1300.003662	21932.335938	8026.520996	32.601830
425.786743	1302.980957	21839.044922	7991.233398	32.568325
426.145081	1302.650146	21688.634766	7942.603516	32.571167
426.503418	1303.201538	21511.423828	7880.189941	32.546101
426.861725	1303.642578	21295.402344	7808.402344	32.537205
427.219971	1305.958252	21063.716797	7733.526855	32.531872
427.578186	1305.737671	20870.742188	7667.583984	32.516457
427.936371	1306.509521	20683.941406	7609.470215	32.527328
428.294495	1304.524658	20465.931641	7548.158691	32.584423
428.652618	1305.406982	20213.738281	7460.050781	32.549904
429.010712	1308.604858	19949.083984	7381.206055	32.577496
429.368744	1307.502197	19655.095703	7285.599609	32.582462
429.726746	1309.266479	19377.318359	7192.971191	32.564133
430.084717	1308.163818	19099.431641	7099.569824	32.551960
430.442688	1307.060913	18835.882813	7015.431641	32.565624
430.800568	1309.376709	18608.390625	6943.754395	32.570515
431.158417	1306.840454	18434.820313	6883.435059	32.558392
431.516235	1306.068604	18281.431641	6837.342285	32.584126
431.874023	1311.692505	18144.582031	6794.446289	32.571674
432.231812	1313.567261	18015.671875	6755.409180	32.581772
432.589508	1312.574707	17917.308594	6727.509766	32.610790
432.947205	1313.015869	17823.136719	6683.069824	32.525829
433.304840	1313.015747	17743.410156	6657.045898	32.525272
433.662476	1316.213623	17696.322266	6628.706055	32.432583
434.020050	1314.890381	17657.066406	6609.628906	32.399223
434.377594	1312.795166	17623.541016	6595.735352	32.389324
434.735138	1308.825195	17599.613281	6592.757324	32.435093
435.092621	1308.935669	17586.931641	6590.221191	32.444324
435.450043	1307.612305	17582.742188	6586.360840	32.434448
435.807465	1309.707520	17606.451172	6579.414551	32.335949
436.164856	1308.053345	17642.402344	6594.852539	32.366146
436.522156	1303.973267	17711.433594	6606.431641	32.317360
436.879486	1305.737671	17791.822266	6630.912109	32.301025
437.236755	1306.840454	17887.759766	6664.875977	32.314465
437.593994	1306.730225	17994.613281	6695.531250	32.291698
437.951172	1304.635010	18134.107422	6734.346680	32.263115
438.308380	1308.053467	18255.406250	6769.413574	32.225445
438.665497	1306.840454	18378.800781	6821.020996	32.299633
439.022583	1309.266602	18541.562500	6862.704590	32.226917
439.379608	1306.399414	18692.748047	6906.372070	32.209023
439.736633	1303.973389	18803.460938	6933.718750	32.170914
440.093628	1303.311646	18901.603516	6968.565430	32.192070
440.450562	1302.098633	18996.988281	7002.529785	32.215126
440.807495	1300.003540	19074.402344	7036.935059	32.276375
441.164368	1297.687866	19164.937500	7073.655273	32.327118
441.521210	1294.820679	19226.908203	7097.474609	32.359055
441.878021	1295.813232	19294.947266	7117.544434	32.344509
442.234833	1294.820801	19409.521484	7146.656250	32.304344
442.591522	1293.056274	19506.119141	7170.474609	32.270348
442.948242	1294.379517	19605.806641	7201.571289	32.259594
443.304901	1289.748169	19723.906250	7245.900879	32.310413
443.661530	1290.961060	19876.414063	7289.458984	32.275230
444.018127	1295.372070	20038.294922	7339.302734	32.246471
444.374664	1293.717773	20193.007813	7396.534180	32.291248
444.731201	1294.710327	20324.121094	7430.829590	32.245453
445.087738	1294.159058	20459.091797	7466.336426	32.205578
445.444183	1294.048950	20529.777344	7489.052734	32.205715
445.800598	1288.535278	20607.960938	7502.616211	32.164936
446.156982	1294.710449	20632.111328	7509.342773	32.137890
446.513336	1294.379639	20623.511719	7511.769531	32.165901
446.869598	1296.143921	20639.279297	7503.940430	32.093021
447.225891	1296.254272	20655.710938	7511.107910	32.102417
447.582153	1298.569946	20644.904297	7502.395996	32.067192
447.938354	1298.900757	20658.910156	7513.643066	32.100925
448.294495	1300.113892	20673.464844	7512.541016	32.066868
448.650665	1300.775269	20647.441406	7503.718750	32.062080
449.006775	1304.304199	20650.308594	7502.505371	32.038666
449.362823	1304.634888	20653.947266	7507.467773	32.057125
449.718842	1306.068604	20646.886719	7506.255371	32.057518
450.074860	1303.201416	20633.435547	7504.711914	32.081921
450.430817	1299.121338	20615.460938	7497.434570	32.088448
450.786713	1303.091187	20522.720703	7467.991699	32.076065
451.142578	1302.429443	20414.103516	7437.887695	32.103195
451.498444	1299.672852	20259.611328	7398.078125	32.164692
451.854248	1298.790649	20091.447266	7338.861816	32.140594
452.210022	1296.364624	19887.664063	7274.903320	32.157722
452.565765	1297.687866	19641.093750	7208.519531	32.223194
452.921478	1298.790527	19413.382813	7131.879395	32.201050
453.277191	1300.665039	19194.601563	7071.560059	32.250561
453.632813	1293.717896	19016.619141	7010.027344	32.253803
453.988434	1291.953491	18836.214844	6949.377930	32.246578
454.343964	1291.512451	18654.484375	6902.181641	32.313988
454.699524	1291.512451	18502.417969	6856.528809	32.334244
455.054993	1289.858398	18362.921875	6822.675781	32.406708
455.410400	1292.946045	18256.728516	6784.190430	32.370399
455.765839	1292.505005	18209.533203	6766.325684	32.356873
456.121216	1291.843384	18214.494141	6763.569336	32.333740
456.476593	1290.850952	18258.162109	6784.522461	32.377975
456.831909	1292.505005	18381.447266	6828.079102	32.392727
457.187195	1290.299438	18541.011719	6880.349121	32.404747
457.542450	1292.725586	18748.433594	6950.372070	32.411442
457.897644	1294.049072	18936.558594	7015.653320	32.430786
458.252808	1294.710571	19188.201172	7085.896484	32.364765
458.607971	1291.733398	19381.619141	7145.002441	32.356583
458.963013	1290.079224	19505.677734	7174.997070	32.307026
459.318085	1288.755859	19596.982422	7197.381836	32.273067
459.673096	1285.116821	19666.013672	7221.752441	32.297859
460.028076	1286.440063	19745.630859	7239.175781	32.248085
460.383057	1284.786133	19806.941406	7261.670898	32.268841
460.737976	1287.983887	19834.839844	7267.184570	32.238354
461.092865	1292.725586	19855.791016	7266.632324	32.181679
461.447723	1296.916016	19856.453125	7268.837891	32.177105
461.802551	1298.239258	19856.453125	7267.404785	32.164547
462.157288	1297.467407	19858.546875	7259.354980	32.120369
462.512054	1300.224121	19875.419922	7252.738281	32.045498
462.866760	1298.349487	19855.460938	7238.844727	32.011959
463.221405	1300.224121	19807.162109	7225.170898	32.014732
463.576019	1303.091187	19712.216797	7195.727539	32.009323
463.930603	1302.539917	19614.736328	7164.961426	32.013752
464.285156	1299.121338	19475.904297	7106.075684	31.947094
464.639709	1298.128906	19264.953125	7034.839844	31.929466
464.994171	1297.908203	19023.126953	6954.120605	31.910536
465.348633	1296.584961	18747.886719	6859.947754	31.879358
465.703033	1295.923462	18464.816406	6768.752441	31.876425
466.057434	1298.790649	18214.716797	6684.724121	31.839426
466.411774	1299.562622	18037.949219	6617.458496	31.770660
466.766083	1301.106445	17885.222656	6564.306641	31.736391
467.120331	1305.737793	17779.470703	6523.947266	31.675940
467.474548	1301.106445	17689.046875	6492.519531	31.678249
467.828735	1303.752930	17619.908203	6463.297852	31.622309
468.182922	1304.083740	17569.181641	6443.889160	31.600214
468.537048	1303.752808	17523.308594	6421.834961	31.555008
468.891144	1301.878296	17492.320313	6411.579590	31.559984
469.245178	1301.878174	17462.218750	6398.235840	31.536200
469.599213	1302.539917	17443.248047	6393.273926	31.539719
469.953186	1298.680298	17429.464844	6382.025879	31.513321
470.307129	1296.805664	17448.871094	6387.208984	31.515495
470.661041	1296.364624	17470.375000	6385.555176	31.465235
471.014923	1294.159180	17540.398438	6399.779785	31.426477
471.368713	1291.402344	17554.513672	6387.870605	31.337597
471.722504	1291.733154	17527.056641	6386.215820	31.379002
472.076294	1294.159180	17506.875000	6377.725586	31.355429
472.429993	1294.820679	17450.636719	6356.222656	31.328667
472.783722	1298.680298	17445.673828	6355.229980	31.315737
473.137329	1298.900757	17468.169922	6365.816895	31.336702
473.490967	1297.136353	17501.912109	6371.770996	31.315676
473.844543	1299.893188	17586.824219	6407.279785	31.358805
474.198090	1304.304077	17671.072266	6445.653809	31.413345
474.551605	1302.319214	17800.201172	6479.066406	31.378250
474.905060	1308.384155	17940.027344	6530.894531	31.401049
475.258484	1308.935547	18086.910156	6592.867676	31.493265
475.611877	1306.178711	18251.660156	6651.532715	31.544422
475.965240	1308.273926	18447.281250	6719.019531	31.569771
476.318573	1309.266235	18634.302734	6778.014648	31.565580
476.671844	1309.597168	18851.650391	6848.479004	31.574879
477.025116	1311.912964	19080.025391	6917.289551	31.547392
477.378326	1311.582275	19312.589844	6993.598145	31.564985
477.731506	1315.882690	19547.250000	7074.647461	31.587124
478.084656	1316.323975	19827.232422	7166.063965	31.601583
478.437744	1317.867554	20118.792969	7263.544434	31.624382
478.790833	1320.844971	20460.417969	7393.004395	31.725679
479.143890	1321.506836	20876.585938	7520.700195	31.701195
479.496826	1319.191040	21361.125000	7674.861816	31.711864
479.849823	1318.308838	22011.734375	7875.447266	31.687061
480.202728	1315.441650	22825.765625	8110.659180	31.590494
480.555603	1315.110840	23823.623047	8429.677734	31.608339
480.908478	1315.441772	25161.562500	8858.307617	31.631416
481.261292	1316.985596	26807.597656	9404.597656	31.727808
481.614075	1312.574707	28644.851563	10078.694336	32.072407
481.966797	1312.464355	30482.433594	10786.974609	32.480358
482.319489	1309.045898	32214.595703	11411.559570	32.688347
482.672150	1305.296631	33764.917969	11933.369141	32.742439
483.024780	1306.730103	35107.265625	12353.948242	32.683559
483.377350	1302.870605	36224.988281	12716.965820	32.684433
483.729919	1298.018677	37244.351563	13046.791992	32.684208
484.082428	1299.011108	38192.691406	13349.269531	32.662121
484.434937	1295.702881	39178.636719	13669.610352	32.663540
484.787384	1295.151489	40234.167969	14013.661133	32.662640
485.139771	1292.725586	41388.390625	14400.057617	32.690147
485.492157	1292.835815	42569.632813	14777.079102	32.667854
485.844482	1293.387207	43648.093750	15125.872070	32.658672
486.196777	1294.710449	44636.695313	15429.451172	32.612122
486.549072	1296.033813	45404.960938	15680.653320	32.611584
486.901276	1296.695313	45975.839844	15862.270508	32.600391
487.253448	1298.239258	46288.355469	15964.051758	32.597855
487.605591	1302.208984	46303.132813	15982.248047	32.621639
487.957703	1299.672607	46083.031250	15917.185547	32.640499
488.309784	1299.562378	45554.933594	15751.776367	32.656406
488.661835	1296.033691	44797.800781	15490.099609	32.628712
489.013855	1298.349365	44004.054688	15140.977539	32.414001
489.365814	1299.231567	43266.445313	14795.826172	32.159855
489.717743	1303.532349	42634.578125	14516.284180	31.968103
490.069611	1305.186401	42050.355469	14303.238281	31.900843
490.421509	1304.965820	41502.742188	14142.238281	31.935280
490.773315	1302.981079	41014.894531	13980.248047	31.923080
491.125092	1306.619995	40491.542969	13801.716797	31.887512
491.476807	1304.524780	39882.945313	13609.511719	31.896036
491.828522	1307.612305	39140.375000	13358.091797	31.851969
492.180176	1309.707520	38236.800781	13066.639648	31.838226
492.531830	1309.156128	37205.195313	12706.601563	31.751263
492.883423	1306.178711	36045.132813	12327.041992	31.724800
493.234985	1304.745239	34956.851563	11979.463867	31.720804
493.586487	1304.965698	33935.281250	11653.939453	31.715824
493.937988	1305.296509	33071.078125	11384.653320	31.730232
494.289429	1307.391846	32372.283203	11164.660156	31.731218
494.640869	1306.950562	31790.261719	10980.504883	31.733938
494.992218	1303.752808	31337.705078	10838.694336	31.747208
495.343567	1308.053345	30892.642578	10686.408203	31.700134
495.694855	1309.266479	30385.390625	10516.477539	31.665880
496.046112	1310.589722	29761.578125	10305.856445	31.616711
496.397339	1310.479492	28948.871094	10037.122070	31.574352
496.748535	1314.008179	28032.728516	9732.329102	31.507202
497.099670	1311.030884	27087.691406	9430.842773	31.500637
497.450806	1309.817871	26246.529297	9136.635742	31.386728
497.801880	1306.840576	25569.789063	8899.659180	31.293880
498.152924	1311.582275	24976.521484	8711.753906	31.270615
498.503937	1313.897827	24514.037109	8571.267578	31.281578
498.854889	1314.449219	24176.052734	8450.408203	31.213730
499.205841	1312.243774	23892.431641	8367.814453	31.246733
499.556702	1311.140991	23686.552734	8299.115234	31.230595
499.907562	1307.943115	23485.634766	8234.826172	31.233561
500.258362	1310.148560	23315.595703	8186.747070	31.249529
500.609161	1309.707520	23158.457031	8132.051270	31.225328
500.959900	1308.494507	22990.400391	8073.497070	31.201143
501.310608	1307.171265	22819.037109	8006.782227	31.143793
501.661255	1307.171265	22611.285156	7942.052246	31.143661
502.011902	1309.266602	22391.291016	7872.469727	31.131752
502.362488	1311.913086	22170.857422	7793.183594	31.071899
502.713043	1309.487061	21960.457031	7736.063477	31.119972
503.063568	1309.817871	21776.964844	7684.896484	31.147861
503.414063	1310.369263	21571.416016	7626.342285	31.172985
503.764496	1309.487061	21409.425781	7581.351074	31.203400
504.114899	1307.722656	21250.632813	7537.462891	31.237869
504.465271	1306.950684	21128.449219	7492.140625	31.204453
504.815613	1310.699951	21029.423828	7468.322266	31.227283
505.165894	1314.559570	20931.613281	7443.731934	31.244101
505.516174	1314.890381	20892.464844	7430.719727	31.238953
505.866394	1313.125977	20881.437500	7418.698730	31.201324
506.216583	1311.802856	20873.714844	7422.558594	31.238029
506.566711	1311.802734	20907.458984	7427.961914	31.211811
506.916840	1310.810303	20949.033203	7435.239746	31.186274
507.266907	1311.251343	21002.847656	7460.271484	31.226622
507.616882	1312.464355	21083.457031	7489.823730	31.244558
507.966858	1310.589966	21133.298828	7505.262695	31.250385
508.316803	1311.251587	21188.214844	7524.670410	31.259398
508.666748	1311.030884	21251.291016	7532.610352	31.201096
509.016632	1309.707642	21313.376953	7547.828125	31.184881
509.366486	1309.046021	21402.917969	7576.166504	31.189215
509.716309	1306.840454	21490.474609	7610.572266	31.231897
510.066040	1308.715088	21588.066406	7637.920410	31.210096
510.415771	1308.935669	21689.849609	7658.101074	31.152506
510.765503	1303.863037	21797.253906	7691.734375	31.170397
511.115173	1302.870483	21897.271484	7719.631836	31.157795
511.464752	1302.650024	21996.625000	7737.055176	31.093134
511.814270	1304.965820	22078.666016	7757.456055	31.060863
512.163818	1302.980835	22163.134766	7782.156250	31.060055
512.513306	1300.444580	22225.990234	7796.271484	31.042570
512.862793	1297.797974	22280.796875	7813.144531	31.050600
513.212219	1294.931030	22320.494141	7823.509766	31.050673
513.561646	1295.482178	22372.982422	7842.477051	31.061535
513.911011	1294.710449	22402.203125	7863.979980	31.122929
514.260315	1298.128906	22437.380859	7885.924805	31.163809
514.609558	1299.893188	22506.414063	7902.023926	31.132549
514.958801	1300.665283	22600.585938	7920.769531	31.080420
515.308044	1304.193970	22745.705078	7953.631836	31.011984
515.657227	1303.311890	22949.488281	8001.930176	30.945967
516.006348	1307.171387	23197.712891	8082.650391	30.951630
516.355408	1308.935669	23468.322266	8163.149414	30.931423
516.704529	1306.950684	23702.210938	8237.802734	30.947853
517.053467	1310.810181	23927.384766	8302.974609	30.916109
517.402466	1309.817627	24100.404297	8343.114258	30.860535
517.751404	1310.589600	24227.660156	8392.405273	30.901922
518.100281	1315.882813	24354.253906	8423.060547	30.849306
518.449219	1316.764893	24445.224609	8452.724609	30.853590
518.798035	1314.228638	24541.933594	8490.216797	30.894091
519.146851	1311.471924	24637.761719	8511.720703	30.867529
519.495544	1311.582275	24703.267578	8533.223633	30.872686
519.844299	1311.582031	24792.478516	8562.886719	30.881720
520.192932	1310.589600	24892.824219	8591.337891	30.873869
520.541626	1311.912964	24987.878906	8622.323242	30.876923
520.890198	1313.236084	25089.660156	8638.423828	30.808619
521.238770	1315.993042	25211.404297	8657.500000	30.723499
521.587280	1313.897827	25350.234375	8693.338867	30.701189
521.935791	1315.000488	25468.556641	8733.809570	30.715183
522.284180	1312.905273	25587.652344	8774.611328	30.738554
522.632629	1310.810181	25735.308594	8826.217773	30.769958
522.981018	1313.346436	25881.085938	8884.332031	30.816776
523.329346	1309.376709	26049.583984	8948.620117	30.877846
523.677551	1312.795288	26239.253906	9014.454102	30.897524
524.025818	1310.810303	26502.146484	9080.506836	30.842731
524.374023	1305.848267	26813.333984	9169.166992	30.827494
524.722229	1304.304443	27208.441406	9305.131836	30.886292
525.070374	1302.760376	27733.115234	9463.262695	30.875492
525.418457	1301.878174	28432.574219	9695.716797	30.938532
525.766541	1303.532227	29419.845703	10010.766602	30.968622
526.114563	1305.406860	30673.535156	10425.721680	31.055143
526.462585	1304.414429	32059.880859	10918.529297	31.259857
526.810547	1302.319214	33429.792969	11392.591797	31.406990
527.158447	1303.311523	34649.191406	11798.835938	31.474728
527.506348	1306.509521	35670.535156	12107.709961	31.431707
527.854065	1305.406860	36507.835938	12369.165039	31.428961
528.201904	1305.296631	37179.289063	12590.591797	31.458151
528.549622	1304.965820	37700.105469	12754.017578	31.457638
528.897339	1304.965820	38087.820313	12872.229492	31.447433
529.245056	1305.848022	38392.945313	12955.264648	31.410969
529.592712	1304.965942	38621.097656	13023.083008	31.402283
529.940369	1302.209106	38808.785156	13083.730469	31.411884
530.287903	1298.239258	39002.093750	13139.309570	31.405462
530.635437	1300.003662	39242.042969	13199.629883	31.362642
530.982910	1296.254272	39534.929688	13288.840820	31.362453
531.330383	1298.349487	39778.742188	13383.783203	31.406731
531.677795	1296.364624	39893.535156	13431.531250	31.440559
532.025208	1296.805664	39896.734375	13427.008789	31.425453
532.372498	1296.144043	39700.453125	13370.770508	31.440813
532.719788	1294.379639	39259.023438	13228.741211	31.435461
533.067078	1295.261841	38522.738281	12984.707031	31.400047
533.414307	1297.577637	37499.183594	12636.687500	31.322117
533.761536	1299.782959	36364.812500	12230.995117	31.174112
534.108643	1298.790649	35301.566406	11847.355469	31.022655
534.455811	1298.349487	34402.292969	11541.239258	30.941597
534.802856	1298.459717	33658.390625	11312.534180	30.945906
535.149902	1300.996094	33076.042969	11135.105469	30.949158
535.496887	1300.665161	32572.203125	10975.763672	30.938993
535.843811	1298.790527	32153.277344	10853.691406	30.967621
536.190796	1300.113892	31807.683594	10737.132813	30.933367
536.537659	1300.885742	31473.228516	10645.054688	30.969318
536.884460	1301.216553	31187.402344	10558.601563	30.975464
537.231323	1303.973267	30885.589844	10462.995117	30.961868
537.578064	1306.950806	30573.738281	10362.426758	30.941133
537.924805	1308.274048	30209.177734	10258.880859	30.969988
538.271423	1307.502197	29892.691406	10146.292969	30.920876
538.618164	1308.935547	29722.433594	10076.820313	30.858168
538.964783	1312.795288	29751.984375	10096.669922	30.886517
539.311279	1312.354126	29938.345703	10163.495117	30.919943
539.657776	1313.787720	30217.447266	10236.495117	30.870508
540.004333	1312.023193	30474.714844	10310.708008	30.856838
540.350769	1311.030762	30722.937500	10383.818359	30.847328
540.697144	1310.920410	30910.619141	10444.798828	30.858013
541.043518	1307.501953	31016.039063	10477.880859	30.867825
541.389893	1307.832764	30991.449219	10478.101563	30.893366
541.736145	1312.243652	30870.919922	10438.624023	30.875473
542.082458	1311.030762	30728.115234	10382.716797	30.838154
542.428711	1313.677490	30558.958984	10321.735352	30.801746
542.774902	1311.030884	30414.613281	10273.986328	30.796741
543.121033	1314.559570	30309.851563	10230.980469	30.751270
543.467102	1315.772705	30228.580078	10203.411133	30.739452
543.813171	1314.449341	30173.115234	10176.726563	30.709242
544.159180	1314.118530	30124.265625	10160.294922	30.705074
544.505127	1316.103394	30064.390625	10138.571289	30.688673
544.851135	1315.882813	29946.505859	10104.716797	30.697321
545.197021	1314.228760	29733.347656	10031.716797	30.674730
545.542908	1312.574585	29327.765625	9917.584961	30.715517
545.888733	1313.125977	28734.279297	9725.932617	30.679989
546.234558	1312.574585	27955.421875	9470.650391	30.620134
546.580322	1314.449219	27086.472656	9178.870117	30.515341
546.926025	1314.449219	26190.398438	8902.636719	30.504112
547.271667	1315.331421	25366.664063	8648.900391	30.491322
547.617371	1312.464233	24569.062500	8408.726563	30.512899
547.962952	1309.376709	23836.634766	8184.431641	30.518826
548.308533	1316.875244	23176.984375	7981.971191	30.489763
548.654053	1318.749878	22597.058594	7793.514648	30.428944
548.999573	1316.985596	22105.242188	7638.030273	30.406807
549.344971	1317.426514	21676.394531	7513.974121	30.436453
549.690430	1313.456787	21303.451172	7394.659180	30.421230
550.035767	1313.897827	20995.458984	7300.707520	30.418367
550.381104	1314.338867	20720.439453	7213.041016	30.396122
550.726440	1308.715088	20440.898438	7134.525391	30.450317
551.071655	1308.053345	20193.007813	7060.421875	30.460060
551.416931	1305.737671	19905.525391	6976.284180	30.487158
551.762085	1305.958130	19601.064453	6881.119629	30.473515
552.107178	1303.752686	19293.402344	6775.038086	30.413515
552.452332	1302.539795	18985.742188	6674.359375	30.378090
552.797424	1304.304077	18713.041016	6575.774414	30.280602
553.142395	1299.011108	18451.914063	6510.493164	30.382507
553.487366	1300.113770	18255.408203	6446.755859	30.354187
553.832336	1301.106323	18065.296875	6398.235840	30.404863
554.177185	1299.782959	17916.652344	6354.236816	30.417608
554.522095	1301.326782	17807.810547	6312.774414	30.360479
554.866943	1304.745361	17704.042969	6278.259766	30.327610
555.211731	1306.068604	17624.757813	6256.204590	30.334150
555.556396	1300.885742	17547.566406	6224.557129	30.305706
555.901123	1302.760376	17476.771484	6207.023926	30.321877
556.245789	1303.201538	17389.656250	6183.204590	30.336100
556.590454	1305.406860	17291.294922	6154.203125	30.331730
556.934998	1303.642700	17206.494141	6127.296875	30.332008
557.279541	1307.722656	17093.353516	6083.187500	30.251974
557.624023	1306.620117	16953.750000	6048.341309	30.304096
557.968567	1311.361694	16822.525391	6005.996582	30.266167
558.312988	1313.567017	16687.994141	5965.085449	30.254908
558.657349	1316.213745	16581.359375	5920.094727	30.159430
559.001770	1315.000732	16496.228516	5894.400879	30.164888
559.346069	1317.757568	16420.470703	5877.418457	30.191008
559.690308	1318.970459	16366.767578	5863.524414	30.200790
560.034485	1318.529541	16310.417969	5849.188477	30.220737
560.378723	1321.727173	16279.982422	5831.324219	30.147882
560.722900	1318.970459	16237.306641	5825.259766	30.206379
561.067017	1315.662354	16214.701172	5814.893555	30.198132
561.411072	1315.110962	16186.361328	5797.691406	30.142595
561.755127	1317.206055	16158.242188	5786.222656	30.112564
562.099182	1316.213745	16149.860352	5786.553711	30.136486
562.443115	1316.103394	16154.382813	5781.149902	30.091402
562.787048	1318.198486	16166.845703	5782.804688	30.067429
563.130920	1317.536865	16204.117188	5792.397949	30.059700
563.474792	1314.559570	16275.242188	5812.909180	30.067810
563.818604	1309.817749	16366.658203	5837.610352	30.071331
564.162354	1314.890259	16455.423828	5871.684570	30.096657
564.506042	1312.133545	16567.021484	5912.926758	30.159468
564.849731	1311.582153	16664.722656	5942.479492	30.162542
565.193420	1309.376709	16735.189453	5969.606934	30.210600
565.537048	1304.304077	16789.001953	5987.471191	30.243837
565.880615	1304.965820	16818.666016	6002.247559	30.278280
566.224121	1303.201416	16827.597656	6008.533203	30.309275
566.567627	1303.642578	16828.146484	6006.989258	30.296276
566.911072	1306.509766	16823.736328	6011.620605	30.321854
567.254517	1305.848022	16856.265625	6026.617188	30.357828
567.597839	1307.612305	16881.408203	6028.822266	30.315088
567.941223	1305.847900	16914.271484	6036.210449	30.306471
568.284485	1305.186401	16938.753906	6045.914551	30.324032
568.627808	1306.289063	17000.615234	6074.364746	30.380888
568.970947	1304.855591	17070.197266	6097.522461	30.400019
569.314148	1310.589600	17146.837891	6119.355957	30.365568
569.657288	1314.449341	17232.078125	6142.182617	30.329475
570.000366	1315.772461	17313.900391	6174.162109	30.368488
570.343445	1316.213745	17378.958984	6189.600098	30.339685
570.686462	1319.301392	17399.359375	6200.958496	30.358456
571.029419	1319.521851	17410.937500	6198.201660	30.318523
571.372314	1314.559570	17389.546875	6183.094727	30.286402
571.715210	1314.780029	17336.173828	6159.937500	30.241796
572.058105	1315.441650	17284.566406	6142.845215	30.229605
572.400879	1318.308716	17266.921875	6125.643066	30.142649
572.743713	1316.985474	17250.712891	6126.634766	30.185337
573.086426	1315.882813	17256.779297	6117.923340	30.124031
573.429077	1315.993042	17280.599609	6123.657227	30.114517
573.771790	1313.456787	17288.978516	6130.383789	30.151922
574.114441	1308.825317	17280.158203	6119.577148	30.121168
574.457031	1309.376709	17246.634766	6110.535156	30.125372
574.799561	1306.399414	17192.378906	6103.367676	30.196239
575.142029	1312.684937	17144.080078	6080.871582	30.118549
575.484436	1316.103271	17057.294922	6054.516602	30.101997
575.826904	1311.471802	16940.076172	6015.369629	30.098003
576.169250	1314.890381	16794.847656	5974.790039	30.102793
576.511597	1309.266357	16627.013672	5915.573730	30.071705
576.853943	1303.863037	16422.126953	5851.504883	30.080448
577.196167	1302.980835	16207.315430	5788.428711	30.094921
577.538391	1300.885742	15981.145508	5722.375977	30.118610
577.880554	1295.923462	15774.605469	5648.493164	30.061920
578.222717	1297.798096	15546.340820	5582.770508	30.073059
578.564819	1298.459717	15335.276367	5521.678711	30.086727
578.906860	1297.798096	15149.357422	5467.204102	30.100626
579.248901	1294.489990	14957.482422	5402.694336	30.068113
579.590942	1292.505005	14756.014648	5346.234863	30.109013
579.932861	1296.474854	14573.073242	5273.124023	29.952318
580.274780	1295.813232	14376.127930	5221.075684	30.008930
580.616638	1297.577515	14177.304688	5153.148926	29.935192
580.958496	1300.665161	13971.095703	5095.807129	29.952747
581.300232	1301.988525	13802.267578	5045.853516	29.950251
581.641968	1302.760376	13638.404297	4987.298828	29.869041
581.983704	1300.885620	13495.599609	4940.322754	29.844381
582.325317	1296.915771	13360.736328	4898.418945	29.853754
582.666992	1296.474731	13243.408203	4854.199707	29.779400
583.008606	1298.018555	13132.584961	4821.558594	29.773293
583.350098	1295.482300	13037.419922	4789.579590	29.757416
583.691589	1294.710449	12956.919922	4777.780273	29.866295
584.033081	1295.813232	12896.602539	4761.349609	29.873281
584.374512	1293.276978	12835.179688	4736.538574	29.832705
584.715881	1293.607666	12787.429688	4712.939941	29.749306
585.057190	1291.512451	12741.335938	4693.973145	29.716272
585.398499	1289.086548	12694.800781	4689.342285	29.811863
585.739807	1291.071655	12657.087891	4676.550781	29.785976
586.081055	1291.622803	12628.416992	4666.736328	29.771322
586.422180	1291.622803	12602.281250	4666.846191	29.841087
586.763367	1289.637939	12593.017578	4656.700684	29.788105
587.104431	1289.196777	12593.017578	4657.142090	29.794752
587.445496	1290.189331	12597.098633	4658.575684	29.790512
587.786499	1287.211914	12592.797852	4670.925781	29.929575
588.127502	1283.021484	12621.468750	4669.602539	29.868120
588.468445	1284.234619	12627.754883	4677.321777	29.912117
588.809326	1284.124390	12634.040039	4686.475098	29.976879
589.150208	1287.322266	12639.332031	4691.878418	29.990780
589.491028	1290.740723	12626.099609	4689.452637	29.983274
589.831848	1290.299683	12624.998047	4685.262207	29.951944
590.172546	1291.291992	12613.971680	4681.623535	29.942837
590.513245	1289.307251	12605.810547	4675.999512	29.927023
590.853943	1289.307251	12610.994141	4665.302246	29.818836
591.194458	1290.189331	12623.235352	4663.979004	29.769485
591.535095	1288.645508	12624.227539	4663.869141	29.775476
591.875610	1289.527588	12644.406250	4673.572754	29.802565
592.216125	1291.622803	12648.376953	4686.474609	29.892801
592.556580	1291.071411	12667.343750	4685.702637	29.839575
592.897034	1287.763184	12700.867188	4693.091309	29.837004
593.237366	1287.652954	12718.510742	4696.399414	29.820568
593.577698	1288.535156	12771.110352	4711.947754	29.813980
593.918030	1289.307007	12819.409180	4735.877441	29.891932
594.258301	1292.284302	12873.332031	4753.852051	29.889936
594.598511	1292.063843	12952.838867	4778.332031	29.897394
594.938721	1294.379639	13037.417969	4796.637695	29.824123
595.278809	1299.231567	13118.026367	4816.596680	29.760777
595.618958	1298.790527	13172.391602	4825.528809	29.702347
595.958984	1299.011108	13228.298828	4831.262207	29.609905
596.299011	1302.098633	13252.007813	4838.209473	29.591110
596.638977	1299.011108	13278.141602	4841.958496	29.575996
596.978943	1297.908447	13289.832031	4846.369629	29.590425
597.318848	1300.665161	13285.533203	4840.745117	29.537914
597.658630	1300.113770	13271.526367	4844.604980	29.607962
597.998474	1298.128662	13238.885742	4839.532227	29.658117
598.338257	1297.356934	13184.189453	4833.798340	29.750916
598.677979	1298.680298	13151.439453	4820.234863	29.710844
599.017700	1297.026245	13096.192383	4806.119629	29.740181
599.357361	1300.444580	13052.415039	4792.446289	29.714180
599.696960	1305.737671	13013.156250	4773.369629	29.619097
600.036560	1307.171265	12965.298828	4757.159180	29.592983
600.376038	1303.973389	12926.591797	4749.661621	29.646402
600.715576	1303.422119	12884.029297	4738.523926	29.662535
601.055054	1302.870850	12840.801758	4729.150879	29.695793
601.394409	1301.878174	12806.395508	4718.895020	29.701523
601.733826	1303.752930	12760.414063	4704.118652	29.680250
602.073120	1301.878296	12756.113281	4701.251953	29.677874
602.412415	1297.577515	12743.873047	4712.719727	29.836220
602.751587	1296.915894	12771.220703	4721.541504	29.846039
603.090820	1298.459839	12801.544922	4739.405273	29.913239
603.429993	1293.166748	12848.080078	4747.234863	29.892635
603.769104	1292.063965	12883.807617	4764.327148	29.954622
604.108154	1293.828369	12909.392578	4776.457031	29.982431
604.447205	1296.144165	12946.553711	4790.791992	29.995924
604.786194	1298.349487	12976.877930	4789.799805	29.896320
605.125183	1302.319336	13007.534180	4792.005371	29.813087
605.464111	1300.665039	13028.486328	4793.770020	29.784773
605.802979	1299.562378	13050.870117	4800.386719	29.790934
606.141846	1300.113770	13074.911133	4810.641602	29.813913
606.480652	1297.908325	13114.829102	4815.604004	29.768295
606.819336	1295.702881	13167.648438	4835.563477	29.817022
607.158020	1295.261719	13228.960938	4860.154297	29.872486
607.496765	1300.003296	13292.807617	4877.577148	29.831001
607.835388	1301.216431	13331.182617	4880.665039	29.754438
608.173950	1305.076050	13348.386719	4879.011230	29.675686
608.512512	1303.201416	13325.559570	4877.246094	29.728315
608.851013	1301.216431	13280.789063	4865.667969	29.754416
609.189514	1304.965820	13184.080078	4829.498535	29.669996
609.527893	1305.186279	13073.698242	4785.058105	29.569345
609.866333	1304.414673	12945.449219	4745.029297	29.555920
610.204712	1303.091309	12806.505859	4699.266602	29.523195
610.542969	1304.304321	12678.920898	4659.017090	29.492977
610.881226	1305.627563	12564.238281	4618.767578	29.427612
611.219482	1303.532349	12470.395508	4599.359375	29.514351
611.557678	1301.547363	12383.722656	4573.225098	29.521980
611.895813	1299.011108	12310.279297	4557.896484	29.595911
612.233948	1298.018555	12237.611328	4537.496094	29.612413
612.571960	1302.098633	12167.256836	4514.669434	29.567640
612.910034	1306.619873	12098.998047	4503.091309	29.617861
613.247986	1306.730103	12027.210938	4478.389648	29.585051
613.585938	1308.935547	11942.411133	4455.894531	29.594830
613.923828	1305.737671	11822.654297	4420.497070	29.616657
614.261658	1308.715088	11693.414063	4381.901855	29.593412
614.599487	1306.730103	11548.295898	4342.203613	29.638765
614.937317	1307.943115	11424.239258	4304.049316	29.616632
615.275024	1307.612305	11309.556641	4259.389160	29.512030
615.612732	1306.399414	11213.178711	4220.572754	29.415951
615.950378	1305.627441	11119.227539	4191.350586	29.405348
616.288025	1302.429443	11032.443359	4171.832031	29.490221
616.625549	1303.421997	10971.901367	4149.446777	29.436117
616.963074	1304.414307	10919.523438	4137.979004	29.469917
617.300537	1305.517212	10871.445313	4121.217773	29.434685
617.638000	1305.296631	10823.035156	4107.212891	29.438887
617.975464	1309.266357	10790.614258	4099.272949	29.426266
618.312744	1310.369141	10753.563477	4082.070801	29.351315
618.650024	1309.486938	10720.259766	4070.602295	29.339943
618.987305	1308.274048	10683.428711	4058.582275	29.336138
619.324585	1305.958374	10658.507813	4053.840820	29.381104
619.661743	1302.429565	10644.723633	4044.577637	29.351976
619.998901	1299.783081	10616.824219	4025.280518	29.252823
620.336060	1298.018799	10589.255859	4019.436279	29.290152
620.673096	1295.151611	10567.752930	4009.953125	29.277668
621.010193	1298.459717	10548.125000	4002.895508	29.238203
621.347168	1296.254272	10527.833984	3988.891113	29.167669
621.684082	1297.908447	10493.208984	3975.547363	29.119644
622.020996	1297.356934	10457.591797	3973.783203	29.217880
622.357849	1298.128906	10433.993164	3974.444580	29.294609
622.694641	1299.562500	10412.929688	3972.129150	29.325787
623.031433	1303.863037	10391.095703	3964.961426	29.283926
623.368164	1305.296631	10386.905273	3959.888672	29.230417
623.704895	1306.619873	10376.759766	3963.086670	29.288048
624.041504	1307.832886	10383.927734	3964.189453	29.267614
624.378174	1305.737671	10402.343750	3972.018555	29.310719
624.714783	1311.692505	10445.901367	3980.399170	29.216614
625.051331	1308.715210	10478.101563	3992.198730	29.265680
625.387756	1309.156250	10514.711914	3995.837158	29.185429
625.724304	1309.486938	10534.119141	4003.446777	29.203983
626.060669	1310.589600	10552.314453	4008.408936	29.191730
626.397034	1310.369141	10560.364258	4010.173096	29.187086
626.733337	1310.369141	10564.333984	4012.488770	29.199589
627.069641	1307.502075	10570.950195	4017.892090	29.258976
627.405884	1309.486938	10560.474609	4010.614258	29.198261
627.742126	1308.935669	10550.439453	4002.674805	29.148277
628.078308	1308.053467	10538.639648	3996.389160	29.124214
628.414429	1304.524780	10513.057617	3992.970703	29.195158
628.750488	1304.414551	10493.319336	3987.236572	29.196321
629.086548	1301.767944	10460.126953	3973.673096	29.174498
629.422546	1299.121338	10419.546875	3959.006592	29.164047
629.758545	1297.798096	10365.293945	3941.473145	29.155514
630.094421	1294.710571	10318.648438	3924.601563	29.143499
630.430298	1293.497437	10264.283203	3902.215820	29.080153
630.766113	1293.276855	10200.986328	3882.808350	29.070679
631.101929	1292.615479	10124.567383	3855.901855	29.022875
631.437622	1293.166626	10043.185547	3834.287842	29.041323
631.773376	1288.865967	9950.115234	3808.814697	29.094519
632.109070	1292.725586	9856.714844	3779.482422	29.037365
632.444641	1292.946167	9763.423828	3761.066895	29.137917
632.780273	1293.387329	9687.446289	3736.145752	29.101040
633.115784	1294.489990	9618.195313	3716.297363	29.095304
633.451294	1297.246826	9549.165039	3688.838867	28.982256
633.786682	1299.121338	9481.458008	3670.423340	28.980743
634.122131	1302.650146	9403.604492	3651.345947	28.992830
634.457458	1301.106323	9351.556641	3638.774658	29.037735
634.792847	1303.311768	9290.575195	3617.492188	28.973383
635.128113	1303.201538	9227.279297	3602.605713	29.017942
635.463318	1304.414429	9176.002930	3584.300293	28.963478
635.798584	1300.775513	9127.813477	3570.626465	29.000128
636.133728	1301.657715	9074.221680	3555.849609	29.001909
636.468872	1304.965820	9012.358398	3538.647217	28.981026
636.803955	1305.737793	8963.067383	3519.680420	28.912725
637.139038	1303.201416	8913.554688	3501.375488	28.883995
637.473999	1305.406860	8849.266602	3484.834717	28.890087
637.808899	1305.958374	8783.101563	3460.905029	28.820457
638.143799	1307.391846	8715.173828	3443.371582	28.834267
638.478638	1309.156128	8654.302734	3425.948730	28.818928
638.813538	1309.156006	8589.573242	3410.841553	28.867653
639.148315	1305.516968	8517.233398	3391.323242	28.922466
639.483032	1306.509521	8454.048828	3361.880127	28.756340
639.817749	1303.421875	8386.782227	3339.164551	28.739786
640.152405	1302.098633	8323.044922	3314.242920	28.659161
640.487000	1301.547363	8252.250000	3308.287842	28.871044
640.821594	1301.326782	8187.410156	3290.203613	28.882555
641.156128	1299.121338	8138.338379	3272.008301	28.846680
641.490662	1297.687744	8078.791504	3249.402588	28.781670
641.825134	1298.569946	8018.140625	3237.272217	28.851580
642.159546	1298.459717	7977.560059	3225.694092	28.854698
642.493896	1302.760376	7925.291016	3210.806885	28.811441
642.828186	1301.216553	7883.938477	3194.927490	28.767902
643.162537	1299.562622	7849.974609	3176.622314	28.655598
643.496765	1293.718140	7814.246094	3170.667480	28.785236
643.830994	1292.505005	7780.061523	3164.272217	28.851650
644.165100	1293.387329	7751.059570	3154.568115	28.821234
644.499268	1292.615479	7734.409180	3152.472412	28.871723
644.833313	1291.071655	7720.955566	3151.149170	28.928633
645.167358	1288.535278	7705.075684	3146.848633	28.961296
645.501343	1287.652954	7682.139648	3133.174805	28.861141
645.835327	1287.873535	7662.069824	3122.919678	28.788668
646.169189	1289.638062	7648.727539	3115.311035	28.709661
646.503052	1289.417358	7636.818359	3114.979980	28.760790
646.836914	1293.387207	7626.342285	3119.170410	28.829878
647.170654	1295.041260	7611.676270	3118.729248	28.871195
647.504395	1296.584961	7607.376465	3105.827393	28.669025
647.838074	1296.695435	7601.641602	3108.253418	28.732330
648.171753	1299.562500	7598.995605	3104.394043	28.650698
648.505371	1300.665283	7600.097656	3111.230957	28.741726
648.838928	1301.988525	7603.184570	3113.436523	28.747684
649.172424	1304.635010	7610.131836	3112.223389	28.666866
649.505920	1302.870728	7606.382324	3113.436279	28.723125
649.839294	1308.274048	7598.001465	3109.576904	28.638805
650.172729	1310.920532	7596.127441	3112.664551	28.666422
650.506104	1314.890381	7600.207520	3108.805176	28.541355
650.839355	1317.536987	7584.989746	3109.466553	28.591034
651.172668	1318.308838	7565.913086	3106.489258	28.621857
651.505859	1316.875244	7542.977051	3102.188721	28.674660
651.839111	1319.080688	7527.979980	3094.910400	28.601360
652.172241	1321.175903	7515.959961	3084.765381	28.468941
652.505371	1319.521729	7502.616211	3085.206543	28.556652
652.838379	1320.845093	7475.930176	3083.993408	28.645393
653.171387	1319.632202	7461.924805	3085.868164	28.755322
653.504333	1318.088379	7438.988281	3082.670166	28.828796
653.837280	1318.970459	7418.918945	3070.099121	28.707272
654.170227	1319.080811	7399.731934	3061.938721	28.662355
654.503052	1315.662354	7379.772461	3061.056641	28.782364
654.835876	1315.441895	7365.657715	3049.919189	28.668024
655.168579	1312.243896	7348.234375	3047.713623	28.752029
655.501343	1312.574707	7332.906250	3038.340332	28.665625
655.833984	1310.920532	7323.863770	3037.127441	28.708185
656.166626	1312.464233	7319.673340	3034.701416	28.669506
656.499268	1313.456787	7342.720215	3042.199951	28.672543
656.831787	1312.684937	7376.904785	3058.079346	28.781847
657.164307	1311.912964	7422.889160	3071.532715	28.794415
657.496765	1311.140991	7469.424316	3085.206543	28.807795
657.829224	1311.361572	7518.275391	3096.013428	28.752644
658.161621	1315.110718	7566.463379	3110.789795	28.724649
658.493958	1317.095703	7605.831055	3122.368652	28.706455
658.826233	1310.920410	7635.494629	3129.867188	28.759989
659.158508	1310.479370	7661.739746	3138.358154	28.779781
659.490723	1311.140991	7680.155273	3138.358154	28.689167
659.822876	1310.479492	7699.012695	3136.483154	28.582518
660.154968	1306.399414	7700.555664	3127.661377	28.483225
660.487061	1307.943115	7699.343750	3129.205322	28.495512
660.819153	1303.642700	7693.719727	3129.756592	28.577337
661.151123	1305.406982	7679.934570	3126.779297	28.572664
661.483093	1308.935791	7668.576660	3121.155029	28.495623
661.815002	1310.479614	7652.807129	3118.288086	28.503864
662.146851	1312.354126	7623.915039	3113.436279	28.536240
662.478760	1314.008057	7595.354980	3108.584229	28.569927
662.810486	1311.802612	7558.523926	3094.690186	28.541174
663.142212	1309.597168	7505.482910	3083.001221	28.622284
663.473938	1306.730103	7453.654785	3064.364990	28.593727
663.805603	1306.840332	7388.263184	3034.150146	28.403053
664.137207	1307.060913	7295.854980	3010.221191	28.439119
664.468689	1306.730103	7208.187500	2992.026123	28.557285
664.800293	1304.965820	7131.107910	2967.986572	28.544115
665.131775	1304.083496	7048.623535	2943.065186	28.531122
665.463196	1302.539795	6980.255859	2922.113281	28.525089
665.794617	1304.965820	6923.795410	2904.690186	28.470776
666.125916	1309.156250	6865.902344	2895.206787	28.542793
666.457275	1308.715210	6822.564941	2886.274658	28.610853
666.788574	1305.627563	6776.801270	2874.034180	28.666729
667.119812	1306.730225	6747.910645	2869.292480	28.717339
667.450928	1307.612305	6727.731445	2860.139648	28.643785
667.782104	1311.582153	6713.063965	2851.648926	28.511930
668.113159	1308.384155	6691.230469	2848.340576	28.608591
668.444214	1304.414307	6669.286621	2842.055176	28.661278
668.775208	1303.311523	6650.980469	2837.644043	28.691614
669.106201	1304.414307	6636.645996	2830.476318	28.619576
669.437134	1303.311646	6629.367676	2822.537109	28.524399
669.768005	1302.870605	6622.200195	2815.589844	28.438156
670.098877	1300.444702	6610.951660	2809.966064	28.425184
670.429688	1303.201416	6591.874023	2802.026367	28.340284
670.760437	1299.893311	6567.504395	2804.783203	28.568735
671.091187	1298.349487	6559.564941	2799.600342	28.534298
671.421814	1296.033813	6542.692871	2789.344971	28.462133
671.752441	1295.261963	6521.189941	2785.816895	28.522303
672.083008	1292.946167	6507.185059	2784.493408	28.605272
672.413574	1293.607788	6493.731934	2776.884521	28.523872
672.744080	1296.033813	6466.936035	2770.157715	28.508059
673.074524	1293.828369	6440.581055	2758.689453	28.461849
673.404968	1297.467407	6416.541504	2752.403809	28.421865
673.735352	1301.437256	6396.582520	2746.779541	28.367046
674.065613	1303.752930	6375.410156	2737.737305	28.274473
674.395935	1302.429688	6351.700684	2727.261230	28.218559
674.726196	1301.657837	6320.494141	2721.527344	28.290812
675.056335	1304.414551	6304.504395	2711.161621	28.134436
675.386536	1304.745361	6292.815430	2706.199463	28.096117
675.716614	1306.840454	6281.346680	2700.796143	28.021990
676.046692	1308.274048	6279.913086	2700.244873	27.998228
676.376770	1310.259033	6268.334961	2699.473145	28.019217
676.706726	1312.023315	6257.638184	2704.214600	28.150015
677.036621	1310.038452	6262.820801	2700.245117	28.069206
677.366516	1310.258911	6260.616211	2707.412842	28.223293
677.696411	1314.338989	6274.068359	2710.279541	28.145498
678.026184	1313.787720	6291.381836	2715.131592	28.153036
678.355957	1312.464355	6305.166016	2718.990967	28.171654
678.685669	1312.464355	6330.639160	2718.329590	28.015469
679.015320	1309.817749	6346.187500	2718.550049	27.971186
679.344971	1306.730103	6362.838379	2725.497314	28.060459
679.674561	1305.406860	6371.991211	2732.333984	28.163492
680.004150	1301.547241	6394.928711	2738.840332	28.218840
680.333618	1299.231689	6410.145996	2736.744873	28.126343
680.663086	1299.672729	6424.701660	2742.589600	28.154318
680.992493	1298.680298	6430.987305	2743.471924	28.150919
681.321899	1298.569824	6429.002930	2743.471924	28.163355
681.651184	1298.128784	6429.994629	2738.399170	28.065239
681.980530	1296.585083	6419.849609	2735.421875	28.084373
682.309753	1295.372070	6412.682129	2732.554932	28.084732
682.638977	1290.850952	6387.650391	2731.782959	28.271311
682.968079	1288.314697	6361.735840	2724.173828	28.301598
683.297241	1288.976318	6340.563965	2718.329590	28.295128
683.626343	1288.865845	6318.619629	2708.073975	28.216253
683.955383	1293.056396	6279.803711	2705.537842	28.324705
684.284363	1294.048950	6252.235352	2692.194824	28.198734
684.613281	1292.284546	6209.890137	2675.433350	28.126469
684.942139	1296.144043	6166.111816	2666.391113	28.136677
685.271057	1299.231567	6128.619629	2655.363770	28.080828
685.599792	1301.657593	6088.370117	2645.108643	28.066257
685.928589	1305.737671	6056.721191	2635.294189	27.984869
686.257324	1310.810181	6019.118164	2621.510254	27.838026
686.585999	1310.699951	5994.527344	2607.725830	27.691584
686.914612	1310.810303	5948.323242	2590.192627	27.587683
687.243164	1310.369141	5912.043457	2583.355957	27.663557
687.571777	1307.281494	5879.072754	2570.454102	27.629709
687.900269	1308.825317	5843.344727	2562.073242	27.637943
688.228699	1309.707520	5811.365234	2551.376953	27.582493
688.557129	1305.186401	5783.466309	2546.855713	27.726479
688.885498	1306.950806	5757.552246	2543.988770	27.794849
689.213867	1310.920532	5727.668457	2534.725586	27.708282
689.542114	1311.140991	5706.827148	2518.625977	27.469772
689.870361	1310.369141	5686.095703	2504.841797	27.297699
690.198608	1305.737671	5651.470215	2495.579102	27.379538
690.526794	1305.296631	5620.042969	2485.103027	27.343588
690.854858	1302.870605	5598.098633	2471.649658	27.211105
691.182922	1300.775513	5560.605957	2460.622559	27.227539
691.510986	1300.224121	5533.919922	2450.256836	27.163801
691.838928	1297.908447	5499.404785	2434.487793	27.051777
692.166931	1297.687866	5463.015137	2420.262695	26.950460
692.494812	1296.695557	5415.708496	2412.764160	27.095537
692.822632	1295.702881	5372.591309	2403.390869	27.169937
693.150452	1293.056396	5328.923828	2391.040283	27.205648
693.478149	1296.144043	5291.430664	2380.564453	27.142494
693.805908	1294.379639	5266.067871	2375.271240	27.214916
694.133606	1294.710449	5228.244141	2372.845459	27.408815
694.461243	1296.585083	5198.580078	2367.000977	27.432528
694.788818	1295.261841	5180.605957	2362.369385	27.464943
695.116333	1293.938477	5170.019531	2363.141602	27.584642
695.443848	1295.261719	5164.505371	2364.134277	27.624846
695.771301	1292.284302	5178.620605	2368.324463	27.687777
696.098755	1289.748047	5203.322266	2381.777832	27.903643
696.426147	1293.166626	5236.514160	2399.862549	28.064884
696.753418	1293.717896	5275.661133	2420.152832	28.288572
697.080688	1297.687744	5332.451660	2437.686035	28.254398
697.407898	1298.569946	5386.485352	2457.204102	28.342909
697.735107	1301.768066	5424.308594	2473.193604	28.415136
698.062317	1303.201660	5465.219727	2488.080322	28.468849
698.389404	1306.289307	5499.735352	2502.195313	28.518454
698.716492	1305.407104	5531.273438	2505.503418	28.398825
699.043457	1303.863281	5551.122559	2510.134766	28.401175
699.370483	1305.406982	5568.545410	2508.921875	28.230724
699.697388	1309.597412	5572.294434	2507.047363	28.091368
700.024292	1313.677490	5568.766113	2503.628906	27.965372
700.351135	1314.008423	5560.936523	2499.218018	27.907455
700.677917	1318.860352	5549.137695	2497.453613	27.860899
701.004639	1319.191162	5533.699219	2484.220947	27.643318
701.331299	1319.963013	5514.731934	2474.296387	27.518402
701.658020	1321.286133	5491.244629	2466.356689	27.459999
701.984619	1319.963013	5453.972168	2457.534912	27.517401
702.311218	1319.742432	5411.186523	2442.207031	27.434435
702.637756	1319.191040	5359.027344	2423.460693	27.334515
702.964233	1319.411621	5287.901855	2397.656738	27.170158
703.290649	1316.213867	5216.665527	2373.727783	27.112602
703.617065	1319.080933	5132.086914	2345.828613	26.927513
703.943481	1320.624756	5047.287109	2318.150391	26.767265
704.269775	1320.735107	4959.289551	2290.471924	26.651705
704.596008	1319.522095	4881.105957	2263.455078	26.503180
704.922241	1317.095947	4814.500977	2242.503418	26.459831
705.248474	1316.323975	4747.565430	2221.772217	26.388357
705.574585	1315.882935	4687.687500	2210.303711	26.526470
705.900696	1316.103271	4637.072266	2197.842773	26.550669
706.226746	1314.559570	4597.925781	2189.351807	26.643152
706.552734	1311.692505	4570.799316	2183.066162	26.736578
706.878723	1306.068604	4551.612305	2185.492188	27.096340
707.204651	1302.649902	4529.888672	2186.705322	27.393555
707.530518	1301.547363	4516.986328	2179.868408	27.315742
707.856323	1302.098633	4510.700684	2179.427734	27.343033
708.182068	1301.988403	4514.008789	2182.184570	27.403193
708.507813	1299.341797	4509.597656	2178.876221	27.397642
708.833496	1301.106201	4522.278809	2177.332520	27.202091
709.159180	1301.878052	4538.268066	2183.397217	27.237728
709.484802	1303.091187	4550.949219	2191.116455	27.341875
709.810303	1303.752563	4569.696289	2195.637451	27.308641
710.135864	1306.178711	4579.620117	2197.071045	27.215771
710.461304	1306.288818	4591.309570	2199.497070	27.190338
710.786743	1305.627319	4600.352051	2197.732666	27.076780
711.112122	1305.847900	4608.181152	2198.614990	27.034433
711.437500	1305.406860	4615.128418	2205.121094	27.183985
711.762817	1308.825195	4614.136230	2201.592285	27.010078
712.088013	1307.171143	4618.546875	2201.702637	27.013893
712.413269	1309.266357	4613.364258	2201.041016	26.989958
712.738403	1312.133423	4616.562012	2204.679688	27.010607
713.063538	1313.125977	4610.276855	2204.348877	27.030092
713.388611	1312.243652	4604.983398	2201.923096	27.019428
713.713623	1309.817749	4597.154297	2194.203857	26.902817
714.038574	1312.243652	4596.713379	2193.432129	26.828941
714.363525	1310.258789	4590.096680	2188.028564	26.762596
714.688477	1305.847900	4579.951660	2182.735596	26.782526
715.013306	1306.730103	4555.581543	2175.788330	26.749706
715.338135	1307.391724	4534.299316	2170.936279	26.760746
715.662842	1306.068604	4507.282227	2168.510498	26.941092
715.987549	1306.950684	4475.633789	2155.828857	26.789619
716.312195	1308.274048	4442.441406	2142.265381	26.609661
716.636841	1303.863037	4403.735840	2131.458740	26.697731
716.961426	1300.003540	4372.087891	2121.093018	26.727438
717.285950	1297.687744	4341.210938	2115.138428	26.858698
717.610474	1293.497437	4300.630371	2105.985596	27.018700
717.934937	1293.056396	4265.012695	2096.281982	27.026831
718.259277	1292.615234	4230.827637	2080.843750	26.826805
718.583679	1291.291992	4202.046875	2077.315186	27.004101
718.908020	1288.535156	4169.406738	2070.588623	27.146420
719.232239	1286.881104	4142.720703	2062.538574	27.160400
719.556519	1287.542725	4115.262695	2052.724365	27.060022
719.880737	1287.322144	4084.717285	2042.909912	27.010406
720.204834	1284.344727	4055.274902	2032.544067	27.001740
720.528931	1288.755615	4025.060303	2022.068237	26.799377
720.852966	1286.440063	3988.890625	2008.394287	26.714798
721.176941	1288.424805	3950.295410	2001.226807	26.778236
721.500916	1289.307129	3919.970703	1995.602905	26.848579
721.824829	1284.675537	3898.798096	1989.317383	26.955196
722.148743	1284.785767	3867.370117	1977.628540	26.827497
722.472534	1288.535034	3844.874268	1965.608765	26.486067
722.796326	1289.417236	3823.701660	1954.802124	26.255337
723.119995	1288.424805	3799.882813	1947.303589	26.234911
723.443665	1293.056396	3787.201172	1944.436401	26.116367
723.767334	1294.820801	3769.006348	1938.702148	26.023972
724.090942	1294.600220	3758.751221	1936.496826	26.049404
724.414551	1299.231689	3752.686035	1932.416870	25.807905
724.737976	1300.223999	3747.503418	1933.519531	25.877535
725.061462	1302.539795	3747.393555	1933.739990	25.817503
725.384888	1302.870728	3747.834717	1931.424316	25.708094
725.708252	1303.311768	3747.503662	1929.770142	25.630491
726.031616	1303.863159	3752.465820	1929.218994	25.539295
726.354858	1302.981079	3753.017090	1928.777954	25.542353
726.678162	1301.878296	3762.721436	1932.416992	25.622871
727.001404	1305.517334	3766.580811	1935.504639	25.598173
727.324463	1307.281860	3771.102051	1939.364258	25.654566
727.647583	1309.928345	3778.269775	1941.018433	25.567375
727.970642	1306.179077	3790.069092	1945.098389	25.722527
728.293701	1308.715210	3792.384766	1944.988037	25.618258
728.616699	1309.707642	3797.126221	1944.987915	25.539743
728.939575	1309.928223	3815.431152	1953.589233	25.689892
729.262512	1305.958252	3825.686768	1960.315674	25.969362
729.585266	1305.627441	3834.950195	1970.019775	26.267597
729.908142	1304.193848	3854.909180	1975.753906	26.328302
730.230896	1302.098633	3868.252197	1981.157227	26.462118
730.553467	1304.193848	3887.329346	1983.803711	26.309494
730.876160	1301.106201	3901.333740	1980.054443	26.111109
731.198792	1296.695313	3912.360840	1987.332642	26.403885
731.521362	1294.159058	3927.357910	1987.442749	26.328575
731.843872	1293.056152	3925.152832	1989.207275	26.448540
732.166321	1289.968506	3925.152832	1990.530518	26.584934
732.488770	1291.732910	3926.476074	1986.229858	26.359190
732.811157	1289.196655	3919.639404	1986.009521	26.490326
733.133484	1288.755615	3912.250732	1986.560669	26.598299
733.455811	1290.299438	3894.386475	1980.826416	26.517048
733.778015	1290.961182	3877.845947	1975.312744	26.454660
734.100281	1289.527710	3869.685547	1972.225098	26.459522
734.422424	1286.660522	3857.666016	1973.768921	26.725281
734.744507	1290.189331	3842.668945	1969.688843	26.621155
735.066589	1288.645508	3832.192627	1968.696289	26.736315
735.388611	1291.512695	3820.062988	1963.182617	26.563438
735.710571	1290.630493	3804.293945	1956.456299	26.488262
736.032532	1292.505005	3794.038574	1945.759888	26.114176
736.354431	1292.284424	3781.467529	1941.459229	26.079834
736.676270	1293.276733	3765.367920	1939.584595	26.144175
736.998108	1298.900879	3751.914551	1930.652588	25.754105
737.319824	1297.687866	3736.807373	1928.998535	25.882727
737.641541	1301.547485	3717.729980	1925.800781	25.836346
737.963135	1302.209106	3696.888672	1918.632813	25.741385
738.284790	1303.311890	3671.305176	1912.567749	25.728785
738.606323	1303.532227	3660.498047	1909.259644	25.699457
738.927856	1305.517334	3650.022217	1905.510376	25.591461
739.249390	1307.391968	3639.436279	1903.966553	25.581614
739.570740	1311.913086	3628.740234	1901.319946	25.440260
739.892212	1310.810303	3617.933350	1894.152100	25.284382
740.213562	1308.604858	3610.214355	1895.806152	25.512640
740.534790	1310.479614	3603.818359	1896.578125	25.556559
740.856079	1306.730347	3588.931641	1888.859131	25.507339
741.177246	1304.304443	3578.455322	1886.212769	25.587938
741.498413	1306.399536	3569.964600	1885.110107	25.566334
741.819580	1307.943237	3562.245605	1876.839478	25.236023
742.140625	1309.707642	3551.989990	1875.185425	25.218849
742.461670	1307.722534	3536.992920	1872.759277	25.346262
742.782654	1306.950562	3515.489990	1873.090210	25.634119
743.103577	1309.155884	3498.728760	1866.804688	25.468384
743.424438	1309.707275	3477.335938	1858.093140	25.298883
743.745300	1305.847900	3448.003418	1850.925171	25.445271
744.066101	1304.745117	3421.758545	1842.985718	25.424524
744.386902	1303.421875	3399.924561	1840.780273	25.631182
744.707581	1302.649902	3381.399170	1834.053711	25.563631
745.028198	1302.429443	3367.504395	1830.635254	25.578045
745.348816	1299.562378	3355.815430	1827.657715	25.682411
745.669373	1297.357056	3337.620605	1820.600464	25.645874
745.989929	1295.261963	3316.558350	1818.725830	25.897432
746.310364	1293.497437	3301.892090	1808.911499	25.662987
746.630798	1294.159180	3289.431641	1803.287598	25.516737
746.951172	1290.409912	3286.343750	1797.222656	25.392262
747.271545	1286.109375	3276.529297	1794.576050	25.545698
747.591858	1290.299683	3275.537109	1796.450684	25.495741
747.912109	1295.261841	3266.936035	1789.503540	25.067108
748.232300	1291.512695	3258.555176	1787.849487	25.232643
748.552429	1294.159180	3245.542725	1791.268066	25.474689
748.872559	1289.637817	3235.066895	1788.401001	25.637695
749.192627	1293.387329	3235.287598	1787.408325	25.440081
749.512695	1293.166626	3236.941162	1784.431030	25.273733
749.832642	1293.938477	3234.956543	1781.122803	25.099422
750.152588	1295.592651	3234.625732	1776.160522	24.783892
750.472473	1295.592651	3243.116455	1775.278320	24.630543
750.792358	1297.246704	3246.204346	1772.521606	24.386106
751.112122	1298.570068	3241.242188	1768.000366	24.164154
751.431824	1300.775391	3249.181641	1771.198486	24.143995
751.751587	1300.334351	3246.093750	1769.654419	24.120150
752.071228	1299.452148	3243.447510	1765.795044	23.988890
752.390869	1300.665161	3240.911133	1764.030640	23.881790
752.710327	1303.752808	3238.595215	1761.935303	23.680611
753.029846	1303.201416	3238.595215	1762.707275	23.742241
753.349304	1304.524780	3236.610596	1762.817383	23.720095
753.668762	1305.186279	3230.545654	1760.170776	23.631147
753.988098	1304.965820	3223.157471	1758.406616	23.638973
754.307434	1304.193848	3213.674072	1757.303955	23.729500
754.626770	1303.862915	3210.917480	1759.068481	23.869562
754.946045	1302.760376	3209.262939	1754.436890	23.691366
755.265259	1299.011108	3208.050293	1749.915771	23.619455
755.584351	1300.885742	3207.277832	1750.467285	23.582848
755.903442	1299.562500	3202.756592	1748.923340	23.610878
756.222534	1298.459839	3192.391357	1748.592651	23.767111
756.541565	1296.033813	3191.288330	1749.915771	23.948338
756.860535	1295.813354	3191.178223	1749.584839	23.941114
757.179443	1294.820923	3185.995605	1751.128662	24.128271
757.498291	1297.467529	3183.789795	1751.459595	24.067577
757.817139	1300.665405	3188.752197	1753.775269	23.998360
758.135925	1302.540039	3184.892822	1752.121338	23.884008
758.454651	1301.657837	3183.569092	1754.326660	24.053675
758.773376	1305.958374	3179.820313	1756.201294	24.027540
759.092041	1306.178955	3185.002930	1758.627197	24.081459
759.410645	1302.540039	3189.193359	1761.384155	24.320532
759.729187	1301.547485	3180.482178	1764.140869	24.619982
760.047607	1301.768188	3185.223633	1770.426392	24.882893
760.366089	1305.406982	3187.319092	1773.182983	24.856421
760.684509	1305.186523	3201.543945	1773.072754	24.672894
761.002869	1305.627563	3227.237305	1779.799438	24.675764
761.321228	1304.193970	3265.833008	1787.077393	24.616323
761.639465	1306.840576	3313.470703	1798.986938	24.526012
761.957642	1306.730225	3365.739990	1812.109375	24.544767
762.275879	1304.965820	3409.297607	1829.863281	24.943665
762.593994	1303.752930	3447.561768	1842.544678	25.132454
762.912109	1302.539673	3483.180176	1851.917725	25.193424
763.230103	1305.296387	3503.359863	1860.188232	25.244577
763.548157	1302.649780	3515.710449	1868.568970	25.571789
763.866150	1302.980713	3529.274170	1873.420898	25.622866
764.184021	1301.326660	3539.860596	1878.934570	25.802956
764.501892	1298.018555	3546.587158	1880.147461	25.888866
764.819702	1295.923340	3544.491699	1880.257813	25.986956
765.137451	1296.474731	3548.792725	1877.611084	25.801702
765.455200	1292.504883	3554.416748	1878.383057	25.901901
765.772888	1293.607666	3544.161377	1877.059692	25.924822
766.090515	1293.828247	3534.347168	1874.413330	25.912973
766.408081	1295.371948	3534.897949	1870.664063	25.688122
766.725586	1293.938477	3525.415283	1863.055298	25.504044
767.043091	1294.269287	3515.600342	1859.306030	25.436853
767.360535	1294.820679	3500.824463	1853.461670	25.323664
767.677917	1293.497437	3468.404053	1841.772827	25.209145
767.995239	1291.512573	3422.089355	1827.106812	25.138464
768.312500	1292.174194	3362.983643	1810.455566	25.027960
768.629822	1290.299561	3302.553467	1793.804321	25.021931
768.947021	1290.520142	3246.204346	1773.073120	24.674381
769.264160	1294.379639	3190.406738	1757.524536	24.427124
769.581299	1294.379639	3148.392822	1744.291870	24.266937
769.898376	1292.505005	3111.230713	1731.610474	24.143578
770.215393	1292.174072	3077.928467	1723.119385	24.132395
770.532349	1292.504883	3049.698975	1712.533325	23.903360
770.849304	1291.512451	3019.925293	1703.049683	23.810123
771.166199	1290.740601	2998.863281	1695.882080	23.718523
771.483032	1287.542725	2981.770752	1689.045166	23.698254
771.799866	1288.645508	2961.260010	1682.869995	23.569357
772.116577	1291.622803	2940.528564	1674.930420	23.246181
772.433350	1293.938599	2928.509033	1667.983032	22.883348
772.749939	1294.931030	2919.025391	1664.564697	22.759371
773.066589	1294.048828	2905.131348	1659.271729	22.669411
773.383057	1297.357178	2888.811035	1657.948242	22.657965
773.699646	1298.680420	2876.460205	1648.244385	22.155434
774.016113	1300.885864	2860.029785	1645.267090	22.087841
774.332520	1303.201660	2851.208008	1647.913452	22.268112
774.648804	1308.494751	2842.055176	1648.905884	22.197439
774.965149	1307.943359	2831.689697	1648.465088	22.347666
775.281433	1313.126099	2820.993164	1646.149170	22.085705
775.597656	1313.677490	2814.156494	1641.407593	21.841700
775.913879	1312.905640	2807.540283	1638.760986	21.801672
776.229980	1314.449463	2797.836426	1634.460205	21.572977
776.546082	1312.023315	2787.691162	1630.049316	21.551327
776.862122	1315.882935	2780.854248	1624.866577	21.091446
777.178162	1317.978149	2771.812012	1627.954224	21.321285
777.494141	1315.331421	2767.621582	1625.528320	21.359154
777.809998	1314.780151	2755.822266	1621.558350	21.288635
778.125854	1316.544556	2750.309082	1621.448120	21.265944
778.441711	1317.426758	2744.133789	1621.007080	21.278393
778.757446	1316.323975	2737.847900	1622.661255	21.549921
779.073181	1313.567017	2733.547363	1623.984619	21.860697
779.388855	1316.323853	2727.702637	1622.330322	21.681385
779.704468	1315.552124	2723.623047	1621.448242	21.724482
780.020020	1310.258911	2717.888672	1621.007080	22.075987
780.335571	1311.251343	2708.736328	1623.653687	22.354612
780.651062	1310.479492	2703.222168	1625.528320	22.620749
780.966553	1307.722656	2697.708740	1619.132446	22.403807
781.281860	1301.657471	2686.020020	1617.919312	22.845304
781.597290	1301.767944	2678.631592	1614.831787	22.737461
781.912476	1299.231812	2675.102783	1612.736450	22.785904
782.227722	1300.775635	2666.060547	1611.964844	22.792986
782.542908	1299.011108	2654.923096	1606.671509	22.690292
782.858093	1299.452148	2642.682373	1605.899536	22.814211
783.173218	1302.539917	2640.256836	1605.789307	22.669174
783.488281	1300.003662	2639.595215	1607.994751	22.991417
783.803345	1299.562622	2630.883789	1600.606567	22.612421
784.118225	1301.547485	2618.202148	1600.055054	22.671667
784.433167	1302.208862	2609.821533	1598.952393	22.693535
784.748047	1303.532227	2603.425537	1596.746826	22.556820
785.062866	1306.619995	2590.193115	1592.556519	22.276606
785.377686	1305.958374	2579.276123	1587.042969	22.074976
785.692444	1306.619995	2568.689697	1583.404053	21.930964
786.007141	1305.517334	2564.830078	1584.286255	22.136591
786.321716	1308.825439	2558.765137	1581.419312	21.808561
786.636353	1311.141113	2562.073242	1578.993164	21.412197
786.950928	1309.487061	2567.256104	1576.787720	21.251966
787.265442	1308.715088	2574.313721	1571.494751	20.763269
787.579834	1304.414551	2570.674561	1570.833008	21.039791
787.894226	1308.163696	2576.850098	1564.547485	20.208603
788.208618	1304.193970	2578.834961	1564.878296	20.451588
788.522949	1305.517212	2574.424072	1562.783081	20.274607
788.837219	1302.870605	2574.424072	1562.672974	20.431887
789.151367	1303.752808	2579.937500	1567.635254	20.677450
789.465515	1301.657593	2579.937744	1565.429932	20.634939
789.779602	1299.893188	2571.005615	1562.893555	20.690567
790.093689	1303.973267	2559.427002	1555.064087	20.000006
790.407776	1300.554688	2555.016113	1552.307251	20.068577
790.721741	1299.672607	2549.943848	1549.550537	19.985897
791.035645	1298.018555	2541.562988	1542.272461	19.641752
791.349548	1296.695190	2534.615967	1537.420410	19.445930
791.663391	1293.938477	2536.270020	1536.538330	19.527786
791.977173	1296.805664	2532.630859	1534.443115	19.229050
792.290894	1296.254150	2521.714111	1529.921875	19.067757
792.604614	1298.790771	2510.466064	1520.658936	18.310860
792.918274	1299.231812	2501.754639	1520.658936	18.413549
793.231812	1298.680542	2485.764893	1519.556152	18.606564
793.545410	1298.459839	2473.083496	1518.343140	18.719467
793.858948	1300.113892	2456.983398	1518.012329	18.835178
794.172363	1304.524780	2451.690186	1519.997192	18.783030
794.485840	1302.209106	2442.427490	1521.430664	19.226278
794.799194	1308.494629	2439.449951	1518.343140	18.554977
795.112488	1307.171265	2438.126953	1515.365723	18.408720
795.425781	1309.156128	2435.370117	1514.152710	18.202276
795.738953	1305.958374	2428.533203	1509.631592	18.143398
796.052185	1307.061035	2428.753906	1507.757080	17.892246
796.365234	1307.171265	2428.754150	1506.433838	17.766191
796.678284	1305.627441	2429.966797	1509.631714	18.144369
796.991333	1308.825317	2427.540771	1511.506226	18.117289
797.304382	1309.927979	2429.305176	1510.844604	17.948965
797.617310	1312.023193	2428.974121	1515.806885	18.244642
797.930115	1312.574463	2422.468262	1518.122559	18.519619
798.242981	1314.890259	2417.726318	1516.578857	18.288176
798.555786	1313.236084	2413.425781	1519.335693	18.733097
798.868530	1317.205933	2412.764160	1521.651367	18.661303
799.181213	1313.346436	2411.110352	1522.423340	19.045708
799.493896	1313.125854	2406.479004	1522.974854	19.193157
799.806519	1316.985474	2406.037842	1517.571411	18.418392
800.119080	1318.198608	2402.068115	1517.791992	18.414890
800.431580	1315.000610	2392.033203	1517.130249	18.767273
800.744080	1313.897949	2382.329346	1508.308350	18.195871
801.056458	1315.000732	2373.948486	1504.338623	17.879814
801.368835	1312.133667	2360.054199	1502.353760	18.152149
801.681152	1314.890381	2348.144531	1505.000244	18.399139
801.993408	1316.765015	2338.440430	1505.000244	18.424171
802.305664	1319.962891	2329.397949	1499.596802	17.795490
802.617798	1320.845093	2318.812012	1500.589233	18.011032
802.929993	1320.403809	2310.431396	1497.170898	17.854765
803.242065	1321.396240	2301.058105	1495.296265	17.751024
803.554016	1318.418945	2295.985596	1495.186035	18.082357
803.865967	1318.639404	2289.479492	1495.406616	18.207655
804.177979	1316.103271	2288.045898	1494.634766	18.368523
804.489807	1314.890381	2288.045654	1491.326416	18.130306
804.801697	1311.251343	2286.281494	1491.988037	18.536524
805.113464	1310.369263	2280.547363	1486.805298	18.185944
805.425232	1306.730225	2282.311523	1483.497070	18.119131
805.736938	1305.627563	2277.900879	1484.489502	18.396261
806.048584	1300.554932	2273.269287	1478.314331	18.274574
806.360168	1297.467285	2267.535400	1477.983398	18.608603
806.671753	1296.915771	2257.280029	1471.587646	18.188086
806.983276	1298.790527	2257.831299	1470.815674	17.937208
807.294739	1300.223999	2252.979248	1470.484863	17.870367
807.606140	1301.437012	2248.568359	1467.838501	17.568998
807.917542	1301.326782	2247.906738	1467.728027	17.579206
808.228760	1301.216431	2242.393311	1464.089233	17.305227
808.540100	1300.223999	2231.917236	1458.575562	16.996105
808.851318	1297.026123	2225.080322	1458.685913	17.419218
809.162476	1297.356934	2217.361328	1456.259888	17.271978
809.473633	1297.246704	2212.840088	1456.590698	17.403358
809.784668	1291.071411	2206.113525	1454.495483	17.859732
810.095703	1295.813110	2194.975830	1448.651001	16.997801
810.406738	1298.570068	2186.594971	1447.217651	16.739122
810.717590	1302.870605	2174.465332	1439.939697	15.726241
811.028503	1303.311890	2163.548096	1433.323242	15.113448
811.339294	1303.201416	2153.733887	1431.669189	15.104394
811.650085	1302.209106	2148.661377	1431.007568	15.216269
811.960876	1299.231812	2137.082764	1428.801880	15.464573
812.271545	1301.988525	2129.143311	1422.736938	14.598043
812.582153	1309.045898	2126.496582	1422.957520	13.934984
812.892761	1307.281616	2116.902832	1420.200684	13.947147
813.203308	1302.980957	2115.579590	1420.751953	14.493133
813.513855	1303.973511	2111.058594	1416.451416	13.936314
813.824280	1303.311768	2107.530029	1419.649292	14.465915
814.134705	1301.988525	2105.765869	1418.436157	14.487549
814.445068	1301.437012	2096.943604	1417.774536	14.624331
814.755371	1301.437012	2098.156738	1415.899902	14.366770
815.065613	1299.562378	2102.016113	1416.010254	14.511476
815.375854	1302.980835	2101.354492	1413.804932	13.881231
815.686035	1302.208984	2104.111328	1411.158447	13.586375
815.996155	1303.311646	2104.442139	1412.371338	13.613224
816.306152	1308.053467	2105.544922	1413.694580	13.246676
816.616211	1306.840454	2114.036133	1414.907593	13.387973
816.926208	1303.091187	2117.675049	1415.017822	13.740345
817.236145	1303.752930	2126.166016	1420.972534	14.253130
817.546021	1304.524780	2139.619141	1427.478760	14.723364
817.855774	1305.186401	2151.638916	1431.999756	14.981745
818.165588	1305.958252	2168.951660	1441.152344	15.665715
818.475281	1309.928101	2192.218750	1450.084473	15.885510
818.784973	1305.406860	2222.102783	1459.678223	16.829065
819.094604	1299.231689	2250.112061	1470.484985	18.009974
819.404175	1298.790405	2295.434082	1485.812866	18.765228
819.713684	1298.680298	2358.620117	1505.992798	19.558893
820.023254	1297.577515	2484.661865	1552.527832	21.477018
820.332642	1295.923340	2704.766113	1623.543335	23.254547
820.642090	1295.923584	2994.231445	1727.420044	25.407434
820.951416	1296.144043	3298.804688	1819.607910	26.138420
821.260681	1292.725586	3552.982910	1899.445313	26.842949
821.569946	1293.497559	3751.914551	1960.095215	27.114914
821.879150	1294.159180	3915.779785	2008.946045	27.265076
822.188293	1295.592773	4045.460449	2048.423828	27.376991
822.497437	1298.018799	4152.204102	2080.292480	27.407949
822.806458	1298.018799	4247.811035	2106.868408	27.420563
823.115479	1298.790649	4328.861328	2130.797607	27.458334
823.424438	1300.334473	4405.721191	2153.733887	27.481260
823.733337	1295.813232	4468.245605	2171.377686	27.599154
824.042236	1296.144043	4520.073730	2187.146729	27.637163
824.351013	1295.372192	4567.932129	2199.056152	27.613976
824.659790	1297.467407	4607.079102	2209.973145	27.571383
824.968445	1297.908447	4665.522949	2231.035400	27.708841
825.277100	1301.106445	4735.656250	2256.287598	27.810957
825.585693	1304.635010	4822.220703	2282.752930	27.806513
825.894287	1309.376709	4879.562012	2300.727295	27.767483
826.202820	1314.890381	4901.395996	2311.313477	27.782560
826.511292	1313.787720	4834.019531	2282.752686	27.525600
826.819702	1316.213745	4662.435059	2219.456055	26.992905
827.128113	1320.073242	4409.911133	2128.150391	26.152737
827.436401	1319.962769	4141.618164	2044.784424	25.687817
827.744751	1321.506592	3911.148438	1969.909424	25.038321
828.052917	1322.057983	3731.293945	1915.875610	24.647551
828.361145	1319.521729	3583.308105	1873.972046	24.492167
828.669312	1320.183350	3465.977295	1837.251465	24.096821
828.977356	1315.993164	3366.732178	1810.344849	24.106026
829.285400	1312.464233	3275.867920	1780.350830	23.830381
829.593384	1310.920532	3197.353516	1756.531982	23.621908
829.901306	1307.833008	3122.257813	1729.846191	23.258785
830.209167	1312.133667	3057.858887	1710.327759	22.809666
830.517029	1312.795288	2998.532471	1690.699219	22.417725
830.824829	1314.669922	2946.704346	1675.812500	22.128368
831.132568	1311.802856	2898.073975	1661.918335	22.071604
831.440247	1308.935791	2841.724609	1644.715820	21.906477
831.747925	1308.384399	2783.059814	1624.756348	21.453667
832.055481	1305.848022	2716.786133	1609.538696	21.524025
832.363037	1306.178833	2668.706787	1593.328857	21.074799
832.670532	1304.635010	2628.898438	1577.008423	20.567917
832.977966	1306.178833	2611.034180	1572.928223	20.442833
833.285400	1308.825317	2591.847168	1571.384277	20.464108
833.592712	1306.840454	2572.659668	1566.311890	20.498301
833.900085	1307.391724	2552.700195	1561.018799	20.366606
834.207275	1302.760254	2539.798096	1559.033936	20.716721
834.514526	1301.767822	2527.668213	1552.197021	20.428185
834.821716	1302.760376	2517.964111	1548.668335	20.235945
835.128784	1303.091187	2508.921631	1548.337524	20.338377
835.435852	1306.399292	2503.297852	1543.706055	19.826807
835.742798	1308.163696	2494.696533	1544.367676	19.907074
836.049805	1307.722534	2485.323730	1538.633423	19.608582
836.356750	1309.597168	2474.847656	1537.089600	19.523050
836.663574	1306.950562	2463.930664	1535.435425	19.748383
836.970398	1307.060913	2452.021484	1534.001831	19.820850
837.277161	1304.524658	2437.244629	1527.495728	19.684570
837.583923	1305.075928	2424.122314	1515.917114	18.841148
837.890564	1308.053345	2396.774658	1505.220703	18.109993
838.197205	1308.604858	2354.650391	1495.075562	17.826252
838.503784	1311.692505	2308.005371	1480.519775	16.945206
838.810303	1309.376709	2257.059326	1465.522705	16.476612
839.116699	1306.509766	2211.626953	1451.407837	16.008764
839.423096	1309.046021	2160.791260	1437.403320	15.069917
839.729492	1308.715210	2120.541992	1427.037598	14.574832
840.035828	1304.745361	2089.996582	1418.987671	14.548505
840.342102	1302.760620	2067.500732	1411.489258	14.217724
840.648315	1308.494751	2039.601807	1408.401489	13.665132
840.954529	1311.692505	2021.517090	1404.872803	13.127229
841.260620	1313.015747	2003.432251	1398.917969	12.442087
841.566711	1310.258911	1989.207275	1394.837891	12.457351
841.872803	1309.707397	1968.365845	1385.906006	11.568759
842.178772	1312.795044	1954.250977	1381.715576	10.744390
842.484680	1310.920532	1935.394165	1381.494995	11.301432
842.790588	1312.574585	1921.830688	1379.068970	10.914028
843.096436	1313.567017	1911.354858	1376.201782	10.477758
843.402222	1314.118286	1899.996826	1373.114258	10.069659
843.707947	1315.551880	1889.300415	1367.269897	9.014056
844.013611	1315.993042	1878.162720	1367.490479	9.160480
844.319275	1313.125977	1861.070679	1360.212402	8.593281
844.624817	1314.118530	1844.529785	1351.170044	6.985431
844.930359	1311.913086	1820.380005	1338.157959	5.161570
845.235901	1311.030884	1800.530884	1330.108032	3.897272
845.541321	1315.993164	1778.035400	1325.145630	1.980872
845.846680	1311.913086	1765.354004	1319.301270	1.629360
846.152039	1311.472046	1751.459839	1316.544434	1.152847
846.457275	1316.323975	1736.793335	1312.243774	-0.970392
846.762512	1318.308838	1724.553223	1306.509521	-2.904487
847.067749	1316.654785	1716.392822	1301.547241	-3.779361
847.372925	1315.110840	1705.365479	1300.113647	-3.842925
847.677979	1313.125977	1699.410889	1301.106079	-3.111666
847.983032	1314.669922	1687.391235	1297.687744	-4.556267
848.288025	1310.369263	1681.767456	1296.805542	-3.652070
848.592957	1309.045898	1679.782349	1294.269287	-3.985745
848.897888	1312.905518	1675.812744	1294.931030	-4.952915
849.202759	1312.133667	1675.151001	1294.931030	-4.738792
849.507507	1308.715210	1670.739990	1292.946289	-4.355757
849.812317	1308.825439	1668.093506	1294.931030	-3.867421
850.117004	1308.163818	1667.211182	1298.680298	-2.641301
850.421631	1305.958374	1663.682617	1292.394775	-3.791635
850.726257	1304.745361	1661.146240	1290.961182	-3.867605
851.030823	1304.635010	1660.154053	1288.866089	-4.435464
851.335327	1303.421875	1660.264282	1286.550293	-4.728021
851.639771	1301.326782	1656.404785	1286.440063	-4.192521
851.944153	1296.805664	1654.419800	1285.006470	-3.299421
852.248535	1297.136353	1657.507446	1284.234497	-3.580158
852.552856	1295.041260	1663.792725	1278.610718	-4.455722
852.857056	1291.733032	1663.131104	1279.713257	-3.236359
853.161255	1286.770874	1662.579834	1278.279907	-2.259384
853.465393	1284.124268	1660.594727	1278.500366	-1.493849
853.769531	1279.382568	1652.765381	1274.971680	-1.181332
854.073547	1280.044189	1649.788086	1271.553101	-2.296479
854.377563	1280.375000	1644.715576	1272.104492	-2.269994
854.681580	1280.485474	1645.156616	1274.420166	-1.663227
854.985474	1280.926392	1640.194336	1275.743530	-1.442617
855.289307	1279.492920	1640.525269	1269.127197	-2.871134
855.593140	1276.736084	1639.312134	1267.031860	-2.676466
855.896851	1277.066895	1640.525269	1263.062134	-3.853195
856.200623	1276.736084	1638.981445	1257.438354	-5.327254
856.504272	1275.633423	1635.783691	1257.879517	-4.929583
856.807922	1278.169678	1635.452759	1260.195190	-5.030881
857.111389	1280.044312	1639.312256	1260.746704	-5.371369
857.414978	1278.390259	1637.768555	1263.393188	-4.173059
857.718445	1279.382568	1635.121826	1265.267822	-3.967722
858.021790	1284.565308	1632.585693	1265.819214	-5.386493
858.325195	1287.322144	1635.452881	1267.142456	-5.796583
858.628479	1291.071655	1630.380371	1270.119751	-6.174880
858.931763	1289.637817	1624.315308	1271.663574	-5.370616
859.234985	1288.866089	1626.410522	1273.868896	-4.443027
859.538147	1291.071533	1623.763916	1280.595581	-3.148840
859.841248	1294.710571	1626.410522	1277.728394	-5.119741
860.144287	1297.687866	1629.828857	1275.853882	-6.573709
860.447266	1298.459717	1628.615723	1277.397705	-6.379412
860.750305	1296.915894	1632.585571	1271.663574	-7.522967
861.053223	1299.121338	1634.680786	1267.473145	-9.431472
861.356018	1295.592651	1635.342407	1265.378052	-8.893192
861.658813	1294.489746	1634.460205	1268.906860	-7.525032
861.961609	1299.672607	1630.049316	1266.370483	-10.080046
862.264343	1299.562256	1629.056885	1268.906738	-9.303799
862.567017	1301.216309	1630.821289	1269.016846	-9.769107
862.869629	1302.539673	1627.843994	1269.568237	-10.135567
863.172180	1302.429443	1623.322754	1270.670898	-9.896917
863.474670	1302.980713	1619.463135	1274.750977	-8.919844
863.777161	1304.083496	1617.037231	1273.427734	-9.795621
864.079590	1303.973267	1616.044800	1271.773804	-10.317975
864.381958	1302.760254	1622.330322	1272.214844	-9.558283
864.684265	1300.665161	1622.991943	1273.427979	-8.450176
864.986511	1297.246704	1621.889160	1269.788940	-8.457848
865.288757	1299.341797	1621.338013	1274.420410	-7.739652
865.590942	1301.988281	1621.117432	1270.009399	-10.020671
865.893066	1303.642578	1622.661133	1267.142212	-11.441456
866.195068	1301.988403	1619.352905	1268.575806	-10.528146
866.497131	1300.223999	1619.353027	1271.884155	-8.880372
866.799133	1304.193848	1623.874023	1271.884155	-10.106880
867.100952	1304.965698	1619.794067	1275.192383	-9.456999
867.402832	1306.619751	1616.816650	1277.397583	-9.420523
867.704651	1309.597168	1615.272827	1279.161865	-9.956731
868.006409	1309.045898	1617.808960	1280.485352	-9.249989
868.308105	1307.612305	1620.345459	1281.698242	-8.286318
868.609802	1310.810303	1620.896973	1283.021606	-8.961590
868.911438	1310.148682	1618.360474	1285.337280	-8.050115
869.213013	1310.479370	1617.478394	1280.485352	-9.770070
869.514465	1310.258911	1621.117432	1279.382568	-9.932603
869.815979	1312.133545	1620.345459	1275.412720	-11.914148
870.117371	1311.802734	1622.771362	1275.633301	-11.631216
870.418701	1315.000610	1624.425537	1279.272339	-11.546669
870.720093	1317.536987	1622.440674	1277.728516	-13.056081
871.021301	1319.080811	1621.558350	1272.435303	-15.421147
871.322571	1320.955322	1622.550781	1272.104492	-16.197468
871.623718	1319.301392	1625.638550	1268.686157	-16.522720
871.924805	1318.088379	1625.417969	1267.583374	-16.433498
872.225891	1318.970581	1625.528442	1265.157349	-17.554022
872.526917	1321.396484	1629.277588	1263.503296	-18.803749
872.827881	1323.491699	1626.631104	1264.606079	-19.425261
873.128784	1318.970459	1619.242920	1263.944458	-18.325357
873.429626	1317.867798	1620.345581	1268.134644	-16.441919
873.730408	1317.757568	1618.691406	1268.355347	-16.416307
874.031189	1314.338989	1621.338013	1269.899170	-14.475557
874.331848	1314.780151	1621.227661	1269.017090	-14.933410
874.632568	1311.692627	1620.786499	1268.906860	-13.842321
874.933167	1311.251343	1620.896973	1267.473267	-14.138122
875.233704	1309.156250	1623.102295	1266.260254	-13.663493
875.534241	1308.494629	1626.630981	1269.127197	-12.374390
875.834717	1307.171509	1627.513184	1266.811523	-12.599043
876.135071	1303.752930	1634.570679	1265.047119	-11.700041
876.435425	1302.539917	1634.019165	1261.738892	-12.308772
876.735779	1304.635132	1635.893799	1262.180176	-12.816256
877.036011	1298.901001	1636.004150	1260.856812	-11.285623
877.336182	1297.246948	1638.650635	1264.165039	-9.689968
877.636353	1294.931152	1645.928589	1268.906738	-7.414417
877.936462	1294.931030	1651.001099	1270.340332	-6.906140
878.236511	1297.908447	1661.366821	1276.184814	-5.976924
878.536560	1297.798218	1679.782349	1282.249756	-4.070447
878.836487	1297.246826	1703.049805	1295.372192	-0.461957
879.136414	1294.379639	1762.486816	1312.905518	3.957615
879.436279	1291.843506	1852.138428	1340.804443	8.738422
879.736084	1293.276855	1963.513550	1369.585693	11.385357
880.035828	1290.961182	2086.908691	1408.291260	14.740932
880.335510	1293.938477	2202.694824	1441.703979	16.260189
880.635193	1293.276855	2303.594238	1472.359741	17.725409
880.934753	1297.797852	2393.576904	1498.384155	18.305361
881.234314	1296.474854	2473.193359	1520.217896	19.014153
881.533752	1298.569946	2539.467529	1542.713501	19.674755
881.833252	1297.798096	2600.889404	1559.916138	20.115093
882.132629	1298.570068	2658.892822	1578.331421	20.565807
882.431946	1298.680298	2704.766113	1591.343750	20.814053
882.731323	1299.893433	2746.559326	1601.268433	20.832384
883.030579	1298.459839	2780.192627	1607.664307	20.867762
883.329712	1298.018677	2813.053955	1617.588501	21.093227
883.628845	1298.790527	2833.675049	1622.771362	21.107832
883.927979	1298.900879	2847.128174	1627.513062	21.225061
884.226990	1299.452148	2858.045166	1630.159790	21.218346
884.526001	1296.144043	2861.684082	1633.578125	21.553846
884.824951	1296.695435	2855.398682	1629.718506	21.365393
885.123840	1295.702881	2838.306396	1620.786621	21.073708
885.422729	1297.687744	2793.645996	1601.268433	20.293392
885.721497	1300.223999	2709.948975	1573.810425	19.407078
886.020203	1301.216553	2605.962158	1542.933838	18.526009
886.318909	1302.760376	2484.331299	1502.905151	16.938871
886.617554	1302.980835	2367.773193	1468.720581	15.565453
886.916138	1302.980957	2268.858643	1439.718872	14.156857
887.214661	1300.554932	2181.522705	1416.010376	13.105524
887.513184	1301.106323	2099.369629	1397.153687	12.032041
887.811523	1298.018677	2028.905518	1376.091553	10.681937
888.109924	1303.752808	1794.686401	1326.910034	4.716978
888.408264	1292.174194	1871.105347	1264.385498	-4.800000
888.706543	1294.489868	1690.478760	1292.174194	-0.584783
889.004761	1331.541504	1743.740479	1303.752808	-6.741573
889.302979	1313.015747	1655.742920	1241.228271	-20.945953
889.601135	1329.225830	1637.217163	1301.437134	-9.022558
889.899170	1282.911255	1678.900146	1308.384277	6.432762
890.197205	1313.015747	1667.321533	1282.911255	-8.496755
890.495178	1299.121338	1597.849854	1319.962891	6.976754
890.793091	1271.332642	1570.061157	1271.332642	0.000000
>>>>>End Processed Spectral Data<<<<<
