Jaz Data File
++++++++++++++++++++++++++++++++++++
Date: Thu Sep 26 04:30:50 2019
User: jaz
Dark Spectrum Present: Yes
Reference Spectrum Present: Yes
Processed Spectrum Present: Yes
Spectrometers: JAZA3541
Integration Time (usec): 100000 (JAZA3541)
Spectra Averaged: 1 (JAZA3541)
Boxcar Smoothing: 10 (JAZA3541)
Correct for Electrical Dark: No (JAZA3541)
Strobe/Lamp Enabled: Yes (JAZA3541)
Correct for Detector Non-linearity: No (JAZA3541)
Correct for Stray Light: No (JAZA3541)
Number of Pixels in Processed Spectrum: 2048
>>>>>Begin Processed Spectral Data<<<<<
W	D	R	S	P
190.543274	0.000000	0.000000	0.000000	0.000000
190.921555	0.000000	0.000000	0.000000	0.000000
191.299805	1296.805664	1336.172974	1190.282349	-270.588257
191.678024	1229.649658	1322.278564	1118.494873	-120.000107
192.056229	1345.435913	1313.015747	1162.493652	564.285400
192.434387	1331.541504	1278.279907	1206.492432	234.782806
192.812531	1303.752808	1324.594360	1264.385498	-188.888565
193.190659	1310.699951	1296.805664	1197.229492	816.669861
193.568741	1319.962891	1359.330200	1215.755249	-264.706024
193.946793	0.000000	0.000000	0.000000	0.000000
194.324829	1207.815674	1211.785522	1091.147217	-2938.864014
194.702835	1271.994385	1273.317627	1149.481445	-9258.541992
195.080811	1337.606445	1335.070313	1207.705322	5122.015625
195.458755	1337.827148	1332.203125	1207.484741	2317.600830
195.836685	1338.268188	1331.541626	1211.564819	1883.627319
196.214569	1339.811890	1336.172974	1213.770264	3463.713623
196.592422	1341.907104	1340.032471	1215.865479	6723.533203
196.970261	1342.679077	1342.127686	1212.336792	23638.787109
197.348068	1343.781860	1343.120117	1212.336914	19863.439453
197.725861	1344.222900	1342.127563	1212.777832	6273.218750
198.103622	1343.561279	1338.157837	1212.226563	2430.574951
198.481323	1340.253052	1337.496216	1208.256592	4787.969238
198.859039	1337.937378	1335.290771	1210.793091	4804.049805
199.236694	1335.070313	1335.621460	1209.690430	-22748.880859
199.614334	1333.416138	1335.511230	1208.256836	-5973.926270
199.991959	1329.115479	1337.937134	1208.587524	-1366.273682
200.369553	1324.373657	1337.826904	1210.241699	-848.359924
200.747101	1322.499023	1341.355835	1213.660156	-577.185974
201.124619	1320.514038	1341.576294	1217.850464	-487.429138
201.502136	1316.323608	1346.538452	1220.166260	-318.245392
201.879623	1313.677246	1349.736450	1219.945557	-259.938324
202.257065	1311.030640	1351.500854	1219.063477	-227.246536
202.634476	1309.927979	1352.934570	1221.268921	-206.152252
203.011871	1305.186279	1354.809082	1222.040771	-167.555038
203.389221	1303.091064	1361.866455	1225.789917	-131.519577
203.766571	1304.745117	1367.931519	1227.113159	-122.861809
204.143875	1300.334229	1365.064331	1229.759766	-109.028816
204.521164	1296.254272	1365.284912	1226.231079	-101.437843
204.898392	1297.798096	1363.300049	1229.098267	-104.882111
205.275620	1298.459717	1368.703369	1231.083008	-95.918571
205.652817	1293.718018	1368.482910	1227.444214	-88.642944
206.029984	1293.607666	1372.673218	1226.782471	-84.518723
206.407135	1291.953613	1374.988892	1225.679932	-79.813889
206.784225	1292.394775	1374.437378	1224.246338	-83.064697
207.161301	1293.607910	1372.893555	1225.238892	-86.231270
207.538376	1298.570190	1373.555176	1227.775024	-94.412453
207.915405	1302.209229	1370.798462	1226.231201	-110.772530
208.292404	1303.422119	1370.798584	1225.900513	-115.057396
208.669373	1305.406860	1366.718506	1225.569580	-130.215530
209.046310	1302.319336	1363.961670	1222.261475	-129.874802
209.423218	1303.863159	1361.645874	1221.048462	-143.320877
209.800095	1305.737793	1357.124756	1219.504517	-167.811584
210.176956	1308.715210	1353.265137	1219.725220	-199.753387
210.553787	1308.163818	1355.911743	1218.071167	-188.683914
210.930603	1309.597412	1356.242554	1215.975952	-200.709991
211.307358	1315.221313	1353.485718	1211.785522	-270.318573
211.684113	1317.316406	1349.846680	1210.903320	-327.120178
212.060837	1316.985596	1348.413086	1204.838379	-356.844330
212.437531	1316.765015	1350.839233	1207.926025	-319.417419
212.814178	1314.008179	1354.037109	1204.397339	-273.829041
213.190826	1312.574585	1351.280273	1204.287231	-279.771149
213.567413	1313.125977	1352.383057	1207.926025	-267.977020
213.943985	1310.258789	1357.345337	1208.036255	-217.094986
214.320541	1309.266479	1357.124756	1207.484985	-212.672714
214.697052	1307.612305	1361.315186	1206.933594	-187.473572
215.073563	1309.266357	1363.300049	1210.682739	-182.448425
215.449997	1303.863159	1360.874023	1208.477295	-167.311737
215.826431	1301.326904	1362.086914	1206.051392	-156.806290
216.202850	1300.334351	1364.954102	1207.926025	-143.003220
216.579224	1298.459717	1369.695923	1207.043701	-128.328018
216.955582	1300.885742	1374.989014	1206.161621	-127.827179
217.331894	1300.554932	1374.217041	1199.765869	-136.826202
217.708191	1300.003418	1376.863647	1200.978760	-128.837311
218.084442	1300.113770	1383.480103	1200.427490	-119.576187
218.460678	1296.915771	1384.141602	1201.419922	-109.481155
218.836899	1295.041260	1385.685303	1203.625366	-100.851517
219.213074	1292.615234	1387.339478	1204.507568	-93.014908
219.589233	1294.269287	1392.191650	1203.735718	-92.454437
219.965347	1296.805542	1398.697510	1206.382080	-88.744446
220.341431	1295.592529	1399.359131	1204.948608	-87.353653
220.717499	1296.254150	1400.241455	1205.168945	-87.592621
221.093552	1295.041260	1402.336548	1204.948608	-83.967018
221.469543	1299.011108	1407.078247	1204.286865	-87.653145
221.845535	1302.980835	1407.409058	1203.625244	-95.142471
222.221466	1305.296631	1411.709595	1206.161499	-93.160767
222.597397	1305.186279	1417.884766	1204.507324	-89.334785
222.973297	1302.760376	1426.706543	1204.617676	-79.181717
223.349167	1300.554932	1437.403076	1207.484741	-68.009827
223.725006	1297.467285	1446.996826	1210.021118	-58.480865
224.100800	1295.041260	1454.385010	1214.321655	-50.657528
224.476578	1295.372070	1465.081543	1215.975708	-46.783695
224.852325	1297.577515	1475.778076	1217.299072	-45.049488
225.228058	1298.680298	1495.847778	1225.348999	-37.192390
225.603760	1297.577637	1523.195313	1228.877808	-30.449667
225.979416	1295.261963	1552.086792	1234.611816	-23.615376
226.355057	1295.372192	1590.351318	1239.022705	-19.102873
226.730652	1296.805664	1642.069214	1247.954834	-14.148852
227.106232	1296.915894	1691.912231	1258.320557	-9.771062
227.481796	1294.159180	1736.903687	1272.986694	-4.782100
227.857315	1292.946167	1778.145630	1284.455078	-1.750020
228.232788	1296.033813	1815.638184	1292.063843	-0.764037
228.608246	1296.695435	1848.058350	1302.098633	0.979971
228.983704	1297.026245	1883.345459	1309.927979	2.200462
229.359100	1297.577637	1916.206665	1318.750000	3.422465
229.734482	1293.166748	1945.870117	1329.887451	5.625940
230.109833	1290.189453	1973.768921	1338.047607	7.001111
230.485153	1290.189331	1989.979126	1349.074829	8.414741
230.860443	1289.527710	2012.585205	1351.831665	8.616736
231.235703	1293.166748	2031.331421	1356.132202	8.530001
231.610931	1293.607788	2055.481445	1364.843872	9.350118
231.986145	1293.056396	2079.300049	1367.931396	9.523129
232.361313	1290.189209	2098.708252	1371.680664	10.079102
232.736465	1287.983765	2121.313965	1377.525146	10.745007
233.111572	1285.888550	2134.656982	1380.502441	11.147198
233.486664	1288.865845	2141.052734	1386.236572	11.425982
233.861725	1290.409668	2141.604248	1388.442139	11.517046
234.236755	1292.284302	2138.957520	1394.837891	12.112535
234.611771	1296.474731	2120.873047	1396.271484	12.105405
234.986740	1298.900635	2101.023926	1401.895386	12.840264
235.361679	1299.782959	2083.710938	1400.241211	12.814730
235.736588	1298.570068	2073.235107	1402.998047	13.480404
236.111496	1297.908447	2069.375488	1405.644653	13.965108
236.486343	1298.459717	2071.139893	1412.150757	14.713855
236.861160	1301.106323	2071.250000	1418.436279	15.234814
237.235962	1300.334351	2079.961426	1429.243042	16.534660
237.610733	1302.760376	2089.996338	1434.756714	16.767061
237.985474	1301.437134	2106.978271	1446.555786	18.015051
238.360199	1300.665283	2140.501221	1462.324829	19.248943
238.734879	1301.767944	2177.662842	1483.717651	20.773006
239.109543	1300.334473	2227.616455	1508.198242	22.416458
239.484177	1304.635132	2281.650146	1536.979248	23.781017
239.858749	1310.810303	2350.680908	1573.479492	25.259796
240.233322	1311.361694	2434.047119	1615.603638	27.099483
240.607864	1313.126099	2511.899414	1661.036133	29.022171
240.982391	1314.559570	2592.618896	1702.719116	30.371012
241.356857	1316.213745	2651.063232	1739.550049	31.714161
241.731308	1315.000610	2704.435059	1777.373657	33.277786
242.105728	1317.977905	2744.684814	1803.949463	34.062466
242.480118	1312.354126	2785.926758	1832.399780	35.291485
242.854492	1310.479492	2835.880127	1855.336304	35.718933
243.228836	1309.045898	2893.442383	1887.315430	36.497780
243.603134	1312.905518	2957.290283	1924.146362	37.171402
243.977402	1312.023193	3046.721436	1976.967041	38.331959
244.351654	1310.920532	3168.241699	2037.396362	39.114174
244.725861	1310.810303	3315.235107	2109.624756	39.852554
245.100067	1311.912964	3466.970215	2187.918457	40.648830
245.474213	1311.361694	3603.377197	2267.424805	41.712765
245.848343	1316.985474	3710.341553	2332.485840	42.429977
246.222443	1318.198486	3794.700195	2387.070801	43.160572
246.596512	1318.419067	3855.019287	2426.438232	43.681271
246.970566	1321.286133	3892.181641	2453.675293	44.046486
247.344574	1320.845093	3904.862793	2467.790283	44.386124
247.718567	1317.206055	3891.740234	2472.973145	44.892281
248.092529	1318.749756	3859.430420	2466.577393	45.177959
248.466431	1315.441650	3833.075195	2455.660156	45.289295
248.840332	1313.236206	3807.051025	2449.374512	45.558243
249.214203	1311.030640	3809.476563	2449.815674	45.579739
249.588043	1313.787598	3825.797363	2454.447021	45.408241
249.961838	1310.038330	3853.696045	2467.238770	45.493561
250.335617	1313.677124	3886.888428	2479.809814	45.318184
250.709381	1313.456665	3901.664795	2495.248047	45.660603
251.083084	1318.198608	3899.569824	2497.453369	45.683270
251.456787	1314.780029	3882.367188	2485.544189	45.597836
251.830460	1316.434204	3829.656738	2462.497070	45.601326
252.204071	1313.456787	3746.069824	2420.152344	45.494106
252.577667	1310.038452	3638.995117	2372.845459	45.634472
252.951248	1310.369263	3513.615234	2311.754395	45.450443
253.324799	1308.604858	3406.099365	2252.758789	45.013412
253.698303	1305.737671	3326.152100	2207.657227	44.640324
254.071793	1305.296631	3267.817627	2170.164551	44.069233
254.445236	1304.083618	3233.853760	2143.919678	43.520004
254.818665	1300.113770	3219.959473	2134.215820	43.446308
255.192062	1300.003418	3219.077393	2134.877441	43.504005
255.565430	1300.444458	3243.888672	2138.406006	43.117344
255.938782	1301.878052	3283.365967	2156.160156	43.113163
256.312103	1304.745117	3340.266846	2177.222168	42.862576
256.685364	1306.730225	3419.442383	2208.870361	42.700569
257.058594	1304.965820	3518.357178	2242.503418	42.357517
257.431793	1302.098633	3646.714600	2287.163818	42.013924
257.804993	1302.760254	3790.178955	2341.638428	41.765312
258.178162	1299.672729	3928.240234	2400.303467	41.871887
258.551270	1298.128906	4052.517578	2447.831055	41.740738
258.924377	1294.379639	4145.587402	2488.301270	41.874241
259.297485	1293.938599	4222.999023	2520.390381	41.871849
259.670502	1293.056396	4286.625977	2545.532471	41.838882
260.043518	1295.151489	4346.063477	2571.887695	41.847691
260.416473	1298.569946	4394.473145	2589.862061	41.709705
260.789459	1297.026123	4449.830078	2608.608398	41.600502
261.162354	1297.246704	4497.467773	2626.251953	41.528545
261.535278	1298.349365	4541.796875	2643.344238	41.468063
261.908142	1298.790527	4576.092285	2649.078613	41.201214
262.280975	1301.216553	4595.279297	2656.576904	41.145554
262.653717	1302.870605	4609.834961	2655.584473	40.905003
263.026520	1300.113892	4627.809570	2651.394043	40.607082
263.399261	1297.357056	4643.688477	2650.842529	40.446842
263.771973	1296.915894	4654.495605	2645.659668	40.170120
264.144653	1298.239258	4653.502930	2641.469482	40.033524
264.517334	1301.106323	4633.103027	2632.206543	39.949028
264.889954	1302.208862	4586.678223	2613.239502	39.916058
265.262543	1305.627563	4506.179199	2581.371094	39.860111
265.635071	1308.053589	4405.610840	2532.299561	39.522949
266.007599	1311.802856	4310.224609	2479.699707	38.950386
266.380127	1312.133545	4240.201660	2440.884033	38.549324
266.752594	1315.882935	4205.575684	2415.852051	38.065262
267.125031	1315.000732	4197.084473	2404.383545	37.798443
267.497437	1313.236328	4212.963867	2397.987793	37.408737
267.869843	1316.544556	4239.098633	2396.223145	36.942978
268.242218	1313.567261	4277.473633	2399.751953	36.647068
268.614532	1311.913208	4335.697754	2416.072266	36.515797
268.986816	1312.354126	4430.973633	2442.758301	36.246941
269.359100	1311.471924	4539.150879	2471.980713	35.954903
269.731354	1310.038452	4652.510742	2511.348145	35.940754
270.103516	1311.030762	4749.219727	2540.129150	35.748425
270.475708	1311.361572	4830.049805	2562.514404	35.557365
270.847839	1314.890381	4902.499023	2587.325684	35.467506
271.219971	1318.419067	4961.053711	2601.991943	35.237484
271.592041	1320.403809	5006.596191	2611.034668	35.012573
271.964081	1321.065552	5036.369629	2615.445557	34.839138
272.336151	1316.434204	5064.048340	2613.791504	34.618217
272.708130	1316.654785	5090.182129	2616.327637	34.441856
273.080109	1313.015869	5107.385254	2617.650879	34.383446
273.452026	1311.582275	5141.238770	2625.590576	34.311390
273.823914	1310.369263	5176.085449	2631.655518	34.179596
274.195770	1310.369263	5215.893555	2638.492432	34.006271
274.567627	1309.376831	5261.987793	2639.925781	33.662533
274.939423	1310.700073	5304.332031	2646.101074	33.438259
275.311249	1312.243896	5345.464355	2651.504395	33.205734
275.682983	1310.479492	5376.120117	2661.759766	33.236588
276.054688	1309.707520	5401.151855	2662.090576	33.053928
276.426422	1307.943115	5403.577148	2650.953125	32.791260
276.798065	1312.243896	5370.495117	2631.765625	32.514542
277.169708	1313.236206	5325.172852	2608.718750	32.290703
277.541321	1317.757446	5277.536133	2586.553711	32.042099
277.912903	1316.985352	5267.832031	2582.804688	32.039192
278.284424	1316.764893	5279.741211	2585.781982	32.021820
278.655945	1315.882813	5301.685547	2587.656738	31.907598
279.027435	1312.574707	5332.010254	2598.684082	31.997263
279.398865	1310.920532	5391.226563	2621.730957	32.125298
279.770294	1307.502075	5467.424805	2652.055908	32.321606
280.141663	1310.810303	5539.763672	2676.536377	32.294662
280.513031	1313.015869	5615.631348	2704.214355	32.333790
280.884369	1315.993164	5680.912598	2731.121094	32.420483
281.255676	1314.559570	5725.462402	2747.220703	32.479996
281.626953	1313.787720	5763.727051	2758.468750	32.465183
281.998199	1316.654907	5805.189453	2772.803955	32.441525
282.369385	1313.346680	5856.245605	2796.402344	32.645580
282.740540	1313.236328	5915.572754	2818.787598	32.712761
283.111694	1311.802856	5983.280273	2848.891846	32.903702
283.482819	1310.479492	6070.064941	2878.775879	32.950272
283.853912	1314.559570	6165.339844	2916.268799	33.019619
284.224945	1315.441772	6257.858398	2970.963867	33.496208
284.595978	1313.346436	6348.502930	3017.719727	33.849461
284.966980	1311.030762	6425.914551	3054.991699	34.095806
285.337952	1309.817749	6500.238281	3083.772949	34.177486
285.708893	1306.730103	6535.746094	3108.804688	34.462975
286.079803	1305.406860	6558.352051	3131.962158	34.772022
286.450684	1304.745239	6574.893066	3156.111572	35.129303
286.821533	1307.391846	6588.677246	3179.709717	35.451935
287.192322	1306.399414	6596.506836	3202.205811	35.836823
287.563110	1307.391968	6602.571289	3218.856689	36.098206
287.933868	1303.642700	6627.272461	3253.592285	36.628197
288.304596	1299.672852	6668.735352	3293.951904	37.143898
288.675262	1300.885742	6725.304199	3335.524902	37.508888
289.045929	1301.326782	6777.683594	3388.896973	38.119690
289.416565	1300.113770	6826.645020	3442.599609	38.767281
289.787170	1296.805664	6843.957520	3480.092529	39.358700
290.157745	1293.718018	6845.170898	3519.459717	40.092957
290.528259	1293.497437	6840.870605	3557.173096	40.806267
290.898773	1294.820801	6830.614746	3587.828125	41.421471
291.269226	1294.269287	6813.852539	3618.153564	42.102535
291.639679	1290.630371	6797.202148	3648.368408	42.816803
292.010101	1294.820801	6810.876465	3669.651367	43.053055
292.380463	1293.828369	6840.539551	3709.349609	43.548714
292.750824	1298.680298	6882.332031	3761.509033	44.107845
293.121155	1300.775391	6928.756836	3817.196777	44.712681
293.491455	1307.502197	6990.068359	3870.347900	45.100143
293.861725	1310.920532	7072.000977	3925.814697	45.388950
294.231964	1313.125977	7184.479004	3997.491699	45.719711
294.602142	1314.669678	7298.721680	4077.219238	46.165203
294.972321	1314.669800	7398.077148	4133.458008	46.335678
295.342468	1316.213623	7496.991699	4198.077148	46.626225
295.712555	1317.095825	7559.295410	4248.030762	46.953560
296.082672	1318.419067	7583.776855	4279.899414	47.267540
296.452728	1315.882813	7585.761719	4290.265625	47.439240
296.822693	1319.080688	7589.400879	4296.220215	47.479866
297.192657	1321.065552	7589.180664	4308.350098	47.658421
297.562622	1322.388916	7606.824219	4325.994141	47.794353
297.932556	1326.027954	7627.886230	4339.557129	47.819691
298.302460	1328.233398	7634.833496	4345.622559	47.844940
298.672333	1327.792358	7640.347656	4350.694336	47.887135
299.042145	1329.005127	7636.597656	4357.751953	48.017475
299.411957	1330.218140	7623.033691	4365.912109	48.240631
299.781677	1326.027954	7584.768555	4359.075195	48.460983
300.151428	1326.579224	7523.125977	4340.438965	48.637733
300.521149	1326.248291	7458.727051	4309.121582	48.640583
300.890839	1322.829956	7386.829590	4280.120117	48.767979
301.260468	1317.095825	7310.961914	4242.517090	48.806919
301.630096	1318.418945	7223.515625	4199.952148	48.797394
301.999695	1319.080688	7102.436523	4144.043945	48.846439
302.369232	1316.323975	6976.063965	4076.777588	48.773502
302.738739	1314.449219	6859.727051	4029.250000	48.956985
303.108246	1310.699951	6722.106445	3961.432373	48.984169
303.477692	1311.251343	6610.841309	3894.497070	48.744255
303.847137	1311.361816	6522.182129	3847.852051	48.677368
304.216553	1311.361572	6456.680176	3820.063232	48.756977
304.585876	1310.369141	6397.794434	3793.046143	48.800266
304.955231	1309.597046	6350.267090	3768.124512	48.773823
305.324493	1306.619751	6311.010254	3742.872070	48.682301
305.693787	1306.178711	6280.244629	3721.589600	48.560089
306.063049	1306.509521	6274.399414	3713.429199	48.449539
306.432251	1307.391846	6272.414551	3709.569580	48.382011
306.801422	1305.627319	6267.783691	3705.819824	48.369949
307.170593	1304.524658	6268.334961	3699.203857	48.242760
307.539673	1303.642456	6275.171875	3696.447510	48.130165
307.908783	1304.304077	6290.831055	3703.725830	48.118099
308.277832	1302.650146	6307.150879	3717.620117	48.255959
308.646851	1300.444702	6338.357910	3733.388672	48.292690
309.015839	1303.973389	6378.717773	3756.104980	48.320301
309.384796	1298.239258	6410.586914	3777.056641	48.486870
309.753723	1295.151733	6446.205566	3782.680420	48.291649
310.122620	1294.600220	6472.339844	3791.612305	48.225910
310.491486	1296.144165	6484.690430	3792.715088	48.116959
310.860352	1299.342041	6501.231445	3800.544678	48.082577
311.229126	1299.452148	6515.456055	3807.712891	48.087784
311.597931	1298.680298	6523.726074	3803.191162	47.932800
311.966675	1300.224121	6544.016602	3811.240967	47.885509
312.335388	1300.665161	6579.523926	3820.062988	47.726185
312.704071	1298.680298	6617.236816	3830.098145	47.595959
313.072723	1301.326904	6632.564941	3836.604248	47.555130
313.441345	1301.988525	6630.139160	3834.729492	47.535088
313.809875	1302.650146	6611.061523	3813.997803	47.308838
314.178436	1298.459839	6573.018066	3793.928223	47.311420
314.546967	1304.193970	6535.194824	3766.690918	47.075066
314.915466	1304.635132	6494.283691	3733.278564	46.797844
315.283936	1308.604858	6440.911621	3707.474609	46.740574
315.652374	1309.266602	6398.125977	3673.841553	46.465717
316.020752	1307.943237	6345.084961	3638.774902	46.272900
316.389130	1313.236328	6299.542480	3607.126953	46.003807
316.757416	1313.346680	6259.072266	3576.471436	45.759205
317.125732	1312.574585	6233.378418	3552.541992	45.520355
317.494019	1313.126099	6201.399414	3535.449707	45.462345
317.862274	1315.441895	6169.530762	3512.292480	45.257732
318.230469	1314.338989	6137.441406	3491.010010	45.130096
318.598663	1315.441772	6109.211914	3474.469238	45.038193
318.966797	1315.221069	6076.571289	3456.715088	44.976616
319.334930	1314.449341	6049.113281	3441.166748	44.918018
319.703003	1310.148682	6018.347656	3410.069580	44.601360
320.071045	1307.612305	5975.341309	3384.486328	44.494316
320.439056	1306.178711	5939.722656	3362.652588	44.382309
320.807037	1306.399292	5937.627441	3352.507324	44.180679
321.175049	1305.296631	5958.910156	3350.522217	43.949196
321.542969	1301.878052	5990.778809	3365.409668	44.008858
321.910828	1306.178711	6035.219238	3378.090820	43.812527
322.278717	1304.965820	6093.112305	3399.483154	43.743801
322.646515	1308.053345	6142.183594	3422.089355	43.731468
323.014313	1307.501953	6192.908691	3442.821045	43.708115
323.382111	1304.855469	6229.739746	3450.649902	43.570454
323.749817	1304.745117	6278.259766	3457.817383	43.290760
324.117523	1303.752808	6305.828125	3466.529053	43.237583
324.485199	1301.326782	6320.052734	3468.514160	43.182026
324.852814	1304.193970	6319.501465	3469.506592	43.174072
325.220428	1306.399292	6317.957520	3468.072998	43.133766
325.588013	1305.075928	6324.794434	3469.947998	43.127357
325.955536	1308.384155	6334.498535	3471.270752	43.032978
326.323059	1308.825317	6352.804199	3479.651367	43.037971
326.690552	1309.597168	6376.622070	3482.076904	42.874859
327.058014	1311.030640	6396.030273	3493.986328	42.929317
327.425415	1314.338989	6409.152344	3503.029053	42.959179
327.792816	1317.977905	6423.708984	3505.014160	42.834927
328.160187	1320.955322	6430.545410	3509.425537	42.830643
328.527496	1321.837646	6416.541504	3502.257324	42.797768
328.894775	1322.940430	6410.255859	3498.507813	42.764545
329.262054	1325.697144	6391.839844	3490.568359	42.732140
329.629303	1323.712280	6378.275879	3478.989502	42.640228
329.996490	1321.837646	6364.161621	3463.331055	42.470364
330.363647	1317.977905	6370.558105	3460.794922	42.410351
330.730774	1316.985718	6381.474609	3459.361328	42.301910
331.097839	1316.544434	6412.020020	3470.940186	42.280563
331.464935	1316.103394	6438.044434	3486.047607	42.365665
331.831970	1312.353882	6459.437500	3490.458252	42.317257
332.198975	1311.802490	6487.336426	3495.200195	42.186905
332.565948	1311.582153	6516.007324	3500.934082	42.067123
332.932892	1304.965698	6553.610352	3515.269287	42.111897
333.299744	1305.406860	6581.950195	3526.406738	42.091949
333.666656	1301.878174	6619.553711	3540.190430	42.091927
334.033478	1300.444702	6650.540039	3541.624268	41.890465
334.400299	1300.665283	6674.027344	3554.746582	41.949177
334.767090	1298.570068	6710.527344	3559.267822	41.772278
335.133850	1299.562622	6735.669434	3566.987305	41.710453
335.500549	1296.805786	6758.166016	3577.242676	41.755844
335.867218	1291.622803	6781.985352	3581.322998	41.703991
336.233917	1292.725586	6818.154785	3595.107178	41.668827
336.600525	1292.505005	6834.694824	3595.437988	41.552765
336.967102	1293.938599	6855.757324	3595.327637	41.378357
337.333649	1296.915894	6867.004395	3604.039551	41.419872
337.700195	1294.269287	6866.563965	3603.708252	41.445023
338.066681	1296.254150	6856.970215	3599.848877	41.426228
338.433136	1295.813110	6847.266602	3585.954346	41.252998
338.799591	1296.254272	6825.983398	3576.801270	41.241566
339.165985	1296.584961	6811.758789	3565.664063	41.142475
339.532318	1300.775391	6816.390625	3567.318115	41.093197
339.898651	1300.995972	6828.851074	3575.478516	41.145840
340.264954	1300.444580	6846.163574	3585.402588	41.202198
340.631226	1305.627319	6861.712891	3586.946533	41.059834
340.997467	1305.406860	6901.410645	3590.034180	40.826050
341.363678	1306.840454	6942.652344	3600.620605	40.700085
341.729828	1308.274048	6995.914551	3622.564697	40.689816
342.095947	1305.627563	7056.674316	3650.353516	40.770420
342.462067	1306.178833	7114.677734	3672.958984	40.746849
342.828156	1305.076050	7183.377441	3699.535400	40.733868
343.194183	1304.414551	7254.171875	3726.552002	40.709854
343.560211	1309.597290	7313.718750	3746.731689	40.591022
343.926178	1311.582275	7371.282227	3763.383301	40.460766
344.292114	1310.259155	7404.143066	3781.136963	40.546848
344.658020	1307.502197	7440.643066	3794.369385	40.548023
345.023926	1307.943237	7478.025391	3800.103760	40.391045
345.389771	1309.817871	7515.187500	3812.123535	40.324844
345.755585	1307.061157	7535.036621	3815.100830	40.270542
346.121368	1309.376953	7556.099121	3829.325928	40.340340
346.487122	1309.707642	7582.233398	3838.478760	40.315037
346.852844	1309.597412	7608.037109	3847.079590	40.287476
347.218536	1308.163818	7628.216309	3857.886475	40.343376
347.584167	1309.487061	7650.822266	3869.796143	40.374924
347.949768	1309.487061	7669.127930	3867.700439	40.225754
348.315369	1310.259033	7693.718750	3874.647705	40.172394
348.680939	1312.684937	7708.384766	3882.807617	40.185165
349.046448	1312.464478	7717.426270	3888.652100	40.221745
349.411957	1310.810303	7721.727051	3887.659912	40.194714
349.777435	1313.677490	7716.654785	3882.698242	40.122284
350.142792	1315.772705	7705.848145	3874.978760	40.049702
350.508209	1317.757568	7707.170898	3876.412109	40.045219
350.873566	1320.734985	7710.369629	3876.522705	39.998962
351.238892	1324.153320	7723.822754	3885.895752	40.029293
351.604187	1317.647217	7751.722656	3901.223877	40.154591
351.969482	1319.521973	7817.224609	3927.137695	40.131348
352.334717	1317.647339	7876.330566	3953.933838	40.195366
352.699890	1318.308838	7959.255371	3994.624268	40.300213
353.065063	1317.647217	8043.062500	4028.918945	40.313820
353.430237	1317.095825	8157.305176	4075.674561	40.328861
353.795319	1313.456787	8287.425781	4119.894043	40.241608
354.160370	1313.897827	8413.466797	4166.098145	40.174274
354.525421	1315.441650	8548.000977	4226.968750	40.255833
354.890442	1315.993164	8704.146484	4286.075195	40.200600
355.255402	1310.589600	8870.106445	4349.261719	40.196648
355.620331	1311.912964	9055.035156	4425.128906	40.206207
355.985260	1311.913086	9232.242188	4495.041504	40.189346
356.350098	1310.699951	9388.499023	4564.954102	40.286396
356.714935	1313.015869	9533.837891	4617.554199	40.197174
357.079742	1313.456909	9660.432617	4671.587891	40.231709
357.444519	1311.361694	9805.770508	4728.268066	40.225353
357.809296	1311.030762	9967.540039	4799.063477	40.293755
358.173981	1309.266479	10156.877930	4862.800781	40.163769
358.538605	1307.171265	10367.388672	4939.660645	40.092735
358.903259	1303.091187	10606.127930	5028.871094	40.049068
359.267914	1305.958008	10871.113281	5137.269531	40.054882
359.632477	1302.208740	11147.125000	5249.747559	40.097233
359.997009	1303.091064	11412.661133	5357.593750	40.105587
360.361542	1299.893188	11615.783203	5433.130371	40.066708
360.726013	1303.201416	11769.945313	5494.332031	40.042355
361.090485	1304.304321	11863.676758	5528.736816	40.006477
361.454895	1310.259033	11911.866211	5552.334961	40.013519
361.819244	1311.251343	11933.588867	5565.567871	40.050659
362.183594	1308.935791	11933.038086	5562.369629	40.035698
362.547913	1305.958374	11891.907227	5543.072266	40.025829
362.912201	1310.148682	11832.580078	5523.884766	40.045273
363.276489	1311.692383	11753.514648	5492.236328	40.036537
363.640686	1309.045898	11666.289063	5460.808594	40.085598
364.004883	1308.053467	11603.984375	5426.403320	39.999779
364.369049	1307.502075	11540.247070	5406.113281	40.053879
364.733154	1305.627319	11501.651367	5384.830566	40.007782
365.097198	1305.296631	11440.780273	5352.961914	39.935593
365.461273	1304.855469	11349.916992	5305.104004	39.823036
365.825287	1303.863037	11219.022461	5258.238281	39.882114
366.189270	1305.517212	11049.423828	5196.485352	39.932323
366.553223	1306.509644	10853.798828	5106.833496	39.805264
366.917114	1304.083740	10603.810547	4996.451172	39.704044
367.281006	1309.156250	10322.946289	4875.703125	39.567673
367.644867	1308.715088	10066.894531	4766.753906	39.483532
368.008698	1311.251465	9856.163086	4678.756348	39.409473
368.372498	1305.958374	9704.648438	4614.687500	39.395771
368.736237	1305.075928	9600.442383	4572.784180	39.391972
369.099976	1302.429565	9538.358398	4541.025879	39.322781
369.463654	1301.988525	9494.360352	4515.883301	39.230331
369.827332	1302.208862	9463.153320	4498.900879	39.170612
370.190948	1304.193848	9440.435547	4477.838379	39.006271
370.554535	1302.650146	9416.837891	4456.445801	38.867672
370.918091	1301.106445	9393.791016	4445.638184	38.856472
371.281647	1303.091309	9380.999023	4434.832031	38.769207
371.645111	1305.848267	9366.443359	4430.311035	38.762184
372.008575	1305.186523	9363.686523	4425.017578	38.714787
372.371979	1305.406982	9347.367188	4425.569336	38.798531
372.735382	1308.604858	9362.143555	4431.083008	38.771503
373.098724	1308.384155	9392.909180	4442.331055	38.764763
373.462067	1307.501953	9422.242188	4463.393066	38.890846
373.825348	1305.847900	9491.492188	4492.394531	38.928474
374.188599	1304.855347	9567.139648	4529.997559	39.034508
374.551819	1305.517090	9684.690430	4572.562988	38.990070
374.915009	1303.091187	9826.390625	4627.479004	39.003529
375.278168	1303.532227	9977.463867	4686.916504	39.006351
375.641266	1299.672729	10109.459961	4741.722168	39.070744
376.004395	1302.319214	10216.204102	4774.031738	38.947243
376.367462	1305.296631	10289.535156	4802.592285	38.927013
376.730469	1302.980957	10335.959961	4825.418457	38.995304
377.093475	1300.995972	10366.173828	4839.423340	39.033180
377.456421	1299.672852	10399.367188	4858.831055	39.112942
377.819336	1303.201538	10434.763672	4883.972656	39.213123
378.182281	1304.304199	10477.661133	4893.015137	39.121021
378.545135	1306.619873	10523.974609	4900.844727	38.994106
378.907928	1304.965820	10570.621094	4912.533691	38.934837
379.270752	1303.752808	10610.319336	4926.869141	38.930752
379.633484	1304.304077	10644.283203	4938.116211	38.905994
379.996246	1308.604858	10675.931641	4945.725586	38.827732
380.358948	1305.737671	10694.016602	4958.407227	38.906696
380.721558	1306.509521	10717.394531	4972.962891	38.959709
381.084198	1307.281494	10758.856445	4978.696777	38.844479
381.446747	1309.156006	10778.814453	4978.035156	38.743523
381.809326	1310.589722	10797.670898	4987.628906	38.758381
382.171875	1312.574707	10791.716797	4986.967773	38.762928
382.534363	1312.354126	10755.877930	4978.917480	38.826221
382.896790	1311.361572	10704.710938	4958.737793	38.829346
383.259247	1315.441772	10669.204102	4939.439941	38.743748
383.621613	1316.544556	10660.161133	4945.615234	38.840111
383.983948	1316.765015	10687.950195	4955.760254	38.831749
384.346283	1317.647217	10738.124023	4971.308594	38.784252
384.708588	1315.772705	10823.144531	4997.553711	38.725536
385.070831	1320.073242	10899.012695	5025.122070	38.679111
385.433075	1315.662354	10992.963867	5056.880371	38.659721
385.795258	1316.765015	11075.448242	5092.718262	38.693264
386.157440	1312.133667	11151.536133	5135.393555	38.856625
386.519531	1312.795288	11244.496094	5166.049316	38.797520
386.881622	1310.810303	11316.504883	5197.477539	38.844551
387.243683	1310.700073	11391.710938	5224.935059	38.827801
387.605713	1307.391724	11473.091797	5259.009277	38.872066
387.967682	1309.817749	11555.907227	5290.877930	38.854431
388.329651	1307.832886	11652.283203	5318.005371	38.766415
388.691559	1308.053345	11748.441406	5356.380371	38.775639
389.053467	1303.752686	11868.749023	5406.996094	38.838093
389.415314	1301.326782	11987.513672	5447.355469	38.798019
389.777130	1303.752808	12107.820313	5493.780273	38.781944
390.138885	1299.782959	12230.442383	5535.683594	38.752468
390.500641	1300.665039	12323.181641	5575.933105	38.786678
390.862366	1296.584961	12410.408203	5610.558594	38.816288
391.224060	1296.364502	12484.620117	5631.841309	38.750244
391.585693	1297.246704	12571.514648	5662.828125	38.721642
391.947296	1298.569946	12659.623047	5695.138184	38.698601
392.308868	1304.524658	12724.023438	5729.211914	38.746773
392.670441	1304.304077	12789.525391	5741.342285	38.632584
393.031952	1307.171265	12819.077148	5753.692871	38.625416
393.393433	1306.399414	12846.205078	5767.256348	38.656258
393.754883	1308.494507	12861.644531	5767.477051	38.595383
394.116302	1307.502075	12850.395508	5767.807129	38.641136
394.477692	1311.141113	12853.373047	5760.750000	38.550678
394.839020	1310.589722	12852.491211	5754.133789	38.499237
395.200348	1310.589722	12851.718750	5743.547852	38.410091
395.561646	1308.825317	12834.958008	5727.337402	38.334732
395.922882	1312.574585	12799.230469	5718.625977	38.357998
396.284088	1313.787476	12739.682617	5690.506348	38.305260
396.645264	1316.103271	12662.161133	5655.880371	38.249210
397.006409	1316.985474	12567.545898	5621.034180	38.256306
397.367523	1312.905396	12464.992188	5584.754395	38.305378
397.728577	1317.426514	12368.834961	5539.432617	38.203331
398.089600	1319.080688	12297.267578	5503.483887	38.115616
398.450592	1319.631958	12241.248047	5481.429688	38.106064
398.811584	1319.631958	12182.804688	5458.713379	38.101959
399.172546	1317.536865	12098.225586	5428.719727	38.134693
399.533447	1316.323853	12017.835938	5394.204590	38.105652
399.894318	1310.479492	11962.148438	5369.172852	38.103825
400.255127	1308.935791	11911.533203	5346.125977	38.077370
400.615936	1307.502197	11882.752930	5330.136230	38.038189
400.976685	1307.171387	11886.833008	5324.291504	37.970211
401.337433	1305.517212	11916.826172	5332.782227	37.952579
401.698151	1304.745483	11971.852539	5362.776855	38.042473
402.058807	1301.657715	12056.542969	5393.542969	38.046761
402.419434	1299.672729	12151.487305	5435.776855	38.114399
402.780060	1297.467285	12260.105469	5479.665039	38.149555
403.140594	1296.364624	12359.020508	5522.782227	38.204365
403.501129	1292.394775	12453.856445	5567.001465	38.297909
403.861633	1291.181763	12540.641602	5599.752441	38.300247
404.222076	1289.196777	12626.102539	5635.921875	38.341370
404.582550	1287.983765	12698.000000	5659.961426	38.317013
404.942932	1289.307007	12768.574219	5687.309082	38.312565
405.303284	1293.607666	12843.891602	5716.420898	38.291817
405.663605	1292.174316	12899.579102	5731.638672	38.246830
406.023895	1293.056396	12936.077148	5742.555664	38.216019
406.384125	1290.409912	12989.669922	5772.549805	38.311310
406.744354	1290.850952	13056.826172	5795.375977	38.284328
407.104553	1291.291992	13123.429688	5827.575195	38.338661
407.464691	1296.364624	13183.198242	5850.622559	38.313465
407.824829	1296.916016	13253.110352	5883.373535	38.360512
408.184906	1296.805664	13333.279297	5912.044434	38.343777
408.544922	1298.129028	13397.016602	5936.524902	38.337376
408.904938	1299.562500	13444.985352	5951.411621	38.301254
409.264923	1300.224121	13466.709961	5956.153320	38.268478
409.624847	1298.239258	13452.485352	5953.065430	38.297943
409.984802	1301.437256	13428.113281	5947.993164	38.316814
410.344666	1303.091187	13393.708008	5933.216309	38.295193
410.704529	1305.076050	13355.223633	5914.911133	38.255424
411.064331	1307.612305	13323.023438	5889.769531	38.135666
411.424133	1306.399414	13317.508789	5889.769531	38.159424
411.783875	1306.509644	13312.107422	5882.821777	38.118153
412.143555	1310.369263	13321.479492	5886.791504	38.101578
412.503235	1308.274048	13338.792969	5892.416016	38.104279
412.862885	1304.635010	13348.716797	5905.207520	38.197784
413.222473	1305.406860	13404.625000	5934.761230	38.261600
413.582062	1303.642578	13483.800781	5965.857910	38.277134
413.941559	1302.870605	13553.383789	5992.213379	38.278744
414.301086	1304.855591	13638.513672	6024.192383	38.263885
414.660522	1306.399414	13709.198242	6052.752441	38.268402
415.019958	1303.863037	13795.209961	6079.659180	38.232834
415.379364	1302.429688	13906.364258	6120.129395	38.223778
415.738708	1300.555054	14027.223633	6169.861816	38.260654
416.098053	1300.996216	14169.366211	6228.086426	38.288380
416.457336	1300.996094	14353.409180	6303.291504	38.324680
416.816559	1302.870728	14553.443359	6381.033691	38.324104
417.175812	1306.840454	14794.830078	6482.374023	38.371426
417.535004	1302.319336	15084.958008	6589.007324	38.357590
417.894135	1306.289063	15413.351563	6721.665039	38.387695
418.253265	1303.091187	15806.914063	6869.100586	38.376152
418.612335	1300.775513	16211.945313	7038.147461	38.477009
418.971405	1302.870728	16630.541016	7189.221191	38.403427
419.330414	1304.304077	17066.005859	7352.424805	38.372257
419.689423	1303.642334	17500.701172	7522.464844	38.394764
420.048370	1306.178711	17901.873047	7680.816895	38.411396
420.407257	1306.619751	18312.748047	7825.273926	38.331207
420.766144	1307.281372	18696.716797	7973.810059	38.336658
421.125000	1310.479370	19089.509766	8121.023926	38.306610
421.483795	1311.692383	19479.652344	8269.340820	38.296253
421.842560	1309.817749	19892.181641	8439.380859	38.367363
422.201324	1305.627563	20295.669922	8591.666992	38.367683
422.560028	1306.730225	20666.406250	8734.139648	38.365360
422.918671	1310.259033	21005.935547	8870.215820	38.383842
423.277283	1307.281494	21295.291016	8972.659180	38.349880
423.635925	1306.950806	21519.697266	9054.922852	38.332111
423.994476	1306.178833	21684.664063	9126.159180	38.373711
424.353027	1301.437134	21815.447266	9169.165039	38.352951
424.711487	1299.562500	21918.664063	9206.658203	38.348400
425.069946	1303.422119	21966.853516	9217.354492	38.299217
425.428375	1300.003662	21932.335938	9200.814453	38.293346
425.786743	1302.980957	21839.044922	9165.967773	38.288673
426.145081	1302.650146	21688.634766	9100.355469	38.250324
426.503418	1303.201538	21511.423828	9032.979492	38.250656
426.861725	1303.642578	21295.402344	8948.621094	38.240646
427.219971	1305.958252	21063.716797	8853.236328	38.199062
427.578186	1305.737671	20870.742188	8775.603516	38.179729
427.936371	1306.509521	20683.941406	8712.747070	38.220943
428.294495	1304.524658	20465.931641	8630.814453	38.234615
428.652618	1305.406982	20213.738281	8537.745117	38.249477
429.010712	1308.604858	19949.083984	8438.609375	38.250114
429.368744	1307.502197	19655.095703	8313.229492	38.183357
429.726746	1309.266479	19377.318359	8206.707031	38.174786
430.084717	1308.163818	19099.431641	8102.499023	38.189156
430.442688	1307.060913	18835.882813	7992.447754	38.139393
430.800568	1309.376709	18608.390625	7907.868164	38.143742
431.158417	1306.840454	18434.820313	7841.705566	38.153156
431.516235	1306.068604	18281.431641	7773.667480	38.099915
431.874023	1311.692505	18144.582031	7727.132324	38.112530
432.231812	1313.567261	18015.671875	7678.391602	38.107914
432.589508	1312.574707	17917.308594	7642.883301	38.123516
432.947205	1313.015869	17823.136719	7598.443359	38.070148
433.304840	1313.015747	17743.410156	7574.072266	38.106552
433.662476	1316.213623	17696.322266	7547.055664	38.039074
434.020050	1314.890381	17657.066406	7528.089355	38.019413
434.377594	1312.795166	17623.541016	7524.670898	38.084560
434.735138	1308.825195	17599.613281	7523.677246	38.149487
435.092621	1308.935669	17586.931641	7502.946289	38.051434
435.450043	1307.612305	17582.742188	7494.125000	38.012062
435.807465	1309.707520	17606.451172	7493.354004	37.944061
436.164856	1308.053345	17642.402344	7509.342285	37.964718
436.522156	1303.973267	17711.433594	7520.039551	37.885609
436.879486	1305.737671	17791.822266	7542.313965	37.829338
437.236755	1306.840454	17887.759766	7565.029785	37.743320
437.593994	1306.730225	17994.613281	7601.199219	37.718796
437.951172	1304.635010	18134.107422	7656.116211	37.740227
438.308380	1308.053467	18255.406250	7699.342773	37.712608
438.665497	1306.840454	18378.800781	7740.915039	37.687965
439.022583	1309.266602	18541.562500	7800.352539	37.668140
439.379608	1306.399414	18692.748047	7844.680664	37.605835
439.736633	1303.973389	18803.460938	7874.786621	37.548603
440.093628	1303.311646	18901.603516	7909.081055	37.536427
440.450562	1302.098633	18996.988281	7946.903809	37.552113
440.807495	1300.003540	19074.402344	7966.643066	37.506977
441.164368	1297.687866	19164.937500	8000.055176	37.512024
441.521210	1294.820679	19226.908203	8035.122070	37.587933
441.878021	1295.813232	19294.947266	8047.693359	37.512245
442.234833	1294.820801	19409.521484	8078.018555	37.445816
442.591522	1293.056274	19506.119141	8117.055176	37.467609
442.948242	1294.379517	19605.806641	8153.004395	37.455437
443.304901	1289.748169	19723.906250	8197.223633	37.471066
443.661530	1290.961060	19876.414063	8250.926758	37.448460
444.018127	1295.372070	20038.294922	8317.862305	37.467426
444.374664	1293.717773	20193.007813	8385.569336	37.524437
444.731201	1294.710327	20324.121094	8427.692383	37.483990
445.087738	1294.159058	20459.091797	8477.536133	37.481876
445.444183	1294.048950	20529.777344	8505.104492	37.487823
445.800598	1288.535278	20607.960938	8540.281250	37.536034
446.156982	1294.710449	20632.111328	8564.651367	37.595234
446.513336	1294.379639	20623.511719	8550.867188	37.541710
446.869598	1296.143921	20639.279297	8556.160156	37.532780
447.225891	1296.254272	20655.710938	8566.635742	37.554676
447.582153	1298.569946	20644.904297	8575.567383	37.614349
447.938354	1298.900757	20658.910156	8583.176758	37.625374
448.294495	1300.113892	20673.464844	8585.492188	37.605152
448.650665	1300.775269	20647.441406	8581.743164	37.634224
449.006775	1304.304199	20650.308594	8570.496094	37.559135
449.362823	1304.634888	20653.947266	8583.508789	37.618256
449.718842	1306.068604	20646.886719	8585.272461	37.636486
450.074860	1303.201416	20633.435547	8582.074219	37.655380
450.430817	1299.121338	20615.460938	8574.465820	37.664200
450.786713	1303.091187	20522.720703	8534.106445	37.623074
451.142578	1302.429443	20414.103516	8484.924805	37.581718
451.498444	1299.672852	20259.611328	8418.099609	37.544567
451.854248	1298.790649	20091.447266	8340.248047	37.469196
452.210022	1296.364624	19887.664063	8272.760742	37.525059
452.565765	1297.687866	19641.093750	8178.146484	37.509167
452.921478	1298.790527	19413.382813	8082.650879	37.449699
453.277191	1300.665039	19194.601563	7997.630371	37.425888
453.632813	1293.717896	19016.619141	7924.960449	37.416237
453.988434	1291.953491	18836.214844	7869.934570	37.493633
454.343964	1291.512451	18654.484375	7804.873535	37.512939
454.699524	1291.512451	18502.417969	7732.424316	37.423435
455.054993	1289.858398	18362.921875	7677.067871	37.411034
455.410400	1292.946045	18256.728516	7632.075684	37.368610
455.765839	1292.505005	18209.533203	7614.102051	37.368252
456.121216	1291.843384	18214.494141	7613.880859	37.358437
456.476593	1290.850952	18258.162109	7646.522461	37.458332
456.831909	1292.505005	18381.447266	7675.854980	37.353691
457.187195	1290.299438	18541.011719	7734.299805	37.354980
457.542450	1292.725586	18748.433594	7807.300781	37.320602
457.897644	1294.049072	18936.558594	7882.505371	37.344212
458.252808	1294.710571	19188.201172	7979.104004	37.356567
458.607971	1291.733398	19381.619141	8044.164551	37.327106
458.963013	1290.079224	19505.677734	8092.022461	37.341312
459.318085	1288.755859	19596.982422	8132.493164	37.380669
459.673096	1285.116821	19666.013672	8166.126465	37.435658
460.028076	1286.440063	19745.630859	8192.922852	37.414871
460.383057	1284.786133	19806.941406	8215.307617	37.417465
460.737976	1287.983887	19834.839844	8213.432617	37.340286
461.092865	1292.725586	19855.791016	8217.402344	37.303516
461.447723	1296.916016	19856.453125	8204.390625	37.217926
461.802551	1298.239258	19856.453125	8205.603516	37.219982
462.157288	1297.467407	19858.546875	8214.866211	37.268299
462.512054	1300.224121	19875.419922	8203.067383	37.161617
462.866760	1298.349487	19855.460938	8190.165039	37.138405
463.221405	1300.224121	19807.162109	8171.308105	37.127071
463.576019	1303.091187	19712.216797	8129.183594	37.079937
463.930603	1302.539917	19614.736328	8077.907715	36.999207
464.285156	1299.121338	19475.904297	8022.770996	36.990314
464.639709	1298.128906	19264.953125	7940.177246	36.968407
464.994171	1297.908203	19023.126953	7846.555664	36.945370
465.348633	1296.584961	18747.886719	7736.614746	36.902863
465.703033	1295.923462	18464.816406	7633.289551	36.911911
466.057434	1298.790649	18214.716797	7544.188965	36.920227
466.411774	1299.562622	18037.949219	7471.850586	36.875050
466.766083	1301.106445	17885.222656	7415.170410	36.866985
467.120331	1305.737793	17779.470703	7359.481934	36.747860
467.474548	1301.106445	17689.046875	7319.784180	36.726257
467.828735	1303.752930	17619.908203	7292.436523	36.704014
468.182922	1304.083740	17569.181641	7278.652344	36.732449
468.537048	1303.752808	17523.308594	7243.144531	36.618706
468.891144	1301.878296	17492.320313	7238.402344	36.666843
469.245178	1301.878174	17462.218750	7230.573730	36.686699
469.599213	1302.539917	17443.248047	7216.127930	36.637722
469.953186	1298.680298	17429.464844	7211.826660	36.657528
470.307129	1296.805664	17448.871094	7212.268555	36.623569
470.661041	1296.364624	17470.375000	7213.592285	36.584789
471.014923	1294.159180	17540.398438	7234.323730	36.563320
471.368713	1291.402344	17554.513672	7238.183105	36.566071
471.722504	1291.733154	17527.056641	7234.433105	36.603523
472.076294	1294.159180	17506.875000	7219.215820	36.545738
472.429993	1294.820679	17450.636719	7201.241699	36.559097
472.783722	1298.680298	17445.673828	7197.602539	36.532639
473.137329	1298.900757	17468.169922	7191.206055	36.441380
473.490967	1297.136353	17501.912109	7201.020020	36.432987
473.844543	1299.893188	17586.824219	7227.596680	36.395462
474.198090	1304.304077	17671.072266	7255.826660	36.363453
474.551605	1302.319214	17800.201172	7300.266602	36.355862
474.905060	1308.384155	17940.027344	7358.159180	36.375092
475.258484	1308.935547	18086.910156	7414.949219	36.393032
475.611877	1306.178711	18251.660156	7482.657227	36.449120
475.965240	1308.273926	18447.281250	7558.524414	36.467983
476.318573	1309.266235	18634.302734	7623.254395	36.444298
476.671844	1309.597168	18851.650391	7693.608398	36.392612
477.025116	1311.912964	19080.025391	7762.748535	36.305687
477.378326	1311.582275	19312.589844	7845.895020	36.299706
477.731506	1315.882690	19547.250000	7936.649414	36.315250
478.084656	1316.323975	19827.232422	8038.541504	36.314899
478.437744	1317.867554	20118.792969	8147.711426	36.327168
478.790833	1320.844971	20460.417969	8267.466797	36.294552
479.143890	1321.506836	20876.585938	8418.209961	36.290844
479.496826	1319.191040	21361.125000	8600.931641	36.332527
479.849823	1318.308838	22011.734375	8825.226563	36.276825
480.202728	1315.441650	22825.765625	9102.671875	36.202293
480.555603	1315.110840	23823.623047	9468.556641	36.223835
480.908478	1315.441772	25161.562500	9954.528320	36.228477
481.261292	1316.985596	26807.597656	10587.161133	36.367020
481.614075	1312.574707	28644.851563	11350.467773	36.725414
481.966797	1312.464355	30482.433594	12158.435547	37.181976
482.319489	1309.045898	32214.595703	12858.776367	37.371056
482.672150	1305.296631	33764.917969	13467.370117	37.468315
483.024780	1306.730103	35107.265625	13949.814453	37.404984
483.377350	1302.870605	36224.988281	14371.275391	37.421570
483.729919	1298.018677	37244.351563	14737.269531	37.386990
484.082428	1299.011108	38192.691406	15081.540039	37.357426
484.434937	1295.702881	39178.636719	15460.658203	37.391388
484.787384	1295.151489	40234.167969	15845.176758	37.366188
485.139771	1292.725586	41388.390625	16267.304688	37.347130
485.492157	1292.835815	42569.632813	16705.304688	37.339306
485.844482	1293.387207	43648.093750	17102.951172	37.326584
486.196777	1294.710449	44636.695313	17471.371094	37.323303
486.549072	1296.033813	45404.960938	17750.472656	37.304104
486.901276	1296.695313	45975.839844	17949.841797	37.272751
487.253448	1298.239258	46288.355469	18066.511719	37.271015
487.605591	1302.208984	46303.132813	18090.990234	37.307640
487.957703	1299.672607	46083.031250	18007.625000	37.308395
488.309784	1299.562378	45554.933594	17816.521484	37.321930
488.661835	1296.033691	44797.800781	17506.765625	37.264538
489.013855	1298.349365	44004.054688	17105.261719	37.013584
489.365814	1299.231567	43266.445313	16699.347656	36.695587
489.717743	1303.532349	42634.578125	16391.689453	36.505627
490.069611	1305.186401	42050.355469	16124.166992	36.369907
490.421509	1304.965820	41502.742188	15933.946289	36.392509
490.773315	1302.981079	41014.894531	15728.400391	36.325165
491.125092	1306.619995	40491.542969	15525.386719	36.286320
491.476807	1304.524780	39882.945313	15302.198242	36.283688
491.828522	1307.612305	39140.375000	15019.457031	36.243309
492.180176	1309.707520	38236.800781	14679.598633	36.206181
492.531830	1309.156128	37205.195313	14291.879883	36.167564
492.883423	1306.178711	36045.132813	13856.192383	36.126633
493.234985	1304.745239	34956.851563	13441.458008	36.065239
493.586487	1304.965698	33935.281250	13056.054688	36.012794
493.937988	1305.296509	33071.078125	12733.948242	35.977871
494.289429	1307.391846	32372.283203	12481.974609	35.971745
494.640869	1306.950562	31790.261719	12269.589844	35.962761
494.992218	1303.752808	31337.705078	12091.279297	35.917770
495.343567	1308.053345	30892.642578	11928.517578	35.898636
495.694855	1309.266479	30385.390625	11732.120117	35.846775
496.046112	1310.589722	29761.578125	11502.091797	35.821259
496.397339	1310.479492	28948.871094	11210.862305	35.821125
496.748535	1314.008179	28032.728516	10862.070313	35.735477
497.099670	1311.030884	27087.691406	10513.277344	35.699917
497.450806	1309.817871	26246.529297	10204.624023	35.669525
497.801880	1306.840576	25569.789063	9930.486328	35.542446
498.152924	1311.582275	24976.521484	9724.386719	35.549656
498.503937	1313.897827	24514.037109	9573.865234	35.603096
498.854889	1314.449219	24176.052734	9445.176758	35.564991
499.205841	1312.243774	23892.431641	9337.551758	35.541370
499.556702	1311.140991	23686.552734	9271.498047	35.576359
499.907562	1307.943115	23485.634766	9195.741211	35.566360
500.258362	1310.148560	23315.595703	9134.208008	35.555103
500.609161	1309.707520	23158.457031	9080.726563	35.567341
500.959900	1308.494507	22990.400391	9013.900391	35.538414
501.310608	1307.171265	22819.037109	8946.524414	35.512276
501.661255	1307.171265	22611.285156	8866.246094	35.481762
502.011902	1309.266602	22391.291016	8789.716797	35.482601
502.362488	1311.913086	22170.857422	8707.785156	35.456596
502.713043	1309.487061	21960.457031	8631.036133	35.453777
503.063568	1309.817871	21776.964844	8554.948242	35.398830
503.414063	1310.369263	21571.416016	8484.262695	35.407318
503.764496	1309.487061	21409.425781	8422.179688	35.386635
504.114899	1307.722656	21250.632813	8381.929688	35.472290
504.465271	1306.950684	21128.449219	8329.109375	35.426983
504.815613	1310.699951	21029.423828	8282.573242	35.356613
505.165894	1314.559570	20931.613281	8258.424805	35.397083
505.516174	1314.890381	20892.464844	8243.096680	35.388481
505.866394	1313.125977	20881.437500	8223.798828	35.315632
506.216583	1311.802856	20873.714844	8217.182617	35.300129
506.566711	1311.802734	20907.458984	8227.989258	35.294487
506.916840	1310.810303	20949.033203	8246.074219	35.315128
507.266907	1311.251343	21002.847656	8262.726563	35.301735
507.616882	1312.464355	21083.457031	8281.141602	35.246979
507.966858	1310.589966	21133.298828	8295.476563	35.236794
508.316803	1311.251587	21188.214844	8320.398438	35.262665
508.666748	1311.030884	21251.291016	8341.680664	35.258568
509.016632	1309.707642	21313.376953	8353.039063	35.210197
509.366486	1309.046021	21402.917969	8376.305664	35.171223
509.716309	1306.840454	21490.474609	8409.166992	35.188541
510.066040	1308.715088	21588.066406	8440.595703	35.168190
510.415771	1308.935669	21689.849609	8487.020508	35.219643
510.765503	1303.863037	21797.253906	8521.645508	35.220051
511.115173	1302.870483	21897.271484	8546.347656	35.172070
511.464752	1302.650024	21996.625000	8568.841797	35.112598
511.814270	1304.965820	22078.666016	8602.916992	35.130726
512.163818	1302.980835	22163.134766	8631.366211	35.131020
512.513306	1300.444580	22225.990234	8645.150391	35.099236
512.862793	1297.797974	22280.796875	8656.287109	35.068817
513.212219	1294.931030	22320.494141	8669.189453	35.072823
513.561646	1295.482178	22372.982422	8684.848633	35.058079
513.911011	1294.710449	22402.203125	8699.736328	35.082451
514.260315	1298.128906	22437.380859	8699.625977	35.013050
514.609558	1299.893188	22506.414063	8728.076172	35.027824
514.958801	1300.665283	22600.585938	8763.694336	35.037827
515.308044	1304.193970	22745.705078	8811.663086	35.013714
515.657227	1303.311890	22949.488281	8866.357422	34.939407
516.006348	1307.171387	23197.712891	8944.761719	34.889912
516.355408	1308.935669	23468.322266	9039.375000	34.885620
516.704529	1306.950684	23702.210938	9120.754883	34.890438
517.053467	1310.810181	23927.384766	9186.478516	34.822552
517.402466	1309.817627	24100.404297	9252.862305	34.852306
517.751404	1310.589600	24227.660156	9299.288086	34.859161
518.100281	1315.882813	24354.253906	9342.073242	34.838360
518.449219	1316.764893	24445.224609	9374.494141	34.839024
518.798035	1314.228638	24541.933594	9412.758789	34.865822
519.146851	1311.471924	24637.761719	9437.129883	34.834766
519.495544	1311.582275	24703.267578	9466.351563	34.861828
519.844299	1311.582031	24792.478516	9490.832031	34.833637
520.192932	1310.589600	24892.824219	9517.958008	34.803185
520.541626	1311.912964	24987.878906	9548.944336	34.790688
520.890198	1313.236084	25089.660156	9584.562500	34.787933
521.238770	1315.993042	25211.404297	9605.513672	34.690845
521.587280	1313.897827	25350.234375	9640.801758	34.642986
521.935791	1315.000488	25468.556641	9679.507813	34.630543
522.284180	1312.905273	25587.652344	9722.182617	34.642082
522.632629	1310.810181	25735.308594	9764.307617	34.610729
522.981018	1313.346436	25881.085938	9814.591797	34.603283
523.329346	1309.376709	26049.583984	9884.064453	34.658916
523.677551	1312.795288	26239.253906	9965.555664	34.713158
524.025818	1310.810303	26502.146484	10053.001953	34.703167
524.374023	1305.848267	26813.333984	10156.767578	34.699299
524.722229	1304.304443	27208.441406	10292.843750	34.699242
525.070374	1302.760376	27733.115234	10464.648438	34.664261
525.418457	1301.878174	28432.574219	10707.467773	34.667706
525.766541	1303.532227	29419.845703	11056.701172	34.688648
526.114563	1305.406860	30673.535156	11493.600586	34.691326
526.462585	1304.414429	32059.880859	12012.543945	34.816998
526.810547	1302.319214	33429.792969	12527.626953	34.939899
527.158447	1303.311523	34649.191406	12980.957031	35.019756
527.506348	1306.509521	35670.535156	13352.797852	35.054935
527.854065	1305.406860	36507.835938	13650.976563	35.070221
528.201904	1305.296631	37179.289063	13887.510742	35.073357
528.549622	1304.965820	37700.105469	14079.605469	35.099850
528.897339	1304.965820	38087.820313	14208.954102	35.081528
529.245056	1305.848022	38392.945313	14293.091797	35.018227
529.592712	1304.965942	38621.097656	14360.909180	34.987396
529.940369	1302.209106	38808.785156	14429.718750	35.000557
530.287903	1298.239258	39002.093750	14499.742188	35.013668
530.635437	1300.003662	39242.042969	14575.391602	34.988598
530.982910	1296.254272	39534.929688	14654.455078	34.933743
531.330383	1298.349487	39778.742188	14749.732422	34.956459
531.677795	1296.364624	39893.535156	14805.750000	35.000973
532.025208	1296.805664	39896.734375	14793.840820	34.966476
532.372498	1296.144043	39700.453125	14717.201172	34.946747
532.719788	1294.379639	39259.023438	14563.812500	34.952080
533.067078	1295.261841	38522.738281	14297.614258	34.926762
533.414307	1297.577637	37499.183594	13933.824219	34.905209
533.761536	1299.782959	36364.812500	13496.593750	34.783401
534.108643	1298.790649	35301.566406	13082.741211	34.655846
534.455811	1298.349487	34402.292969	12743.983398	34.574833
534.802856	1298.459717	33658.390625	12478.556641	34.549198
535.149902	1300.996094	33076.042969	12261.982422	34.495579
535.496887	1300.665161	32572.203125	12084.773438	34.485378
535.843811	1298.790527	32153.277344	11937.889648	34.481533
536.190796	1300.113892	31807.683594	11824.308594	34.496994
536.537659	1300.885742	31473.228516	11724.071289	34.545494
536.884460	1301.216553	31187.402344	11615.563477	34.512089
537.231323	1303.973267	30885.589844	11511.354492	34.505825
537.578064	1306.950806	30573.738281	11396.451172	34.474232
537.924805	1308.274048	30209.177734	11267.431641	34.459675
538.271423	1307.502197	29892.691406	11151.094727	34.435989
538.618164	1308.935547	29722.433594	11064.640625	34.334755
538.964783	1312.795288	29751.984375	11060.561523	34.275826
539.311279	1312.354126	29938.345703	11128.929688	34.292522
539.657776	1313.787720	30217.447266	11237.217773	34.332779
540.004333	1312.023193	30474.714844	11322.017578	34.324657
540.350769	1311.030762	30722.937500	11408.140625	34.330006
540.697144	1310.920410	30910.619141	11468.018555	34.314869
541.043518	1307.501953	31016.039063	11508.377930	34.336514
541.389893	1307.832764	30991.449219	11505.732422	34.355312
541.736145	1312.243652	30870.919922	11461.291992	34.335262
542.082458	1311.030762	30728.115234	11403.509766	34.308224
542.428711	1313.677490	30558.958984	11340.985352	34.286926
542.774902	1311.030884	30414.613281	11280.004883	34.253426
543.121033	1314.559570	30309.851563	11237.879883	34.223900
543.467102	1315.772705	30228.580078	11196.418945	34.173943
543.813171	1314.449341	30173.115234	11173.482422	34.163162
544.159180	1314.118530	30124.265625	11162.564453	34.183952
544.505127	1316.103394	30064.390625	11125.954102	34.123253
544.851135	1315.882813	29946.505859	11091.879883	34.145248
545.197021	1314.228760	29733.347656	11005.315430	34.100590
545.542908	1312.574585	29327.765625	10873.098633	34.126213
545.888733	1313.125977	28734.279297	10682.548828	34.168598
546.234558	1312.574585	27955.421875	10417.231445	34.172989
546.580322	1314.449219	27086.472656	10105.931641	34.112503
546.926025	1314.449219	26190.398438	9786.361328	34.056637
547.271667	1315.331421	25366.664063	9495.462891	34.011135
547.617371	1312.464233	24569.062500	9226.397461	34.028767
547.962952	1309.376709	23836.634766	8976.960938	34.036919
548.308533	1316.875244	23176.984375	8749.357422	34.000206
548.654053	1318.749878	22597.058594	8534.767578	33.912552
548.999573	1316.985596	22105.242188	8355.354492	33.857430
549.344971	1317.426514	21676.394531	8202.736328	33.819538
549.690430	1313.456787	21303.451172	8077.577148	33.837528
550.035767	1313.897827	20995.458984	7970.393066	33.820972
550.381104	1314.338867	20720.439453	7868.610840	33.774284
550.726440	1308.715088	20440.898438	7782.929199	33.839390
551.071655	1308.053345	20193.007813	7690.630859	33.797157
551.416931	1305.737671	19905.525391	7595.245605	33.814945
551.762085	1305.958130	19601.064453	7494.235840	33.824772
552.107178	1303.752686	19293.402344	7379.663086	33.774475
552.452332	1302.539795	18985.742188	7270.602539	33.749893
552.797424	1304.304077	18713.041016	7171.357910	33.701778
553.142395	1299.011108	18451.914063	7077.957031	33.690777
553.487366	1300.113770	18255.408203	7010.799805	33.680843
553.832336	1301.106323	18065.296875	6941.548340	33.645775
554.177185	1299.782959	17916.652344	6888.397461	33.632172
554.522095	1301.326782	17807.810547	6838.664551	33.546440
554.866943	1304.745361	17704.042969	6798.415039	33.499424
555.211731	1306.068604	17624.757813	6758.938477	33.414879
555.556396	1300.885742	17547.566406	6734.898926	33.446915
555.901123	1302.760376	17476.771484	6716.042480	33.469017
556.245789	1303.201538	17389.656250	6693.767090	33.509964
556.590454	1305.406860	17291.294922	6663.772461	33.519352
556.934998	1303.642700	17206.494141	6624.404785	33.457912
557.279541	1307.722656	17093.353516	6576.767090	33.378738
557.624023	1306.620117	16953.750000	6531.114746	33.389477
557.968567	1311.361694	16822.525391	6482.263184	33.336643
558.312988	1313.567017	16687.994141	6444.109375	33.370625
558.657349	1316.213745	16581.359375	6399.669434	33.301064
559.001770	1315.000732	16496.228516	6375.079102	33.331154
559.346069	1317.757568	16420.470703	6347.400391	33.302910
559.690308	1318.970459	16366.767578	6335.380859	33.336510
560.034485	1318.529541	16310.417969	6319.722656	33.359329
560.378723	1321.727173	16279.982422	6297.336914	33.263306
560.722900	1318.970459	16237.306641	6277.267090	33.236259
561.067017	1315.662354	16214.701172	6268.776855	33.244522
561.411072	1315.110962	16186.361328	6257.859375	33.236942
561.755127	1317.206055	16158.242188	6251.683594	33.248875
562.099182	1316.213745	16149.860352	6251.242676	33.269154
562.443115	1316.103394	16154.382813	6265.909180	33.358353
562.787048	1318.198486	16166.845703	6268.555664	33.338776
563.130920	1317.536865	16204.117188	6278.920898	33.327896
563.474792	1314.559570	16275.242188	6296.674805	33.301392
563.818604	1309.817749	16366.658203	6319.170898	33.269615
564.162354	1314.890259	16455.423828	6357.986816	33.308582
564.506042	1312.133545	16567.021484	6403.970215	33.378395
564.849731	1311.582153	16664.722656	6436.721191	33.381699
565.193420	1309.376709	16735.189453	6464.840820	33.421021
565.537048	1304.304077	16789.001953	6486.233398	33.464840
565.880615	1304.965820	16818.666016	6503.545898	33.509609
566.224121	1303.201416	16827.597656	6515.125000	33.572472
566.567627	1303.642578	16828.146484	6525.491211	33.636169
566.911072	1306.509766	16823.736328	6530.231934	33.664021
567.254517	1305.848022	16856.265625	6540.157227	33.660248
567.597839	1307.612305	16881.408203	6558.352051	33.715221
567.941223	1305.847900	16914.271484	6572.025391	33.739330
568.284485	1305.186401	16938.753906	6587.573730	33.788750
568.627808	1306.289063	17000.615234	6602.571289	33.746479
568.970947	1304.855591	17070.197266	6621.758301	33.725262
569.314148	1310.589600	17146.837891	6649.216309	33.711437
569.657288	1314.449341	17232.078125	6661.015625	33.588963
570.000366	1315.772461	17313.900391	6690.568359	33.596405
570.343445	1316.213745	17378.958984	6714.056641	33.604733
570.686462	1319.301392	17399.359375	6723.319824	33.606960
571.029419	1319.521851	17410.937500	6731.700684	33.633949
571.372314	1314.559570	17389.546875	6721.997070	33.638828
571.715210	1314.780029	17336.173828	6703.691895	33.635727
572.058105	1315.441650	17284.566406	6694.758789	33.685738
572.400879	1318.308716	17266.921875	6689.245605	33.676514
572.743713	1316.985474	17250.712891	6674.688965	33.624924
573.086426	1315.882813	17256.779297	6672.152344	33.600803
573.429077	1315.993042	17280.599609	6661.345215	33.482517
573.771790	1313.456787	17288.978516	6655.611816	33.439629
574.114441	1308.825317	17280.158203	6647.671875	33.427685
574.457031	1309.376709	17246.634766	6630.579590	33.388447
574.799561	1306.399414	17192.378906	6609.076660	33.379604
575.142029	1312.684937	17144.080078	6583.824219	33.295479
575.484436	1316.103271	17057.294922	6553.278809	33.270515
575.826904	1311.471802	16940.076172	6514.352539	33.290756
576.169250	1314.890381	16794.847656	6473.110840	33.321930
576.511597	1309.266357	16627.013672	6408.601074	33.290371
576.853943	1303.863037	16422.126953	6343.319336	33.333565
577.196167	1302.980835	16207.315430	6260.505371	33.262299
577.538391	1300.885742	15981.145508	6181.660156	33.247192
577.880554	1295.923462	15774.605469	6104.249023	33.209694
578.222717	1297.798096	15546.340820	6020.883301	33.147846
578.564819	1298.459717	15335.276367	5943.361328	33.090847
578.906860	1297.798096	15149.357422	5869.810059	33.007198
579.248901	1294.489990	14957.482422	5803.536133	33.001892
579.590942	1292.505005	14756.014648	5735.718262	33.001896
579.932861	1296.474854	14573.073242	5667.349121	32.921638
580.274780	1295.813232	14376.127930	5603.832520	32.935139
580.616638	1297.577515	14177.304688	5551.342285	33.026821
580.958496	1300.665161	13971.095703	5487.494629	33.044098
581.300232	1301.988525	13802.267578	5433.681641	33.052807
581.641968	1302.760376	13638.404297	5379.096680	33.045185
581.983704	1300.885620	13495.599609	5328.922852	33.031010
582.325317	1296.915771	13360.736328	5276.764160	32.989952
582.666992	1296.474731	13243.408203	5228.244141	32.910282
583.008606	1298.018555	13132.584961	5195.713379	32.934834
583.350098	1295.482300	13037.419922	5159.765137	32.910095
583.691589	1294.710449	12956.919922	5136.055664	32.938400
584.033081	1295.813232	12896.602539	5114.332031	32.916027
584.374512	1293.276978	12835.179688	5096.798828	32.954029
584.715881	1293.607666	12787.429688	5081.581055	32.956604
585.057190	1291.512451	12741.335938	5070.994629	33.009087
585.398499	1289.086548	12694.800781	5060.739746	33.068104
585.739807	1291.071655	12657.087891	5054.343750	33.109859
586.081055	1291.622803	12628.416992	5053.902344	33.186451
586.422180	1291.622803	12602.281250	5048.829590	33.218285
586.763367	1289.637939	12593.017578	5047.066406	33.241638
587.104431	1289.196777	12593.017578	5051.036133	33.279362
587.445496	1290.189331	12597.098633	5043.317383	33.193226
587.786499	1287.211914	12592.797852	5031.959473	33.122986
588.127502	1283.021484	12621.468750	5031.628418	33.061024
588.468445	1284.234619	12627.754883	5024.571289	32.973331
588.809326	1284.124390	12634.040039	5024.239746	32.952801
589.150208	1287.322266	12639.332031	5022.365234	32.902042
589.491028	1290.740723	12626.099609	5023.578613	32.930920
589.831848	1290.299683	12624.998047	5022.586426	32.927975
590.172546	1291.291992	12613.971680	5024.240234	32.968769
590.513245	1289.307251	12605.810547	5024.240234	33.004303
590.853943	1289.307251	12610.994141	5021.042480	32.960949
591.194458	1290.189331	12623.235352	5021.813965	32.926933
591.535095	1288.645508	12624.227539	5019.719238	32.914707
591.875610	1289.527588	12644.406250	5021.042480	32.862656
592.216125	1291.622803	12648.376953	5021.703613	32.844604
592.556580	1291.071411	12667.343750	5028.209473	32.850288
592.897034	1287.763184	12700.867188	5034.494629	32.828331
593.237366	1287.652954	12718.510742	5038.685059	32.814968
593.577698	1288.535156	12771.110352	5044.970703	32.714226
593.918030	1289.307007	12819.409180	5053.130859	32.643456
594.258301	1292.284302	12873.332031	5069.010254	32.611263
594.598511	1292.063843	12952.838867	5092.388184	32.590664
594.938721	1294.379639	13037.417969	5131.424316	32.675060
595.278809	1299.231567	13118.026367	5160.536621	32.670887
595.618958	1298.790527	13172.391602	5179.834473	32.686325
595.958984	1299.011108	13228.298828	5197.036621	32.676094
596.299011	1302.098633	13252.007813	5211.813477	32.717529
596.638977	1299.011108	13278.141602	5216.885742	32.705833
596.978943	1297.908447	13289.832031	5222.510254	32.727039
597.318848	1300.665161	13285.533203	5215.453125	32.664425
597.658630	1300.113770	13271.526367	5203.653809	32.607182
597.998474	1298.128662	13238.885742	5184.466309	32.546829
598.338257	1297.356934	13184.189453	5173.108398	32.605419
598.677979	1298.680298	13151.439453	5157.669922	32.557735
599.017700	1297.026245	13096.192383	5140.688477	32.575710
599.357361	1300.444580	13052.415039	5126.903809	32.560150
599.696960	1305.737671	13013.156250	5105.841797	32.458939
600.036560	1307.171265	12965.298828	5089.410645	32.442940
600.376038	1303.973389	12926.591797	5073.862305	32.435799
600.715576	1303.422119	12884.029297	5064.599609	32.478241
601.055054	1302.870850	12840.801758	5060.298340	32.565868
601.394409	1301.878174	12806.395508	5047.065918	32.554062
601.733826	1303.752930	12760.414063	5042.655273	32.635181
602.073120	1301.878296	12756.113281	5036.038574	32.600693
602.412415	1297.577515	12743.873047	5033.723145	32.640652
602.751587	1296.915894	12771.220703	5044.639648	32.661880
603.090820	1298.459839	12801.544922	5058.534180	32.687531
603.429993	1293.166748	12848.080078	5066.253418	32.653526
603.769104	1292.063965	12883.807617	5079.707031	32.675350
604.108154	1293.828369	12909.392578	5085.550781	32.643463
604.447205	1296.144165	12946.553711	5097.569824	32.629120
604.786194	1298.349487	12976.877930	5111.023438	32.646870
605.125183	1302.319336	13007.534180	5124.255859	32.651569
605.464111	1300.665039	13028.486328	5126.791992	32.624363
605.802979	1299.562378	13050.870117	5138.702148	32.669891
606.141846	1300.113770	13074.911133	5148.186035	32.680584
606.480652	1297.908325	13114.829102	5159.764160	32.680729
606.819336	1295.702881	13167.648438	5173.217285	32.661156
607.158020	1295.261719	13228.960938	5198.580078	32.708370
607.496765	1300.003296	13292.807617	5223.170898	32.712677
607.835388	1301.216431	13331.182617	5237.727051	32.722542
608.173950	1305.076050	13348.386719	5236.734863	32.645996
608.512512	1303.201416	13325.559570	5233.647461	32.692802
608.851013	1301.216431	13280.789063	5211.923340	32.644798
609.189514	1304.965820	13184.080078	5174.872070	32.577396
609.527893	1305.186279	13073.698242	5132.527344	32.521877
609.866333	1304.414673	12945.449219	5087.316406	32.496269
610.204712	1303.091309	12806.505859	5034.605469	32.438320
610.542969	1304.304321	12678.920898	4996.782227	32.462440
610.881226	1305.627563	12564.238281	4963.479980	32.489380
611.219482	1303.532349	12470.395508	4935.029297	32.520298
611.557678	1301.547363	12383.722656	4901.285645	32.482235
611.895813	1299.011108	12310.279297	4874.269043	32.469082
612.233948	1298.018555	12237.611328	4851.111816	32.479210
612.571960	1302.098633	12167.256836	4835.122070	32.516998
612.910034	1306.619873	12098.998047	4809.538574	32.457340
613.247986	1306.730103	12027.210938	4785.720215	32.451813
613.585938	1308.935547	11942.411133	4754.072266	32.398972
613.923828	1305.737671	11822.654297	4725.070313	32.512688
614.261658	1308.715088	11693.414063	4673.903809	32.405258
614.599487	1306.730103	11548.295898	4622.958008	32.380089
614.937317	1307.943115	11424.239258	4575.981445	32.304691
615.275024	1307.612305	11309.556641	4531.431641	32.231926
615.612732	1306.399414	11213.178711	4495.813477	32.194260
615.950378	1305.627441	11119.227539	4470.230469	32.247116
616.288025	1302.429443	11032.443359	4437.810547	32.223808
616.625549	1303.421997	10971.901367	4422.372559	32.258957
616.963074	1304.414307	10919.523438	4405.059570	32.247635
617.300537	1305.517212	10871.445313	4391.826660	32.263569
617.638000	1305.296631	10823.035156	4372.969727	32.231113
617.975464	1309.266357	10790.614258	4357.751953	32.152451
618.312744	1310.369141	10753.563477	4348.378906	32.171421
618.650024	1309.486938	10720.259766	4336.910156	32.169765
618.987305	1308.274048	10683.428711	4324.560059	32.173191
619.324585	1305.958374	10658.507813	4313.092285	32.153091
619.661743	1302.429565	10644.723633	4300.189941	32.088055
619.998901	1299.783081	10616.824219	4292.581543	32.121769
620.336060	1298.018799	10589.255859	4276.040527	32.051941
620.673096	1295.151611	10567.752930	4261.815430	31.993868
621.010193	1298.459717	10548.125000	4252.662598	31.938484
621.347168	1296.254272	10527.833984	4249.905273	31.995073
621.684082	1297.908447	10493.208984	4238.105957	31.975000
622.020996	1297.356934	10457.591797	4221.344727	31.920448
622.357849	1298.128906	10433.993164	4213.735840	31.913860
622.694641	1299.562500	10412.929688	4203.921387	31.869219
623.031433	1303.863037	10391.095703	4198.077148	31.849236
623.368164	1305.296631	10386.905273	4202.818848	31.905386
623.704895	1306.619873	10376.759766	4199.069824	31.889807
624.041504	1307.832886	10383.927734	4201.275879	31.879822
624.378174	1305.737671	10402.343750	4208.774414	31.913403
624.714783	1311.692505	10445.901367	4223.440430	31.877398
625.051331	1308.715210	10478.101563	4232.924316	31.890999
625.387756	1309.156250	10514.711914	4245.825684	31.901056
625.724304	1309.486938	10534.119141	4259.389160	31.978537
626.060669	1310.589600	10552.314453	4266.556641	31.985016
626.397034	1310.369141	10560.364258	4277.915039	32.081593
626.733337	1310.369141	10564.333984	4283.428223	32.127407
627.069641	1307.502075	10570.950195	4280.892090	32.098091
627.405884	1309.486938	10560.474609	4280.230469	32.112720
627.742126	1308.935669	10550.439453	4278.796875	32.136127
628.078308	1308.053467	10538.639648	4279.679199	32.193253
628.414429	1304.524780	10513.057617	4266.225586	32.162567
628.750488	1304.414551	10493.319336	4259.499023	32.159267
629.086548	1301.767944	10460.126953	4259.389160	32.294224
629.422546	1299.121338	10419.546875	4258.176758	32.444267
629.758545	1297.798096	10365.293945	4247.479980	32.530281
630.094421	1294.710571	10318.648438	4220.352539	32.420902
630.430298	1293.497437	10264.283203	4198.408691	32.381901
630.766113	1293.276855	10200.986328	4180.985352	32.418083
631.101929	1292.615479	10124.567383	4156.834961	32.430199
631.437622	1293.166626	10043.185547	4135.332520	32.481827
631.773376	1288.865967	9950.115234	4097.950195	32.432785
632.109070	1292.725586	9856.714844	4067.845703	32.404526
632.444641	1292.946167	9763.423828	4041.931641	32.453724
632.780273	1293.387329	9687.446289	4015.245605	32.426010
633.115784	1294.489990	9618.195313	3995.286377	32.447044
633.451294	1297.246826	9549.165039	3968.159180	32.367172
633.786682	1299.121338	9481.458008	3943.789551	32.321674
634.122131	1302.650146	9403.604492	3925.594238	32.378212
634.457458	1301.106323	9351.556641	3913.354248	32.448471
634.792847	1303.311768	9290.575195	3892.512207	32.416615
635.128113	1303.201538	9227.279297	3865.936279	32.341114
635.463318	1304.414429	9176.002930	3856.011963	32.415283
635.798584	1300.775513	9127.813477	3843.771484	32.489891
636.133728	1301.657715	9074.221680	3819.842285	32.398376
636.468872	1304.965820	9012.358398	3798.118408	32.347549
636.803955	1305.737793	8963.067383	3773.748535	32.230698
637.139038	1303.201416	8913.554688	3764.044678	32.335464
637.473999	1305.406860	8849.266602	3742.982910	32.312054
637.808899	1305.958374	8783.101563	3716.848145	32.243462
638.143799	1307.391846	8715.173828	3695.896484	32.243179
638.478638	1309.156128	8654.302734	3668.879395	32.126289
638.813538	1309.156006	8589.573242	3653.331543	32.198368
639.148315	1305.516968	8517.233398	3629.512207	32.225269
639.483032	1306.509521	8454.048828	3595.217529	32.020924
639.817749	1303.421875	8386.782227	3572.280762	32.030827
640.152405	1302.098633	8323.044922	3543.168945	31.919775
640.487000	1301.547363	8252.250000	3517.695801	31.883804
640.821594	1301.326782	8187.410156	3503.690918	31.982828
641.156128	1299.121338	8138.338379	3481.746582	31.913380
641.490662	1297.687744	8078.791504	3456.604492	31.837248
641.825134	1298.569946	8018.140625	3438.409668	31.844889
642.159546	1298.459717	7977.560059	3423.853760	31.821560
642.493896	1302.760376	7925.291016	3401.909180	31.697081
642.828186	1301.216553	7883.938477	3383.714355	31.635817
643.162537	1299.562622	7849.974609	3367.944824	31.576370
643.496765	1293.718140	7814.246094	3349.639893	31.529991
643.830994	1292.505005	7780.061523	3348.647217	31.693628
644.165100	1293.387329	7751.059570	3338.502197	31.669537
644.499268	1292.615479	7734.409180	3334.642822	31.699669
644.833313	1291.071655	7720.955566	3332.106445	31.742950
645.167358	1288.535278	7705.075684	3327.585449	31.778030
645.501343	1287.652954	7682.139648	3321.079346	31.799681
645.835327	1287.873535	7662.069824	3313.139893	31.772890
646.169189	1289.638062	7648.727539	3314.353027	31.839701
646.503052	1289.417358	7636.818359	3321.851563	32.019943
646.836914	1293.387207	7626.342285	3315.124512	31.924074
647.170654	1295.041260	7611.676270	3315.125000	31.980379
647.504395	1296.584961	7607.376465	3314.242676	31.971548
647.838074	1296.695435	7601.641602	3306.964600	31.884001
648.171753	1299.562500	7598.995605	3302.443359	31.794621
648.505371	1300.665283	7600.097656	3305.530762	31.826128
648.838928	1301.988525	7603.184570	3309.280518	31.855728
649.172424	1304.635010	7610.131836	3312.147217	31.837494
649.505920	1302.870728	7606.382324	3315.565918	31.929745
649.839294	1308.274048	7598.001465	3315.455811	31.912062
650.172729	1310.920532	7596.127441	3317.881592	31.931503
650.506104	1314.890381	7600.207520	3316.889404	31.851995
650.839355	1317.536987	7584.989746	3310.493652	31.798512
651.172668	1318.308838	7565.913086	3307.516357	31.839523
651.505859	1316.875244	7542.977051	3301.230713	31.871557
651.839111	1319.080688	7527.979980	3296.048096	31.840866
652.172241	1321.175903	7515.959961	3294.614502	31.856455
652.505371	1319.521729	7502.616211	3294.394043	31.939869
652.838379	1320.845093	7475.930176	3296.599365	32.099545
653.171387	1319.632202	7461.924805	3284.358887	31.986862
653.504333	1318.088379	7438.988281	3268.479980	31.864458
653.837280	1318.970459	7418.918945	3268.479492	31.959436
654.170227	1319.080811	7399.731934	3266.715088	32.030025
654.503052	1315.662354	7379.772461	3254.474609	31.971916
654.835876	1315.441895	7365.657715	3247.527588	31.934162
655.168579	1312.243896	7348.234375	3248.409912	32.077023
655.501343	1312.574707	7332.906250	3245.212158	32.101845
655.833984	1310.920532	7323.863770	3249.512695	32.240318
656.166626	1312.464233	7319.673340	3251.607910	32.280277
656.499268	1313.456787	7342.720215	3261.752686	32.313995
656.831787	1312.684937	7376.904785	3269.361572	32.265926
657.164307	1311.912964	7422.889160	3288.107910	32.338451
657.496765	1311.140991	7469.424316	3303.545654	32.353249
657.829224	1311.361572	7518.275391	3316.228027	32.300533
658.161621	1315.110718	7566.463379	3328.136963	32.201450
658.493958	1317.095703	7605.831055	3339.384766	32.157326
658.826233	1310.920410	7635.494629	3343.905762	32.144226
659.158508	1310.479370	7661.739746	3345.339600	32.038685
659.490723	1311.140991	7680.155273	3342.251953	31.890509
659.822876	1310.479492	7699.012695	3333.320313	31.663620
660.154968	1306.399414	7700.555664	3341.259766	31.823751
660.487061	1307.943115	7699.343750	3344.567627	31.865074
660.819153	1303.642700	7693.719727	3338.171875	31.838882
661.151123	1305.406982	7679.934570	3328.247314	31.733181
661.483093	1308.935791	7668.576660	3330.342529	31.784922
661.815002	1310.479614	7652.807129	3326.703613	31.789968
662.146851	1312.354126	7623.915039	3313.801270	31.710810
662.478760	1314.008057	7595.354980	3302.002686	31.649179
662.810486	1311.802612	7558.523926	3285.571777	31.596882
663.142212	1309.597168	7505.482910	3264.399658	31.550009
663.473938	1306.730103	7453.654785	3239.918945	31.449690
663.805603	1306.840332	7388.263184	3218.085449	31.427597
664.137207	1307.060913	7295.854980	3186.767822	31.387070
664.468689	1306.730103	7208.187500	3159.641113	31.397514
664.800293	1304.965820	7131.107910	3130.087891	31.326426
665.131775	1304.083496	7048.623535	3103.512207	31.324156
665.463196	1302.539795	6980.255859	3082.780762	31.354879
665.794617	1304.965820	6923.795410	3067.562988	31.369473
666.125916	1309.156250	6865.902344	3050.029785	31.329010
666.457275	1308.715210	6822.564941	3042.531006	31.444742
666.788574	1305.627563	6776.801270	3037.238037	31.649706
667.119812	1306.730225	6747.910645	3022.020508	31.524229
667.450928	1307.612305	6727.731445	3013.418945	31.471756
667.782104	1311.582153	6713.063965	3008.015625	31.406816
668.113159	1308.384155	6691.230469	3002.832520	31.478670
668.444214	1304.414307	6669.286621	2998.642334	31.580027
668.775208	1303.311523	6650.980469	2992.687744	31.590891
669.106201	1304.414307	6636.645996	2987.394775	31.562405
669.437134	1303.311646	6629.367676	2984.086426	31.557587
669.768005	1302.870605	6622.200195	2978.131592	31.493837
670.098877	1300.444702	6610.951660	2973.500244	31.504631
670.429688	1303.201416	6591.874023	2967.104248	31.461634
670.760437	1299.893311	6567.504395	2965.340088	31.616735
671.091187	1298.349487	6559.564941	2957.731445	31.539898
671.421814	1296.033813	6542.692871	2951.446045	31.551739
671.752441	1295.261963	6521.189941	2945.822266	31.584063
672.083008	1292.946167	6507.185059	2940.087891	31.589304
672.413574	1293.607788	6493.731934	2933.361328	31.532970
672.744080	1296.033813	6466.936035	2926.193359	31.525631
673.074524	1293.828369	6440.581055	2921.341553	31.622135
673.404968	1297.467407	6416.541504	2910.865723	31.517385
673.735352	1301.437256	6396.582520	2901.161377	31.397026
674.065613	1303.752930	6375.410156	2894.324463	31.361969
674.395935	1302.429688	6351.700684	2884.510498	31.332855
674.726196	1301.657837	6320.494141	2872.270020	31.294350
675.056335	1304.414551	6304.504395	2868.520752	31.281563
675.386536	1304.745361	6292.815430	2860.691406	31.193346
675.716614	1306.840454	6281.346680	2857.493408	31.171997
676.046692	1308.274048	6279.913086	2858.927246	31.189980
676.376770	1310.259033	6268.334961	2854.957275	31.155193
676.706726	1312.023315	6257.638184	2860.470703	31.309504
677.036621	1310.038452	6262.820801	2860.029785	31.295366
677.366516	1310.258911	6260.616211	2868.851563	31.484447
677.696411	1314.338989	6274.068359	2867.417969	31.313784
678.026184	1313.787720	6291.381836	2876.680908	31.398565
678.355957	1312.464355	6305.166016	2886.164551	31.520012
678.685669	1312.464355	6330.639160	2892.780762	31.491856
679.015320	1309.817749	6346.187500	2899.176514	31.557627
679.344971	1306.730103	6362.838379	2906.564697	31.641621
679.674561	1305.406860	6371.991211	2909.983643	31.669792
680.004150	1301.547241	6394.928711	2918.805176	31.752148
680.333618	1299.231689	6410.145996	2924.319092	31.796413
680.663086	1299.672729	6424.701660	2924.208740	31.698086
680.992493	1298.680298	6430.987305	2923.216064	31.653128
681.321899	1298.569824	6429.002930	2927.958008	31.759272
681.651184	1298.128784	6429.994629	2932.589355	31.849247
681.980530	1296.585083	6419.849609	2929.611816	31.874729
682.309753	1295.372070	6412.682129	2926.303711	31.870878
682.638977	1290.850952	6387.650391	2913.071045	31.828213
682.968079	1288.314697	6361.735840	2905.792969	31.881413
683.297241	1288.976318	6340.563965	2899.728027	31.886047
683.626343	1288.865845	6318.619629	2887.597900	31.785492
683.955383	1293.056396	6279.803711	2878.445068	31.792042
684.284363	1294.048950	6252.235352	2859.588623	31.574844
684.613281	1292.284546	6209.890137	2849.994873	31.676195
684.942139	1296.144043	6166.111816	2836.210938	31.623760
685.271057	1299.231567	6128.619629	2819.008301	31.469343
685.599792	1301.657593	6088.370117	2809.304199	31.496494
685.928589	1305.737671	6056.721191	2797.174316	31.392166
686.257324	1310.810181	6019.118164	2778.648682	31.175499
686.585999	1310.699951	5994.527344	2764.313232	31.034733
686.914612	1310.810303	5948.323242	2742.479248	30.871483
687.243164	1310.369141	5912.043457	2728.474609	30.817163
687.571777	1307.281494	5879.072754	2716.455078	30.823229
687.900269	1308.825317	5843.344727	2704.876465	30.787189
688.228699	1309.707520	5811.365234	2687.894287	30.615095
688.557129	1305.186401	5783.466309	2674.551270	30.577921
688.885498	1306.950806	5757.552246	2664.847168	30.510401
689.213867	1310.920532	5727.668457	2656.246094	30.459641
689.542114	1311.140991	5706.827148	2651.724609	30.497711
689.870361	1310.369141	5686.095703	2637.720215	30.334415
690.198608	1305.737671	5651.470215	2625.590332	30.371237
690.526794	1305.296631	5620.042969	2613.901123	30.328655
690.854858	1302.870605	5598.098633	2607.285156	30.368925
691.182922	1300.775513	5560.605957	2597.360596	30.437481
691.510986	1300.224121	5533.919922	2585.892090	30.367510
691.838928	1297.908447	5499.404785	2569.792236	30.272163
692.166931	1297.687866	5463.015137	2559.536865	30.294115
692.494812	1296.695557	5415.708496	2542.775391	30.251905
692.822632	1295.702881	5372.591309	2527.006592	30.202045
693.150452	1293.056396	5328.923828	2517.633545	30.342354
693.478149	1296.144043	5291.430664	2507.708740	30.324850
693.805908	1294.379639	5266.067871	2504.180176	30.460611
694.133606	1294.710449	5228.244141	2497.563721	30.579458
694.461243	1296.585083	5198.580078	2492.601318	30.651403
694.788818	1295.261841	5180.605957	2488.411377	30.708979
695.116333	1293.938477	5170.019531	2489.072998	30.833580
695.443848	1295.261719	5164.505371	2491.388672	30.913715
695.771301	1292.284302	5178.620605	2496.571533	30.987724
696.098755	1289.748047	5203.322266	2505.282959	31.059458
696.426147	1293.166626	5236.514160	2520.831543	31.132557
696.753418	1293.717896	5275.661133	2542.555176	31.362507
697.080688	1297.687744	5332.451660	2564.168457	31.389215
697.407898	1298.569946	5386.485352	2578.945068	31.320978
697.735107	1301.768066	5424.308594	2593.501221	31.333426
698.062317	1303.201660	5465.219727	2611.806641	31.441597
698.389404	1306.289307	5499.735352	2620.628418	31.342695
698.716492	1305.407104	5531.273438	2627.685547	31.290115
699.043457	1303.863281	5551.122559	2631.544922	31.259727
699.370483	1305.406982	5568.545410	2638.823242	31.277807
699.697388	1309.597412	5572.294434	2643.233887	31.286211
700.024292	1313.677490	5568.766113	2640.146240	31.173702
700.351135	1314.008423	5560.936523	2637.940918	31.173885
700.677917	1318.860352	5549.137695	2630.441895	31.004623
701.004639	1319.191162	5533.699219	2627.023682	31.031679
701.331299	1319.963013	5514.731934	2615.444824	30.883268
701.658020	1321.286133	5491.244629	2610.041748	30.905718
701.984619	1319.963013	5453.972168	2597.580811	30.905054
702.311218	1319.742432	5411.186523	2579.826904	30.798037
702.637756	1319.191040	5359.027344	2557.883057	30.661936
702.964233	1319.411621	5287.901855	2535.607910	30.646322
703.290649	1316.213867	5216.665527	2506.385498	30.513687
703.617065	1319.080933	5132.086914	2474.847900	30.311178
703.943481	1320.624756	5047.287109	2444.963623	30.170130
704.269775	1320.735107	4959.289551	2418.167480	30.161219
704.596008	1319.522095	4881.105957	2390.819824	30.079250
704.922241	1317.095947	4814.500977	2361.818359	29.871359
705.248474	1316.323975	4747.565430	2342.630859	29.910658
705.574585	1315.882935	4687.687500	2329.287842	30.055267
705.900696	1316.103271	4637.072266	2317.378174	30.150084
706.226746	1314.559570	4597.925781	2302.822510	30.099077
706.552734	1311.692505	4570.799316	2291.133545	30.052437
706.878723	1306.068604	4551.612305	2285.399414	30.174631
707.204651	1302.649902	4529.888672	2280.106201	30.287697
707.530518	1301.547363	4516.986328	2278.452148	30.381693
707.856323	1302.098633	4510.700684	2271.505127	30.212736
708.182068	1301.988403	4514.008789	2271.505127	30.184013
708.507813	1299.341797	4509.597656	2269.189453	30.210915
708.833496	1301.106201	4522.278809	2272.938721	30.170147
709.159180	1301.878052	4538.268066	2277.018799	30.130507
709.484802	1303.091187	4550.949219	2282.091309	30.142948
709.810303	1303.752563	4569.696289	2281.209229	29.928764
710.135864	1306.178711	4579.620117	2286.392090	29.944429
710.461304	1306.288818	4591.309570	2288.487305	29.899309
710.786743	1305.627319	4600.352051	2289.259277	29.854755
711.112122	1305.847900	4608.181152	2289.920898	29.799324
711.437500	1305.406860	4615.128418	2294.552246	29.886059
711.762817	1308.825195	4614.136230	2297.309082	29.905926
712.088013	1307.171143	4618.546875	2294.331543	29.811186
712.413269	1309.266357	4613.364258	2292.126221	29.746693
712.738403	1312.133423	4616.562012	2289.700195	29.583534
713.063538	1313.125977	4610.276855	2290.141113	29.632103
713.388611	1312.243652	4604.983398	2289.479492	29.678503
713.713623	1309.817749	4597.154297	2290.912842	29.844681
714.038574	1312.243652	4596.713379	2289.810303	29.763302
714.363525	1310.258789	4590.096680	2278.672852	29.526278
714.688477	1305.847900	4579.951660	2270.733154	29.470209
715.013306	1306.730103	4555.581543	2269.740967	29.641579
715.338135	1307.391724	4534.299316	2262.132080	29.586851
715.662842	1306.068604	4507.282227	2250.663574	29.507402
715.987549	1306.950684	4475.633789	2245.591064	29.622412
716.312195	1308.274048	4442.441406	2235.997314	29.600309
716.636841	1303.863037	4403.735840	2226.734131	29.771257
716.961426	1300.003540	4372.087891	2213.501709	29.735451
717.285950	1297.687744	4341.210938	2202.143311	29.717386
717.610474	1293.497437	4300.630371	2189.352051	29.790989
717.934937	1293.056396	4265.012695	2179.978760	29.843048
718.259277	1292.615234	4230.827637	2168.069580	29.795475
718.583679	1291.291992	4202.046875	2153.844238	29.633284
718.908020	1288.535156	4169.406738	2144.029785	29.695688
719.232239	1286.881104	4142.720703	2139.177979	29.844004
719.556519	1287.542725	4115.262695	2129.253418	29.766409
719.880737	1287.322144	4084.717285	2119.549561	29.750086
720.204834	1284.344727	4055.274902	2109.073730	29.763615
720.528931	1288.755615	4025.060303	2096.171631	29.507534
720.852966	1286.440063	3988.890625	2083.490234	29.493607
721.176941	1288.424805	3950.295410	2076.102051	29.591118
721.500916	1289.307129	3919.970703	2068.493164	29.619371
721.824829	1284.675537	3898.798096	2056.804199	29.536819
722.148743	1284.785767	3867.370117	2049.526123	29.611437
722.472534	1288.535034	3844.874268	2046.879517	29.665251
722.796326	1289.417236	3823.701660	2031.441650	29.279446
723.119995	1288.424805	3799.882813	2031.882446	29.602631
723.443665	1293.056396	3787.201172	2034.749390	29.737368
723.767334	1294.820801	3769.006348	2031.993164	29.794546
724.090942	1294.600220	3758.751221	2030.228638	29.853222
724.414551	1299.231689	3752.686035	2031.331421	29.839550
724.737976	1300.223999	3747.503418	2028.574585	29.761646
725.061462	1302.539795	3747.393555	2024.053345	29.511522
725.384888	1302.870728	3747.834717	2028.684937	29.686092
725.708252	1303.311768	3747.503662	2031.110840	29.776674
726.031616	1303.863159	3752.465820	2030.118530	29.659994
726.354858	1302.981079	3753.017090	2028.243896	29.602127
726.678162	1301.878296	3762.721436	2033.316406	29.723068
727.001404	1305.517334	3766.580811	2034.198608	29.608391
727.324463	1307.281860	3771.102051	2036.955322	29.615530
727.647583	1309.928345	3778.269775	2039.601929	29.561293
727.970642	1306.179077	3790.069092	2046.438843	29.802437
728.293701	1308.715210	3792.384766	2049.416016	29.822842
728.616699	1309.707642	3797.126221	2048.864502	29.715822
728.939575	1309.928223	3815.431152	2052.944824	29.655388
729.262512	1305.958252	3825.686768	2053.606689	29.671785
729.585266	1305.627441	3834.950195	2064.082520	29.986488
729.908142	1304.193848	3854.909180	2063.971924	29.786863
730.230896	1302.098633	3868.252197	2065.846680	29.762367
730.553467	1304.193848	3887.329346	2067.611084	29.553898
730.876160	1301.106201	3901.333740	2074.668457	29.749790
731.198792	1296.695313	3912.360840	2078.417480	29.886168
731.521362	1294.159058	3927.357910	2080.292480	29.854694
731.843872	1293.056152	3925.152832	2079.961426	29.896519
732.166321	1289.968506	3925.152832	2078.087158	29.907534
732.488770	1291.732910	3926.476074	2077.756104	29.833010
732.811157	1289.196655	3919.639404	2074.006836	29.835667
733.133484	1288.755615	3912.250732	2077.205078	30.053400
733.455811	1290.299438	3894.386475	2065.516113	29.769232
733.778015	1290.961182	3877.845947	2060.994873	29.766834
734.100281	1289.527710	3869.685547	2055.260498	29.677752
734.422424	1286.660522	3857.666016	2048.974854	29.650436
734.744507	1290.189331	3842.668945	2042.579102	29.476820
735.066589	1288.645508	3832.192627	2036.955200	29.419926
735.388611	1291.512695	3820.062988	2036.734619	29.472300
735.710571	1290.630493	3804.293945	2033.426514	29.550335
736.032532	1292.505005	3794.038574	2027.692383	29.389465
736.354431	1292.284424	3781.467529	2021.075928	29.278341
736.676270	1293.276733	3765.367920	2015.893066	29.230972
736.998108	1298.900879	3751.914551	2008.725464	28.936838
737.319824	1297.687866	3736.807373	2008.725464	29.151403
737.641541	1301.547485	3717.729980	2002.660522	29.017385
737.963135	1302.209106	3696.888672	1993.838745	28.881927
738.284790	1303.311890	3671.305176	1985.347656	28.802269
738.606323	1303.532227	3660.498047	1980.495728	28.721821
738.927856	1305.517334	3650.022217	1974.871826	28.549929
739.249390	1307.391968	3639.436279	1972.776611	28.532246
739.570740	1311.913086	3628.740234	1967.042358	28.277002
739.892212	1310.810303	3617.933350	1960.205322	28.147394
740.213562	1308.604858	3610.214355	1959.433350	28.277105
740.534790	1310.479614	3603.818359	1955.463501	28.124229
740.856079	1306.730347	3588.931641	1951.604004	28.256653
741.177246	1304.304443	3578.455322	1950.390991	28.410013
741.498413	1306.399536	3569.964600	1943.443970	28.143414
741.819580	1307.943237	3562.245605	1938.040771	27.950890
742.140625	1309.707642	3551.989990	1930.101196	27.667952
742.461670	1307.722534	3536.992920	1925.800537	27.725573
742.782654	1306.950562	3515.489990	1919.625366	27.741175
743.103577	1309.155884	3498.728760	1912.347290	27.548361
743.424438	1309.707275	3477.335938	1906.282349	27.522015
743.745300	1305.847900	3448.003418	1900.879150	27.777220
744.066101	1304.745117	3421.758545	1895.806396	27.919580
744.386902	1303.421875	3399.924561	1885.991943	27.787708
744.707581	1302.649902	3381.399170	1881.360474	27.839363
745.028198	1302.429443	3367.504395	1880.808960	28.007677
745.348816	1299.562378	3355.815430	1877.390381	28.101017
745.669373	1297.357056	3337.620605	1873.200317	28.223965
745.989929	1295.261963	3316.558350	1865.150635	28.194216
746.310364	1293.497437	3301.892090	1863.606812	28.386322
746.630798	1294.159180	3289.431641	1856.769775	28.197182
746.951172	1290.409912	3286.343750	1855.005371	28.287283
747.271545	1286.109375	3276.529297	1856.659546	28.664814
747.591858	1290.299683	3275.537109	1852.579590	28.323055
747.912109	1295.261841	3266.936035	1854.895508	28.383678
748.232300	1291.512695	3258.555176	1856.549438	28.725193
748.552429	1294.159180	3245.542725	1860.519165	29.023510
748.872559	1289.637817	3235.066895	1864.158325	29.531815
749.192627	1293.387329	3235.287598	1862.063110	29.284500
749.512695	1293.166626	3236.941162	1861.401245	29.233566
749.832642	1293.938477	3234.956543	1860.408813	29.184187
750.152588	1295.592651	3234.625732	1857.541626	28.980886
750.472473	1295.592651	3243.116455	1852.910400	28.616735
750.792358	1297.246704	3246.204346	1850.704956	28.397654
751.112122	1298.570068	3241.242188	1852.359009	28.506557
751.431824	1300.775391	3249.181641	1852.138428	28.298157
751.751587	1300.334351	3246.093750	1852.248657	28.364983
752.071228	1299.452148	3243.447510	1851.476563	28.396385
752.390869	1300.665161	3240.911133	1851.256348	28.377392
752.710327	1303.752808	3238.595215	1851.145996	28.291357
753.029846	1303.201416	3238.595215	1850.043335	28.254814
753.349304	1304.524780	3236.610596	1850.484375	28.257523
753.668762	1305.186279	3230.545654	1844.639893	28.018333
753.988098	1304.965820	3223.157471	1840.339233	27.910318
754.307434	1304.193848	3213.674072	1841.772705	28.153151
754.626770	1303.862915	3210.917480	1834.274536	27.813133
754.946045	1302.760376	3209.262939	1830.304443	27.670776
755.265259	1299.011108	3208.050293	1831.517456	27.893946
755.584351	1300.885742	3207.277832	1827.216675	27.608746
755.903442	1299.562500	3202.756592	1824.680420	27.591402
756.222534	1298.459839	3192.391357	1825.341919	27.819490
756.541565	1296.033813	3191.288330	1826.444702	27.986261
756.860535	1295.813354	3191.178223	1825.342285	27.938101
757.179443	1294.820923	3185.995605	1823.688232	27.965017
757.498291	1297.467529	3183.789795	1817.953857	27.592651
757.817139	1300.665405	3188.752197	1810.565796	27.006195
758.135925	1302.540039	3184.892822	1810.786255	27.000582
758.454651	1301.657837	3183.569092	1809.904175	27.006924
758.773376	1305.958374	3179.820313	1809.132080	26.852230
759.092041	1306.178955	3185.002930	1812.660767	26.957384
759.410645	1302.540039	3189.193359	1814.866211	27.155289
759.729187	1301.547485	3180.482178	1811.227295	27.125999
760.047607	1301.768188	3185.223633	1813.543213	27.172132
760.366089	1305.406982	3187.319092	1820.049072	27.346766
760.684509	1305.186523	3201.543945	1826.555054	27.493156
761.002869	1305.627563	3227.237305	1832.620117	27.424536
761.321228	1304.193970	3265.833008	1841.883057	27.410194
761.639465	1306.840576	3313.470703	1857.100586	27.422094
761.957642	1306.730225	3365.739990	1872.318237	27.468933
762.275879	1304.965820	3409.297607	1889.631104	27.783892
762.593994	1303.752930	3447.561768	1899.224854	27.776354
762.912109	1302.539673	3483.180176	1906.282349	27.686481
763.230103	1305.296387	3503.359863	1915.434937	27.758003
763.548157	1302.649780	3515.710449	1921.720459	27.973509
763.866150	1302.980713	3529.274170	1925.469849	27.960785
764.184021	1301.326660	3539.860596	1930.983398	28.128086
764.501892	1298.018555	3546.587158	1938.702515	28.492970
764.819702	1295.923340	3544.491699	1942.672485	28.762709
765.137451	1296.474731	3548.792725	1941.128296	28.621784
765.455200	1292.504883	3554.416748	1940.907715	28.666140
765.772888	1293.607666	3544.161377	1936.055786	28.546225
766.090515	1293.828247	3534.347168	1932.637329	28.511656
766.408081	1295.371948	3534.897949	1933.519531	28.494762
766.725586	1293.938477	3525.415283	1932.306519	28.607424
767.043091	1294.269287	3515.600342	1927.344360	28.499807
767.360535	1294.820679	3500.824463	1919.625244	28.322912
767.677917	1293.497437	3468.404053	1911.906006	28.433798
767.995239	1291.512573	3422.089355	1899.445313	28.533718
768.312500	1292.174194	3362.983643	1882.683960	28.515890
768.629822	1290.299561	3302.553467	1857.982910	28.211319
768.947021	1290.520142	3246.204346	1840.780518	28.136463
769.264160	1294.379639	3190.406738	1827.878540	28.137726
769.581299	1294.379639	3148.392822	1816.851563	28.180593
769.898376	1292.505005	3111.230713	1804.059570	28.127087
770.215393	1292.174072	3077.928467	1790.385742	27.899227
770.532349	1292.504883	3049.698975	1783.438599	27.938503
770.849304	1291.512451	3019.925293	1776.491455	28.059212
771.166199	1290.740601	2998.863281	1768.110718	27.947063
771.483032	1287.542725	2981.770752	1756.752808	27.694624
771.799866	1288.645508	2961.260010	1751.128662	27.650314
772.116577	1291.622803	2940.528564	1745.504639	27.526245
772.433350	1293.938599	2928.509033	1739.219116	27.241440
772.749939	1294.931030	2919.025391	1733.816040	27.023369
773.066589	1294.048828	2905.131348	1728.302246	26.954140
773.383057	1297.357178	2888.811035	1722.898804	26.739174
773.699646	1298.680420	2876.460205	1716.613281	26.488668
774.016113	1300.885864	2860.029785	1713.084595	26.437504
774.332520	1303.201660	2851.208008	1706.137451	26.029337
774.648804	1308.494751	2842.055176	1702.388428	25.684914
774.965149	1307.943359	2831.689697	1701.065063	25.799681
775.281433	1313.126099	2820.993164	1694.448486	25.288860
775.597656	1313.677490	2814.156494	1692.573975	25.251701
775.913879	1312.905640	2807.540283	1689.707031	25.210268
776.229980	1314.449463	2797.836426	1687.942749	25.178411
776.546082	1312.023315	2787.691162	1684.524170	25.242867
776.862122	1315.882935	2780.854248	1680.885254	24.915321
777.178162	1317.978149	2771.812012	1680.002930	24.901386
777.494141	1315.331421	2767.621582	1678.238525	24.988609
777.809998	1314.780151	2755.822266	1679.341309	25.298439
778.125854	1316.544556	2750.309082	1677.356445	25.165352
778.441711	1317.426758	2744.133789	1673.276367	24.942024
778.757446	1316.323975	2737.847900	1673.938110	25.157095
779.073181	1313.567017	2733.547363	1672.724854	25.293156
779.388855	1316.323853	2727.702637	1666.659912	24.822256
779.704468	1315.552124	2723.623047	1662.910767	24.669115
780.020020	1310.258911	2717.888672	1660.595093	24.888376
780.335571	1311.251343	2708.736328	1658.940796	24.879656
780.651062	1310.479492	2703.222168	1650.890991	24.441809
780.966553	1307.722656	2697.708740	1651.221924	24.712425
781.281860	1301.657471	2686.020020	1650.119019	25.171265
781.597290	1301.767944	2678.631592	1649.457397	25.252279
781.912476	1299.231812	2675.102783	1650.670410	25.542992
782.227722	1300.775635	2666.060547	1644.495117	25.175659
782.542908	1299.011108	2654.923096	1639.643066	25.121981
782.858093	1299.452148	2642.682373	1634.129517	24.915861
783.173218	1302.539917	2640.256836	1627.072021	24.260147
783.488281	1300.003662	2639.595215	1629.057129	24.563717
783.803345	1299.562622	2630.883789	1625.748657	24.500927
784.118225	1301.547485	2618.202148	1620.345459	24.212725
784.433167	1302.208862	2609.821533	1614.059937	23.848888
784.748047	1303.532227	2603.425537	1607.002563	23.345789
785.062866	1306.619995	2590.193115	1605.679321	23.298971
785.377686	1305.958374	2579.276123	1599.062866	23.018959
785.692444	1306.619995	2568.689697	1597.960205	23.084320
786.007141	1305.517334	2564.830078	1596.747192	23.126095
786.321716	1308.825439	2558.765137	1599.834839	23.281876
786.636353	1311.141113	2562.073242	1599.614258	23.060656
786.950928	1309.487061	2567.256104	1603.584106	23.382437
787.265442	1308.715088	2574.313721	1610.861938	23.873829
787.579834	1304.414551	2570.674561	1613.508545	24.409994
787.894226	1308.163696	2576.850098	1614.831665	24.172087
788.208618	1304.193970	2578.834961	1613.618896	24.275457
788.522949	1305.517212	2574.424072	1614.280518	24.333015
788.837219	1302.870605	2574.424072	1614.280518	24.490509
789.151367	1303.752808	2579.937500	1617.698853	24.600361
789.465515	1301.657593	2579.937744	1618.360474	24.775702
789.779602	1299.893188	2571.005615	1622.991821	25.418573
790.093689	1303.973267	2559.427002	1624.645996	25.542377
790.407776	1300.554688	2555.016113	1622.551025	25.668095
790.721741	1299.672607	2549.943848	1620.455688	25.657080
791.035645	1298.018555	2541.562988	1618.581055	25.778130
791.349548	1296.695190	2534.615967	1622.881714	26.349548
791.663391	1293.938477	2536.270020	1624.315063	26.593271
791.977173	1296.805664	2532.630859	1624.866577	26.545900
792.290894	1296.254150	2521.714111	1620.676147	26.473488
792.604614	1298.790771	2510.466064	1622.550781	26.720030
792.918274	1299.231812	2501.754639	1616.375366	26.373184
793.231812	1298.680542	2485.764893	1610.861816	26.298155
793.545410	1298.459839	2473.083496	1604.797119	26.079611
793.858948	1300.113892	2456.983398	1598.621704	25.803066
794.172363	1304.524780	2451.690186	1593.108032	25.156202
794.485840	1302.209106	2442.427490	1589.579468	25.203098
794.799194	1308.494629	2439.449951	1581.308960	24.122467
795.112488	1307.171265	2438.126953	1582.411621	24.336971
795.425781	1309.156128	2435.370117	1580.867920	24.126125
795.738953	1305.958374	2428.533203	1575.905640	24.047152
796.052185	1307.061035	2428.753906	1574.361816	23.830122
796.365234	1307.171265	2428.754150	1570.612549	23.488348
796.678284	1305.627441	2429.966797	1564.768066	23.048258
796.991333	1308.825317	2427.540771	1567.414673	23.114845
797.304382	1309.927979	2429.305176	1567.083740	22.973110
797.617310	1312.023193	2428.974121	1564.657715	22.618229
797.930115	1312.574463	2422.468262	1559.585205	22.255350
798.242981	1314.890259	2417.726318	1558.151611	22.057798
798.555786	1313.236084	2413.425781	1554.402344	21.920425
798.868530	1317.205933	2412.764160	1552.968872	21.519892
799.181213	1313.346436	2411.110352	1546.903809	21.275738
799.493896	1313.125854	2406.479004	1548.337402	21.512861
799.806519	1316.985474	2406.037842	1548.337402	21.243416
800.119080	1318.198608	2402.068115	1547.455200	21.151678
800.431580	1315.000610	2392.033203	1543.705933	21.234764
800.744080	1313.897949	2382.329346	1541.721069	21.323139
801.056458	1315.000732	2373.948486	1538.633423	21.118387
801.368835	1312.133667	2360.054199	1537.971680	21.551064
801.681152	1314.890381	2348.144531	1533.781372	21.184622
801.993408	1316.765015	2338.440430	1529.591064	20.831083
802.305664	1319.962891	2329.397949	1528.157471	20.624861
802.617798	1320.845093	2318.812012	1522.313110	20.187845
802.929993	1320.403809	2310.431396	1519.666504	20.126984
803.242065	1321.396240	2301.058105	1514.593994	19.720861
803.554016	1318.418945	2295.985596	1510.954956	19.695436
803.865967	1318.639404	2289.479492	1509.521484	19.661537
804.177979	1316.103271	2288.045898	1509.190796	19.866144
804.489807	1314.890381	2288.045654	1512.829712	20.339954
804.801697	1311.251343	2286.281494	1510.734619	20.459190
805.113464	1310.369263	2280.547363	1513.932495	20.982048
805.425232	1306.730225	2282.311523	1516.468750	21.498825
805.736938	1305.627563	2277.900879	1516.027588	21.640009
806.048584	1300.554932	2273.269287	1515.476318	22.095015
806.360168	1297.467285	2267.535400	1513.160645	22.234867
806.671753	1296.915771	2257.280029	1506.544189	21.828011
806.983276	1298.790527	2257.831299	1505.551758	21.559170
807.294739	1300.223999	2252.979248	1501.471680	21.122705
807.606140	1301.437012	2248.568359	1501.140747	21.085115
807.917542	1301.326782	2247.906738	1503.456421	21.353678
808.228760	1301.216431	2242.393311	1498.163452	20.925611
808.540100	1300.223999	2231.917236	1498.273682	21.256962
808.851318	1297.026123	2225.080322	1496.840210	21.530434
809.162476	1297.356934	2217.361328	1497.942871	21.802715
809.473633	1297.246704	2212.840088	1497.942871	21.919792
809.784668	1291.071411	2206.113525	1498.935425	22.716333
810.095703	1295.813110	2194.975830	1497.281494	22.406221
810.406738	1298.570068	2186.594971	1498.163452	22.476103
810.717590	1302.870605	2174.465332	1499.707275	22.583509
811.028503	1303.311890	2163.548096	1493.201050	22.074072
811.339294	1303.201416	2153.733887	1492.208618	22.222221
811.650085	1302.209106	2148.661377	1489.231323	22.094833
811.960876	1299.231812	2137.082764	1485.481934	22.229506
812.271545	1301.988525	2129.143311	1485.482056	22.183699
812.582153	1309.045898	2126.496582	1481.071167	21.044115
812.892761	1307.281616	2116.902832	1478.865723	21.193134
813.203308	1302.980957	2115.579590	1482.063599	22.038265
813.513855	1303.973511	2111.058594	1480.740234	21.901869
813.824280	1303.311768	2107.530029	1480.188843	21.993666
814.134705	1301.988525	2105.765869	1475.998657	21.649046
814.445068	1301.437012	2096.943604	1473.352051	21.610762
814.755371	1301.437012	2098.156738	1472.138916	21.425591
815.065613	1299.562378	2102.016113	1470.374634	21.286243
815.375854	1302.980835	2101.354492	1472.249268	21.201656
815.686035	1302.208984	2104.111328	1471.367065	21.094599
815.996155	1303.311646	2104.442139	1469.271851	20.715752
816.306152	1308.053467	2105.544922	1470.595215	20.381628
816.616211	1306.840454	2114.036133	1470.815796	20.314199
816.926208	1303.091187	2117.675049	1469.933594	20.481918
817.236145	1303.752930	2126.166016	1471.697876	20.420996
817.546021	1304.524780	2139.619141	1477.432129	20.705128
817.855774	1305.186401	2151.638916	1478.093872	20.427309
818.165588	1305.958252	2168.951660	1485.371826	20.789680
818.475281	1309.928101	2192.218750	1492.539429	20.697412
818.784973	1305.406860	2222.102783	1502.133179	21.460367
819.094604	1299.231689	2250.112061	1507.977539	21.952904
819.404175	1298.790405	2295.434082	1518.894653	22.084547
819.713684	1298.680298	2358.620117	1536.538208	22.440699
820.023254	1297.577515	2484.661865	1579.323853	23.734314
820.332642	1295.923340	2704.766113	1656.183960	25.571386
820.642090	1295.923584	2994.231445	1756.201294	27.102137
820.951416	1296.144043	3298.804688	1857.982666	28.054609
821.260681	1292.725586	3552.982910	1943.885254	28.809095
821.569946	1293.497559	3751.914551	2010.710327	29.173763
821.879150	1294.159180	3915.779785	2057.135010	29.103212
822.188293	1295.592773	4045.460449	2098.597412	29.201574
822.497437	1298.018799	4152.204102	2132.341064	29.231539
822.806458	1298.018799	4247.811035	2164.651123	29.379436
823.115479	1298.790649	4328.861328	2189.462158	29.394413
823.424438	1300.334473	4405.721191	2212.178467	29.363298
823.733337	1295.813232	4468.245605	2232.358398	29.521360
824.042236	1296.144043	4520.073730	2249.671387	29.576555
824.351013	1295.372192	4567.932129	2267.535400	29.706505
824.659790	1297.467407	4607.079102	2277.128906	29.600496
824.968445	1297.908447	4665.522949	2297.088135	29.670252
825.277100	1301.106445	4735.656250	2322.671387	29.743780
825.585693	1304.635010	4822.220703	2352.886230	29.800304
825.894287	1309.376709	4879.562012	2376.594971	29.892517
826.202820	1314.890381	4901.395996	2380.674805	29.716513
826.511292	1313.787720	4834.019531	2362.149170	29.781033
826.819702	1316.213745	4662.435059	2300.727295	29.421652
827.128113	1320.073242	4409.911133	2221.662109	29.179165
827.436401	1319.962769	4141.618164	2130.686768	28.732212
827.744751	1321.506592	3911.148438	2054.819336	28.317148
828.052917	1322.057983	3731.293945	1991.743286	27.796585
828.361145	1319.521729	3583.308105	1943.002808	27.541515
828.669312	1320.183350	3465.977295	1905.289429	27.267580
828.977356	1315.993164	3366.732178	1872.318115	27.128023
829.285400	1312.464233	3275.867920	1839.126099	26.823921
829.593384	1310.920532	3197.353516	1811.778687	26.550541
829.901306	1307.833008	3122.257813	1786.195557	26.364418
830.209167	1312.133667	3057.858887	1764.692383	25.923822
830.517029	1312.795288	2998.532471	1746.607666	25.734283
830.824829	1314.669922	2946.704346	1732.272095	25.587830
831.132568	1311.802856	2898.073975	1717.054688	25.547451
831.440247	1308.935791	2841.724609	1696.984985	25.316547
831.747925	1308.384399	2783.059814	1678.128296	25.072901
832.055481	1305.848022	2716.786133	1660.926025	25.166094
832.363037	1306.178833	2668.706787	1644.605469	24.838142
832.670532	1304.635010	2628.898438	1634.460327	24.906322
832.977966	1306.178833	2611.034180	1623.763916	24.338720
833.285400	1308.825317	2591.847168	1619.683960	24.228632
833.592712	1306.840454	2572.659668	1609.649170	23.921955
833.900085	1307.391724	2552.700195	1603.363525	23.766947
834.207275	1302.760254	2539.798096	1597.739624	23.845623
834.514526	1301.767822	2527.668213	1598.070313	24.170193
834.821716	1302.760376	2517.964111	1599.614258	24.428322
835.128784	1303.091187	2508.921631	1595.093018	24.215828
835.435852	1306.399292	2503.297852	1593.108032	23.954306
835.742798	1308.163696	2494.696533	1589.138184	23.680296
836.049805	1307.722534	2485.323730	1589.689575	23.944187
836.356750	1309.597168	2474.847656	1592.005249	24.235826
836.663574	1306.950562	2463.930664	1588.035400	24.294699
836.970398	1307.060913	2452.021484	1578.552124	23.711840
837.277161	1304.524658	2437.244629	1566.642456	23.140564
837.583923	1305.075928	2424.122314	1561.018555	22.871494
837.890564	1308.053345	2396.774658	1554.512573	22.637495
838.197205	1308.604858	2354.650391	1536.869019	21.821627
838.503784	1311.692505	2308.005371	1519.225464	20.830099
838.810303	1309.376709	2257.059326	1502.022949	20.328138
839.116699	1306.509766	2211.626953	1485.482178	19.773397
839.423096	1309.046021	2160.791260	1468.941284	18.772663
839.729492	1308.715210	2120.541992	1454.936646	18.011408
840.035828	1304.745361	2089.996582	1444.129883	17.750309
840.342102	1302.760620	2067.500732	1437.734131	17.649591
840.648315	1308.494751	2039.601807	1432.330688	16.938141
840.954529	1311.692505	2021.517090	1424.060303	15.830361
841.260620	1313.015747	2003.432251	1418.436401	15.269138
841.566711	1310.258911	1989.207275	1413.033081	15.137259
841.872803	1309.707397	1968.365845	1407.850220	14.900412
842.178772	1312.795044	1954.250977	1405.755127	14.492045
842.484680	1310.920532	1935.394165	1399.249023	14.144471
842.790588	1312.574585	1921.830688	1394.286865	13.411812
843.096436	1313.567017	1911.354858	1389.875732	12.765183
843.402222	1314.118286	1899.996826	1386.677979	12.384767
843.707947	1315.551880	1889.300415	1383.590332	11.858584
844.013611	1315.993042	1878.162720	1381.384766	11.632026
844.319275	1313.125977	1861.070679	1374.217163	11.149152
844.624817	1314.118530	1844.529785	1369.034180	10.353410
844.930359	1311.913086	1820.380005	1358.447998	9.152004
845.235901	1311.030884	1800.530884	1352.823975	8.537914
845.541321	1315.993164	1778.035400	1349.515869	7.255333
845.846680	1311.913086	1765.354004	1343.009766	6.857934
846.152039	1311.472046	1751.459839	1337.275635	5.864614
846.457275	1316.323975	1736.793335	1333.526367	4.091236
846.762512	1318.308838	1724.553223	1330.107910	2.904427
847.067749	1316.654785	1716.392822	1324.925171	2.068951
847.372925	1315.110840	1705.365479	1320.403931	1.356317
847.677979	1313.125977	1699.410889	1316.764893	0.942029
847.983032	1314.669922	1687.391235	1314.228760	-0.118362
848.288025	1310.369263	1681.767456	1314.008057	0.979755
848.592957	1309.045898	1679.782349	1312.795166	1.011303
848.897888	1312.905518	1675.812744	1313.125977	0.060748
849.202759	1312.133667	1675.151001	1307.612305	-1.245495
849.507507	1308.715210	1670.739990	1306.289063	-0.670161
849.812317	1308.825439	1668.093506	1306.399414	-0.675269
850.117004	1308.163818	1667.211182	1307.281494	-0.245740
850.421631	1305.958374	1663.682617	1305.076172	-0.246615
850.726257	1304.745361	1661.146240	1303.311768	-0.402242
851.030823	1304.635010	1660.154053	1300.665283	-1.116600
851.335327	1303.421875	1660.264282	1302.539917	-0.247156
851.639771	1301.326782	1656.404785	1302.981079	0.465897
851.944153	1296.805664	1654.419800	1301.988525	1.449289
852.248535	1297.136353	1657.507446	1303.201416	1.683005
852.552856	1295.041260	1663.792725	1305.627319	2.870785
852.857056	1291.733032	1663.131104	1307.391602	4.216115
853.161255	1286.770874	1662.579834	1308.384277	5.751168
853.465393	1284.124268	1660.594727	1313.897827	7.908605
853.769531	1279.382568	1652.765381	1315.000610	9.539283
854.073547	1280.044189	1649.788086	1314.890259	9.424380
854.377563	1280.375000	1644.715576	1317.316284	10.139217
854.681580	1280.485474	1645.156616	1316.103394	9.767135
854.985474	1280.926392	1640.194336	1314.118530	9.238826
855.289307	1279.492920	1640.525269	1312.243896	9.071480
855.593140	1276.736084	1639.312134	1312.464478	9.854041
855.896851	1277.066895	1640.525269	1315.993164	10.709967
856.200623	1276.736084	1638.981445	1315.772705	10.776293
856.504272	1275.633423	1635.783691	1315.552002	11.083868
856.807922	1278.169678	1635.452759	1314.669678	10.215989
857.111389	1280.044312	1639.312256	1313.897949	9.422950
857.414978	1278.390259	1637.768555	1316.434204	10.586044
857.718445	1279.382568	1635.121826	1317.095825	10.601377
858.021790	1284.565308	1632.585693	1313.787598	8.396718
858.325195	1287.322144	1635.452881	1313.236328	7.443808
858.628479	1291.071655	1630.380371	1314.669922	6.954807
858.931763	1289.637817	1624.315308	1315.441772	7.710096
859.234985	1288.866089	1626.410522	1311.031006	6.566518
859.538147	1291.071533	1623.763916	1308.494629	5.236999
859.841248	1294.710571	1626.410522	1303.642700	2.692834
860.144287	1297.687866	1629.828857	1305.186523	2.257673
860.447266	1298.459717	1628.615723	1300.113892	0.501028
860.750305	1296.915894	1632.585571	1298.349609	0.427121
861.053223	1299.121338	1634.680786	1297.687988	-0.427152
861.356018	1295.592651	1635.342407	1298.129028	0.746543
861.658813	1294.489746	1634.460205	1296.144043	0.486600
861.961609	1299.672607	1630.049316	1294.048828	-1.702232
862.264343	1299.562256	1629.056885	1290.740723	-2.677292
862.567017	1301.216309	1630.821289	1292.946045	-2.509144
862.869629	1302.539673	1627.843994	1291.512451	-3.389817
863.172180	1302.429443	1623.322754	1296.033691	-1.993109
863.474670	1302.980713	1619.463135	1297.026123	-1.881492
863.777161	1304.083496	1617.037231	1295.482422	-2.748353
864.079590	1303.973267	1616.044800	1289.527710	-4.628925
864.381958	1302.760254	1622.330322	1289.196899	-4.244251
864.684265	1300.665161	1622.991943	1286.991455	-4.242188
864.986511	1297.246704	1621.889160	1286.109375	-3.430645
865.288757	1299.341797	1621.338013	1280.485474	-5.856070
865.590942	1301.988281	1621.117432	1282.360107	-6.150542
865.893066	1303.642578	1622.661133	1282.249756	-6.705824
866.195068	1301.988403	1619.352905	1280.264771	-6.845010
866.497131	1300.223999	1619.353027	1278.831299	-6.703464
866.799133	1304.193848	1623.874023	1279.603149	-7.692281
867.100952	1304.965698	1619.794067	1281.698242	-7.390521
867.402832	1306.619751	1616.816650	1283.572998	-7.429718
867.704651	1309.597168	1615.272827	1287.652954	-7.178921
868.006409	1309.045898	1617.808960	1291.181519	-5.785789
868.308105	1307.612305	1620.345459	1291.732910	-5.077618
868.609802	1310.810303	1620.896973	1290.078735	-6.685733
868.911438	1310.148682	1618.360474	1286.550171	-7.656589
869.213013	1310.479370	1617.478394	1284.895996	-8.333373
869.514465	1310.258911	1621.117432	1280.264648	-9.648847
869.815979	1312.133545	1620.345459	1274.861328	-12.093049
870.117371	1311.802734	1622.771362	1272.986816	-12.482262
870.418701	1315.000610	1624.425537	1277.948975	-11.974354
870.720093	1317.536987	1622.440674	1277.397827	-13.164537
871.021301	1319.080811	1621.558350	1275.523071	-14.400322
871.322571	1320.955322	1622.550781	1275.081909	-15.210247
871.623718	1319.301392	1625.638550	1276.735962	-13.894961
871.924805	1318.088379	1625.417969	1276.405151	-13.563038
872.225891	1318.970581	1625.528442	1273.427856	-14.856159
872.526917	1321.396484	1629.277588	1275.522827	-14.899796
872.827881	1323.491699	1626.631104	1278.279907	-14.914521
873.128784	1318.970459	1619.242920	1282.359863	-12.192459
873.429626	1317.867798	1620.345581	1281.146729	-12.140088
873.730408	1317.757568	1618.691406	1280.264526	-12.458899
874.031189	1314.338989	1621.338013	1275.302124	-12.715631
874.331848	1314.780151	1621.227661	1273.207275	-13.566068
874.632568	1311.692627	1620.786499	1276.405151	-11.416427
874.933167	1311.251343	1620.896973	1280.595459	-9.900312
875.233704	1309.156250	1623.102295	1282.029053	-8.640719
875.534241	1308.494629	1626.630981	1288.755737	-6.204538
875.834717	1307.171509	1627.513184	1288.424927	-5.852058
876.135071	1303.752930	1634.570679	1290.409912	-4.033344
876.435425	1302.539917	1634.019165	1292.946289	-2.894186
876.735779	1304.635132	1635.893799	1293.497437	-3.362235
877.036011	1298.901001	1636.004150	1301.988525	0.915899
877.336182	1297.246948	1638.650635	1307.391724	2.971490
877.636353	1294.931152	1645.928589	1312.243896	4.932442
877.936462	1294.931030	1651.001099	1314.118286	5.388618
878.236511	1297.908447	1661.366821	1316.103271	5.006027
878.536560	1297.798218	1679.782349	1320.403931	5.917972
878.836487	1297.246826	1703.049805	1330.990112	8.315189
879.136414	1294.379639	1762.486816	1347.751465	11.401626
879.436279	1291.843506	1852.138428	1375.760742	14.977333
879.736084	1293.276855	1963.513550	1407.078369	16.979301
880.035828	1290.961182	2086.908691	1446.886475	19.589897
880.335510	1293.938477	2202.694824	1486.364258	21.174629
880.635193	1293.276855	2303.594238	1522.313110	22.669733
880.934753	1297.797852	2393.576904	1547.565430	22.793608
881.234314	1296.474854	2473.193359	1567.965942	23.071880
881.533752	1298.569946	2539.467529	1588.917725	23.398207
881.833252	1297.798096	2600.889404	1604.576416	23.542351
882.132629	1298.570068	2658.892822	1619.242798	23.573282
882.431946	1298.680298	2704.766113	1636.886353	24.053017
882.731323	1299.893433	2746.559326	1647.362305	24.018599
883.030579	1298.459839	2780.192627	1657.948486	24.261368
883.329712	1298.018677	2813.053955	1661.146362	23.968266
883.628845	1298.790527	2833.675049	1668.314209	24.075016
883.927979	1298.900879	2847.128174	1669.968140	23.967234
884.226990	1299.452148	2858.045166	1675.591919	24.133289
884.526001	1296.144043	2861.684082	1675.812500	24.251596
884.824951	1296.695435	2855.398682	1677.797485	24.449944
885.123840	1295.702881	2838.306396	1668.424072	24.161827
885.422729	1297.687744	2793.645996	1652.214111	23.698948
885.721497	1300.223999	2709.948975	1625.859009	23.099188
886.020203	1301.216553	2605.962158	1595.313477	22.540556
886.318909	1302.760376	2484.331299	1554.622925	21.315907
886.617554	1302.980835	2367.773193	1517.681641	20.163631
886.916138	1302.980957	2268.858643	1482.614990	18.598011
887.214661	1300.554932	2181.522705	1454.716064	17.499065
887.513184	1301.106323	2099.369629	1430.125244	16.162451
887.811523	1298.018677	2028.905518	1408.070557	15.057307
888.109924	1303.752808	1794.686401	1322.278564	3.773577
888.408264	1292.174194	1871.105347	1368.593140	13.200006
888.706543	1294.489868	1690.478760	1345.435913	12.865523
889.004761	1331.541504	1743.740479	1333.857178	0.561785
889.302979	1313.015747	1655.742920	1280.595581	-9.459468
889.601135	1329.225830	1637.217163	1306.068604	-7.518792
889.899170	1282.911255	1678.900146	1301.437134	4.678383
890.197205	1313.015747	1667.321533	1257.438354	-15.686278
890.495178	1299.121338	1597.849854	1292.174194	-2.325571
890.793091	1271.332642	1570.061157	1264.385498	-2.325571
>>>>>End Processed Spectral Data<<<<<
